Data from 2025-12-03_xpw_interference_micrometer_637_FLMS141361__72__722.txt Node

Date: Wed Dec 03 15:56:12 MST 2025
User: james
Spectrometer: FLMS14136
Trigger mode: 0
Integration Time (sec): 1.000000E-1
Scans to average: 1
Electric dark correction enabled: true
Nonlinearity correction enabled: false
Boxcar width: 0
XAxis mode: Wavelengths
Number of Pixels in Spectrum: 2048
>>>>>Begin Spectral Data<<<<<
339.315	-37.5
339.697	-37.5
340.079	-37.5
340.461	-86.02
340.843	-78.36
341.225	-73.25
341.607	-137.08
341.989	-157.51
342.371	-93.68
342.752	-73.25
343.134	-24.74
343.516	-98.78
343.897	-37.5
344.279	16.12
344.661	-34.95
345.042	54.42
345.423	49.31
345.805	69.74
346.186	146.34
346.567	187.19
346.949	207.62
347.33	194.85
347.711	179.53
348.092	202.51
348.473	146.34
348.854	243.37
349.235	302.1
349.616	325.08
349.997	286.78
350.378	294.44
350.758	327.63
351.139	330.18
351.52	348.06
351.9	353.16
352.281	342.95
352.661	368.48
353.042	365.93
353.422	399.12
353.803	422.11
354.183	381.25
354.563	378.7
354.943	424.66
355.324	322.52
355.704	391.46
356.084	355.72
356.464	394.02
356.844	432.32
357.224	319.97
357.603	360.82
357.983	445.09
358.363	437.43
358.743	401.68
359.122	365.93
359.502	391.46
359.882	335.29
360.261	363.38
360.641	325.08
361.02	337.84
361.399	309.76
361.779	322.52
362.158	422.11
362.537	394.02
362.916	358.27
363.296	417
363.675	396.57
364.054	330.18
364.433	299.54
364.812	317.42
365.19	337.84
365.569	312.31
365.948	294.44
366.327	294.44
366.705	342.95
367.084	358.27
367.463	340.4
367.841	332.74
368.22	322.52
368.598	319.97
368.977	312.31
369.355	355.72
369.733	355.72
370.111	350.61
370.49	350.61
370.868	345.5
371.246	363.38
371.624	363.38
372.002	309.76
372.38	340.4
372.758	404.23
373.136	386.36
373.513	391.46
373.891	365.93
374.269	345.5
374.646	396.57
375.024	378.7
375.402	355.72
375.779	322.52
376.157	388.91
376.534	342.95
376.911	399.12
377.289	307.2
377.666	360.82
378.043	383.8
378.42	314.86
378.797	271.46
379.175	378.7
379.552	365.93
379.929	417
380.305	424.66
380.682	396.57
381.059	358.27
381.436	322.52
381.813	327.63
382.189	391.46
382.566	276.56
382.943	363.38
383.319	345.5
383.696	296.99
384.072	381.25
384.448	409.34
384.825	360.82
385.201	373.59
385.577	348.06
385.953	345.5
386.329	373.59
386.706	427.21
387.082	335.29
387.458	312.31
387.834	378.7
388.209	360.82
388.585	322.52
388.961	317.42
389.337	355.72
389.713	388.91
390.088	345.5
390.464	391.46
390.839	342.95
391.215	394.02
391.59	383.8
391.966	399.12
392.341	345.5
392.716	386.36
393.092	381.25
393.467	335.29
393.842	388.91
394.217	383.8
394.592	368.48
394.967	325.08
395.342	409.34
395.717	388.91
396.092	314.86
396.467	414.45
396.841	368.48
397.216	327.63
397.591	445.09
397.965	414.45
398.34	386.36
398.714	342.95
399.089	353.16
399.463	411.89
399.838	345.5
400.212	353.16
400.586	330.18
400.961	381.25
401.335	371.04
401.709	378.7
402.083	406.79
402.457	396.57
402.831	417
403.205	345.5
403.579	342.95
403.953	388.91
404.326	378.7
404.7	363.38
405.074	429.77
405.447	355.72
405.821	368.48
406.195	394.02
406.568	335.29
406.942	429.77
407.315	399.12
407.688	434.87
408.062	391.46
408.435	388.91
408.808	378.7
409.181	455.3
409.554	396.57
409.927	371.04
410.3	434.87
410.673	424.66
411.046	427.21
411.419	429.77
411.792	401.68
412.165	335.29
412.537	365.93
412.91	388.91
413.283	378.7
413.655	365.93
414.028	322.52
414.4	363.38
414.773	409.34
415.145	337.84
415.517	353.16
415.889	371.04
416.262	422.11
416.634	439.98
417.006	445.09
417.378	386.36
417.75	365.93
418.122	350.61
418.494	399.12
418.866	411.89
419.238	424.66
419.609	373.59
419.981	365.93
420.353	429.77
420.725	325.08
421.096	340.4
421.468	355.72
421.839	378.7
422.211	383.8
422.582	312.31
422.953	376.14
423.325	342.95
423.696	358.27
424.067	340.4
424.438	411.89
424.809	445.09
425.18	406.79
425.551	373.59
425.922	406.79
426.293	386.36
426.664	376.14
427.035	302.1
427.406	406.79
427.776	404.23
428.147	434.87
428.518	373.59
428.888	401.68
429.259	363.38
429.629	396.57
429.999	355.72
430.37	325.08
430.74	350.61
431.11	396.57
431.481	399.12
431.851	394.02
432.221	465.51
432.591	386.36
432.961	312.31
433.331	414.45
433.701	365.93
434.071	350.61
434.441	378.7
434.81	350.61
435.18	350.61
435.55	348.06
435.919	462.96
436.289	439.98
436.658	401.68
437.028	468.07
437.397	388.91
437.767	371.04
438.136	342.95
438.505	330.18
438.875	424.66
439.244	439.98
439.613	406.79
439.982	396.57
440.351	411.89
440.72	417
441.089	419.55
441.458	317.42
441.827	337.84
442.196	386.36
442.564	506.37
442.933	455.3
443.302	378.7
443.67	358.27
444.039	399.12
444.407	391.46
444.776	411.89
445.144	363.38
445.513	378.7
445.881	358.27
446.249	371.04
446.617	422.11
446.986	345.5
447.354	394.02
447.722	394.02
448.09	360.82
448.458	330.18
448.826	491.05
449.194	386.36
449.561	473.17
449.929	417
450.297	345.5
450.665	373.59
451.032	373.59
451.4	386.36
451.767	404.23
452.135	414.45
452.502	462.96
452.87	391.46
453.237	342.95
453.604	371.04
453.971	381.25
454.339	437.43
454.706	411.89
455.073	396.57
455.44	365.93
455.807	457.85
456.174	434.87
456.541	437.43
456.908	353.16
457.274	373.59
457.641	337.84
458.008	417
458.374	409.34
458.741	376.14
459.108	442.53
459.474	399.12
459.841	439.98
460.207	399.12
460.573	424.66
460.94	345.5
461.306	296.99
461.672	348.06
462.038	399.12
462.404	381.25
462.771	480.83
463.137	353.16
463.503	501.26
463.868	404.23
464.234	381.25
464.6	358.27
464.966	452.75
465.332	409.34
465.697	437.43
466.063	381.25
466.429	373.59
466.794	345.5
467.16	445.09
467.525	409.34
467.89	427.21
468.256	360.82
468.621	373.59
468.986	406.79
469.351	409.34
469.717	445.09
470.082	457.85
470.447	360.82
470.812	409.34
471.177	404.23
471.542	411.89
471.906	404.23
472.271	447.64
472.636	399.12
473.001	417
473.365	422.11
473.73	437.43
474.094	409.34
474.459	383.8
474.823	368.48
475.188	457.85
475.552	434.87
475.917	378.7
476.281	386.36
476.645	383.8
477.009	429.77
477.373	391.46
477.737	378.7
478.101	409.34
478.465	391.46
478.829	373.59
479.193	422.11
479.557	409.34
479.921	506.37
480.284	422.11
480.648	422.11
481.012	422.11
481.375	383.8
481.739	386.36
482.102	417
482.466	417
482.829	508.92
483.193	406.79
483.556	399.12
483.919	337.84
484.282	307.2
484.645	368.48
485.009	378.7
485.372	404.23
485.735	496.15
486.098	337.84
486.46	337.84
486.823	373.59
487.186	391.46
487.549	391.46
487.912	470.62
488.274	399.12
488.637	452.75
488.999	406.79
489.362	427.21
489.724	414.45
490.087	363.38
490.449	401.68
490.811	419.55
491.174	388.91
491.536	437.43
491.898	447.64
492.26	376.14
492.622	409.34
492.984	450.19
493.346	404.23
493.708	394.02
494.07	399.12
494.432	424.66
494.794	419.55
495.155	350.61
495.517	340.4
495.879	424.66
496.24	340.4
496.602	358.27
496.963	427.21
497.325	335.29
497.686	386.36
498.048	401.68
498.409	424.66
498.77	424.66
499.131	394.02
499.492	394.02
499.854	355.72
500.215	355.72
500.576	355.72
500.937	457.85
501.298	411.89
501.658	404.23
502.019	470.62
502.38	399.12
502.741	383.8
503.101	422.11
503.462	335.29
503.823	424.66
504.183	450.19
504.543	350.61
504.904	462.96
505.264	394.02
505.625	406.79
505.985	404.23
506.345	340.4
506.705	381.25
507.065	406.79
507.426	480.83
507.786	462.96
508.146	371.04
508.505	391.46
508.865	409.34
509.225	394.02
509.585	452.75
509.945	376.14
510.304	462.96
510.664	337.84
511.024	432.32
511.383	417
511.743	368.48
512.102	401.68
512.462	373.59
512.821	386.36
513.18	383.8
513.539	394.02
513.899	437.43
514.258	365.93
514.617	363.38
514.976	422.11
515.335	381.25
515.694	388.91
516.053	445.09
516.412	411.89
516.771	422.11
517.129	355.72
517.488	460.41
517.847	365.93
518.205	345.5
518.564	319.97
518.922	404.23
519.281	404.23
519.639	419.55
519.998	409.34
520.356	411.89
520.714	406.79
521.073	376.14
521.431	429.77
521.789	409.34
522.147	422.11
522.505	419.55
522.863	434.87
523.221	383.8
523.579	414.45
523.937	376.14
524.295	348.06
524.652	360.82
525.01	391.46
525.368	350.61
525.725	404.23
526.083	409.34
526.44	360.82
526.798	422.11
527.155	411.89
527.513	401.68
527.87	383.8
528.227	365.93
528.584	386.36
528.942	345.5
529.299	432.32
529.656	386.36
530.013	424.66
530.37	460.41
530.727	394.02
531.083	376.14
531.44	383.8
531.797	473.17
532.154	455.3
532.511	376.14
532.867	383.8
533.224	360.82
533.58	417
533.937	442.53
534.293	378.7
534.65	376.14
535.006	381.25
535.362	429.77
535.718	365.93
536.075	383.8
536.431	363.38
536.787	360.82
537.143	383.8
537.499	388.91
537.855	401.68
538.211	381.25
538.567	371.04
538.923	422.11
539.278	353.16
539.634	406.79
539.99	442.53
540.345	309.76
540.701	417
541.056	386.36
541.412	388.91
541.767	376.14
542.123	401.68
542.478	388.91
542.833	439.98
543.188	368.48
543.544	409.34
543.899	365.93
544.254	414.45
544.609	373.59
544.964	460.41
545.319	353.16
545.674	368.48
546.029	365.93
546.383	360.82
546.738	450.19
547.093	417
547.447	424.66
547.802	358.27
548.157	386.36
548.511	388.91
548.866	414.45
549.22	371.04
549.574	327.63
549.929	363.38
550.283	399.12
550.637	427.21
550.991	422.11
551.345	378.7
551.699	406.79
552.053	373.59
552.407	414.45
552.761	437.43
553.115	450.19
553.469	404.23
553.823	529.35
554.176	396.57
554.53	368.48
554.884	429.77
555.237	600.84
555.591	429.77
555.944	409.34
556.298	373.59
556.651	332.74
557.005	373.59
557.358	439.98
557.711	439.98
558.064	391.46
558.417	427.21
558.771	529.35
559.124	388.91
559.477	399.12
559.83	314.86
560.182	414.45
560.535	388.91
560.888	475.73
561.241	409.34
561.594	388.91
561.946	335.29
562.299	383.8
562.651	447.64
563.004	429.77
563.356	419.55
563.709	450.19
564.061	381.25
564.413	394.02
564.766	332.74
565.118	383.8
565.47	404.23
565.822	365.93
566.174	406.79
566.526	406.79
566.878	452.75
567.23	478.28
567.582	450.19
567.934	424.66
568.286	501.26
568.638	432.32
568.989	434.87
569.341	388.91
569.693	411.89
570.044	414.45
570.396	396.57
570.747	498.71
571.098	394.02
571.45	468.07
571.801	411.89
572.152	445.09
572.504	394.02
572.855	447.64
573.206	419.55
573.557	381.25
573.908	360.82
574.259	371.04
574.61	424.66
574.961	429.77
575.311	386.36
575.662	427.21
576.013	345.5
576.364	401.68
576.714	419.55
577.065	409.34
577.415	419.55
577.766	378.7
578.116	386.36
578.467	434.87
578.817	429.77
579.167	409.34
579.518	414.45
579.868	368.48
580.218	422.11
580.568	404.23
580.918	373.59
581.268	427.21
581.618	424.66
581.968	371.04
582.318	406.79
582.668	462.96
583.017	404.23
583.367	452.75
583.717	376.14
584.066	322.52
584.416	345.5
584.765	345.5
585.115	401.68
585.464	358.27
585.814	396.57
586.163	424.66
586.512	368.48
586.862	488.49
587.211	399.12
587.56	460.41
587.909	452.75
588.258	491.05
588.607	414.45
588.956	404.23
589.305	388.91
589.654	406.79
590.002	409.34
590.351	376.14
590.7	406.79
591.048	394.02
591.397	404.23
591.746	409.34
592.094	424.66
592.443	378.7
592.791	386.36
593.139	396.57
593.488	450.19
593.836	396.57
594.184	409.34
594.532	439.98
594.88	445.09
595.228	429.77
595.576	404.23
595.924	378.7
596.272	414.45
596.62	365.93
596.968	388.91
597.316	493.6
597.664	373.59
598.011	447.64
598.359	429.77
598.706	383.8
599.054	360.82
599.402	396.57
599.749	307.2
600.096	373.59
600.444	396.57
600.791	422.11
601.138	409.34
601.485	388.91
601.833	365.93
602.18	337.84
602.527	350.61
602.874	399.12
603.221	373.59
603.568	353.16
603.914	434.87
604.261	350.61
604.608	388.91
604.955	406.79
605.301	350.61
605.648	376.14
605.995	432.32
606.341	388.91
606.688	353.16
607.034	406.79
607.38	445.09
607.727	386.36
608.073	419.55
608.419	401.68
608.765	404.23
609.112	427.21
609.458	332.74
609.804	409.34
610.15	360.82
610.496	427.21
610.842	383.8
611.187	376.14
611.533	404.23
611.879	406.79
612.225	404.23
612.57	422.11
612.916	450.19
613.261	386.36
613.607	455.3
613.952	411.89
614.298	340.4
614.643	394.02
614.989	394.02
615.334	360.82
615.679	355.72
616.024	386.36
616.369	391.46
616.714	437.43
617.059	437.43
617.404	363.38
617.749	373.59
618.094	401.68
618.439	394.02
618.784	404.23
619.129	381.25
619.473	340.4
619.818	401.68
620.163	376.14
620.507	314.86
620.852	401.68
621.196	386.36
621.54	391.46
621.885	404.23
622.229	439.98
622.573	417
622.918	388.91
623.262	432.32
623.606	360.82
623.95	399.12
624.294	399.12
624.638	429.77
624.982	396.57
625.326	371.04
625.67	332.74
626.013	450.19
626.357	358.27
626.701	409.34
627.044	396.57
627.388	365.93
627.731	455.3
628.075	383.8
628.418	399.12
628.762	388.91
629.105	383.8
629.448	406.79
629.792	345.5
630.135	394.02
630.478	445.09
630.821	411.89
631.164	322.52
631.507	388.91
631.85	391.46
632.193	442.53
632.536	355.72
632.879	371.04
633.221	363.38
633.564	376.14
633.907	462.96
634.249	404.23
634.592	386.36
634.935	417
635.277	322.52
635.619	432.32
635.962	406.79
636.304	363.38
636.646	388.91
636.989	447.64
637.331	437.43
637.673	429.77
638.015	381.25
638.357	353.16
638.699	409.34
639.041	404.23
639.383	388.91
639.725	365.93
640.067	335.29
640.408	409.34
640.75	406.79
641.092	409.34
641.433	429.77
641.775	409.34
642.116	399.12
642.458	363.38
642.799	368.48
643.141	424.66
643.482	368.48
643.823	348.06
644.164	442.53
644.506	388.91
644.847	411.89
645.188	439.98
645.529	353.16
645.87	381.25
646.211	409.34
646.552	386.36
646.893	414.45
647.233	417
647.574	360.82
647.915	337.84
648.255	378.7
648.596	376.14
648.937	378.7
649.277	365.93
649.618	317.42
649.958	404.23
650.298	429.77
650.639	312.31
650.979	373.59
651.319	399.12
651.659	396.57
651.999	419.55
652.339	381.25
652.679	401.68
653.019	445.09
653.359	378.7
653.699	368.48
654.039	371.04
654.379	417
654.719	427.21
655.058	394.02
655.398	383.8
655.737	498.71
656.077	404.23
656.416	399.12
656.756	335.29
657.095	365.93
657.435	383.8
657.774	376.14
658.113	383.8
658.452	337.84
658.792	439.98
659.131	319.97
659.47	394.02
659.809	391.46
660.148	404.23
660.487	322.52
660.826	462.96
661.164	473.17
661.503	386.36
661.842	376.14
662.181	396.57
662.519	376.14
662.858	401.68
663.196	419.55
663.535	388.91
663.873	373.59
664.212	399.12
664.55	411.89
664.888	404.23
665.226	378.7
665.565	381.25
665.903	588.07
666.241	468.07
666.579	386.36
666.917	414.45
667.255	391.46
667.593	437.43
667.931	409.34
668.268	399.12
668.606	406.79
668.944	381.25
669.282	373.59
669.619	383.8
669.957	419.55
670.294	434.87
670.632	396.57
670.969	396.57
671.307	365.93
671.644	348.06
671.981	442.53
672.318	470.62
672.656	419.55
672.993	429.77
673.33	358.27
673.667	376.14
674.004	394.02
674.341	378.7
674.678	424.66
675.015	348.06
675.351	383.8
675.688	411.89
676.025	460.41
676.362	411.89
676.698	394.02
677.035	360.82
677.371	432.32
677.708	439.98
678.044	411.89
678.38	437.43
678.717	371.04
679.053	386.36
679.389	424.66
679.725	427.21
680.062	368.48
680.398	442.53
680.734	388.91
681.07	386.36
681.406	383.8
681.742	358.27
682.077	371.04
682.413	373.59
682.749	383.8
683.085	386.36
683.42	399.12
683.756	478.28
684.091	396.57
684.427	319.97
684.762	419.55
685.098	434.87
685.433	399.12
685.768	383.8
686.104	360.82
686.439	342.95
686.774	371.04
687.109	455.3
687.444	396.57
687.779	376.14
688.114	417
688.449	365.93
688.784	396.57
689.119	470.62
689.454	414.45
689.789	429.77
690.123	363.38
690.458	373.59
690.792	455.3
691.127	401.68
691.461	399.12
691.796	391.46
692.13	406.79
692.465	422.11
692.799	391.46
693.133	353.16
693.467	478.28
693.802	404.23
694.136	386.36
694.47	508.92
694.804	422.11
695.138	404.23
695.472	330.18
695.806	409.34
696.139	409.34
696.473	386.36
696.807	360.82
697.141	345.5
697.474	383.8
697.808	348.06
698.141	414.45
698.475	427.21
698.808	363.38
699.142	386.36
699.475	342.95
699.808	330.18
700.142	450.19
700.475	452.75
700.808	404.23
701.141	376.14
701.474	371.04
701.807	358.27
702.14	386.36
702.473	350.61
702.806	394.02
703.139	360.82
703.472	414.45
703.804	373.59
704.137	391.46
704.47	365.93
704.802	401.68
705.135	381.25
705.467	381.25
705.8	422.11
706.132	434.87
706.464	411.89
706.797	371.04
707.129	335.29
707.461	386.36
707.793	365.93
708.125	406.79
708.457	335.29
708.789	368.48
709.121	353.16
709.453	358.27
709.785	348.06
710.117	404.23
710.449	373.59
710.781	406.79
711.112	368.48
711.444	358.27
711.775	391.46
712.107	396.57
712.438	388.91
712.77	373.59
713.101	317.42
713.433	365.93
713.764	358.27
714.095	358.27
714.426	371.04
714.757	394.02
715.089	424.66
715.42	409.34
715.751	470.62
716.082	376.14
716.412	350.61
716.743	335.29
717.074	337.84
717.405	378.7
717.736	475.73
718.066	468.07
718.397	394.02
718.727	363.38
719.058	394.02
719.388	365.93
719.719	399.12
720.049	386.36
720.38	386.36
720.71	427.21
721.04	434.87
721.37	388.91
721.7	383.8
722.031	404.23
722.361	383.8
722.691	391.46
723.021	363.38
723.35	452.75
723.68	452.75
724.01	396.57
724.34	437.43
724.67	381.25
724.999	319.97
725.329	437.43
725.658	383.8
725.988	358.27
726.317	360.82
726.647	422.11
726.976	363.38
727.306	401.68
727.635	409.34
727.964	427.21
728.293	350.61
728.622	406.79
728.952	401.68
729.281	409.34
729.61	414.45
729.939	386.36
730.267	409.34
730.596	417
730.925	480.83
731.254	340.4
731.583	404.23
731.911	378.7
732.24	383.8
732.568	409.34
732.897	345.5
733.225	330.18
733.554	434.87
733.882	386.36
734.21	394.02
734.539	378.7
734.867	432.32
735.195	340.4
735.523	399.12
735.851	457.85
736.179	363.38
736.507	330.18
736.835	330.18
737.163	383.8
737.491	388.91
737.819	381.25
738.147	355.72
738.474	391.46
738.802	360.82
739.13	429.77
739.457	417
739.785	363.38
740.112	325.08
740.44	406.79
740.767	394.02
741.094	378.7
741.422	417
741.749	394.02
742.076	434.87
742.403	335.29
742.73	399.12
743.057	363.38
743.384	355.72
743.711	381.25
744.038	404.23
744.365	419.55
744.692	371.04
745.018	378.7
745.345	350.61
745.672	411.89
745.998	368.48
746.325	437.43
746.651	383.8
746.978	427.21
747.304	468.07
747.631	368.48
747.957	399.12
748.283	396.57
748.61	358.27
748.936	358.27
749.262	394.02
749.588	399.12
749.914	404.23
750.24	388.91
750.566	429.77
750.892	401.68
751.218	368.48
751.543	314.86
751.869	378.7
752.195	322.52
752.521	391.46
752.846	419.55
753.172	388.91
753.497	373.59
753.823	417
754.148	386.36
754.473	450.19
754.799	434.87
755.124	406.79
755.449	439.98
755.774	409.34
756.1	409.34
756.425	432.32
756.75	348.06
757.075	383.8
757.4	485.94
757.724	460.41
758.049	406.79
758.374	439.98
758.699	365.93
759.024	350.61
759.348	445.09
759.673	353.16
759.997	439.98
760.322	332.74
760.646	386.36
760.971	376.14
761.295	376.14
761.619	404.23
761.944	432.32
762.268	460.41
762.592	511.47
762.916	537.01
763.24	437.43
763.564	483.39
763.888	491.05
764.212	496.15
764.536	611.06
764.86	634.04
765.184	697.87
765.508	761.7
765.831	825.54
766.155	1149.82
766.478	771.92
766.802	718.3
767.126	697.87
767.449	685.1
767.772	922.57
768.096	1050.24
768.419	1269.83
768.742	1525.16
769.066	1599.21
769.389	1550.7
769.712	1517.5
770.035	1244.29
770.358	1019.6
770.681	932.78
771.004	976.19
771.327	1259.61
771.65	1680.92
771.972	2023.07
772.295	2572.05
772.618	2699.72
772.941	2612.9
773.263	2122.66
773.586	1655.39
773.908	1384.73
774.231	1326
774.553	1323.45
774.875	1686.03
775.198	2293.73
775.52	2924.42
775.842	3024
776.164	3036.76
776.487	2875.9
776.809	2296.28
777.131	1770.29
777.453	1369.41
777.775	1142.16
778.096	1566.02
778.418	2120.1
778.74	3021.44
779.062	4111.74
779.384	5255.65
779.705	5370.55
780.027	4706.67
780.348	3779.8
780.67	2873.35
780.991	2291.18
781.313	1818.8
781.634	1783.06
781.955	2508.22
782.277	3353.38
782.598	4420.7
782.919	5485.45
783.24	6044.64
783.561	5697.38
783.882	5247.99
784.203	4280.26
784.524	3131.24
784.845	2186.49
785.166	2023.07
785.487	2640.99
785.807	3422.32
786.128	4349.2
786.449	5403.75
786.769	6588.51
787.09	7530.71
787.41	6910.24
787.731	5255.65
788.051	3468.29
788.372	2349.91
788.692	1979.67
789.012	2326.93
789.332	2995.91
789.653	4456.44
789.973	5858.25
790.293	7512.84
790.613	8263.53
790.933	8485.67
791.253	7811.58
791.573	6008.9
791.893	4073.44
792.212	2748.23
792.532	2166.06
792.852	2380.55
793.171	3052.08
793.491	4070.88
793.811	5485.45
794.13	6930.67
794.45	7277.93
794.769	7022.59
795.088	6034.43
795.408	4581.56
795.727	3261.46
796.046	2291.18
796.365	2035.84
796.684	2579.71
797.004	4058.12
797.323	5840.37
797.642	7898.4
797.96	9736.83
798.279	10451.77
798.598	10329.21
798.917	8804.85
799.236	6647.24
799.554	4160.25
799.873	2602.69
800.192	1765.18
800.51	1640.07
800.829	2104.78
801.147	3098.05
801.466	4106.63
