Data from 2025-12-03_xpw_interference_micrometer_637_FLMS141361__61__711.txt Node

Date: Wed Dec 03 15:56:11 MST 2025
User: james
Spectrometer: FLMS14136
Trigger mode: 0
Integration Time (sec): 1.000000E-1
Scans to average: 1
Electric dark correction enabled: true
Nonlinearity correction enabled: false
Boxcar width: 0
XAxis mode: Wavelengths
Number of Pixels in Spectrum: 2048
>>>>>Begin Spectral Data<<<<<
339.315	-46.6
339.697	-46.6
340.079	-46.6
340.461	-148.73
340.843	-118.09
341.225	-79.79
341.607	-87.45
341.989	-107.88
342.371	-90.01
342.752	-95.11
343.134	-21.07
343.516	1.92
343.897	-18.51
344.279	-15.96
344.661	17.24
345.042	50.43
345.423	45.32
345.805	101.5
346.186	47.88
346.567	104.05
346.949	147.46
347.33	93.84
347.711	172.99
348.092	262.36
348.473	280.23
348.854	293
349.235	275.13
349.616	361.94
349.997	303.21
350.378	272.57
350.758	293
351.139	310.87
351.52	298.11
351.9	313.43
352.281	369.6
352.661	410.46
353.042	338.96
353.422	341.51
353.803	415.56
354.183	397.69
354.563	407.9
354.943	397.69
355.324	441.1
355.704	369.6
356.084	372.15
356.464	361.94
356.844	397.69
357.224	377.26
357.603	448.76
357.983	374.71
358.363	395.14
358.743	407.9
359.122	423.22
359.502	331.3
359.882	338.96
360.261	405.35
360.641	346.62
361.02	456.42
361.399	441.1
361.779	428.33
362.158	369.6
362.537	382.37
362.916	400.24
363.296	377.26
363.675	361.94
364.054	321.09
364.433	247.04
364.812	305.77
365.19	382.37
365.569	328.75
365.948	369.6
366.327	326.19
366.705	346.62
367.084	344.07
367.463	433.44
367.841	331.3
368.22	341.51
368.598	372.15
368.977	328.75
369.355	287.89
369.733	318.53
370.111	262.36
370.49	338.96
370.868	315.98
371.246	310.87
371.624	351.73
372.002	364.49
372.38	336.41
372.758	372.15
373.136	318.53
373.513	282.79
373.891	354.28
374.269	321.09
374.646	359.39
375.024	361.94
375.402	349.17
375.779	349.17
376.157	369.6
376.534	341.51
376.911	313.43
377.289	264.91
377.666	418.12
378.043	397.69
378.42	318.53
378.797	323.64
379.175	372.15
379.552	331.3
379.929	315.98
380.305	326.19
380.682	390.03
381.059	293
381.436	338.96
381.813	356.83
382.189	310.87
382.566	315.98
382.943	430.88
383.319	402.8
383.696	315.98
384.072	262.36
384.448	387.48
384.825	407.9
385.201	369.6
385.577	361.94
385.953	318.53
386.329	346.62
386.706	331.3
387.082	418.12
387.458	328.75
387.834	418.12
388.209	407.9
388.585	390.03
388.961	367.05
389.337	387.48
389.713	351.73
390.088	321.09
390.464	402.8
390.839	321.09
391.215	361.94
391.59	364.49
391.966	344.07
392.341	379.81
392.716	338.96
393.092	384.92
393.467	410.46
393.842	420.67
394.217	351.73
394.592	372.15
394.967	333.85
395.342	372.15
395.717	331.3
396.092	328.75
396.467	364.49
396.841	364.49
397.216	364.49
397.591	415.56
397.965	367.05
398.34	287.89
398.714	338.96
399.089	395.14
399.463	344.07
399.838	372.15
400.212	341.51
400.586	367.05
400.961	390.03
401.335	364.49
401.709	374.71
402.083	354.28
402.457	382.37
402.831	397.69
403.205	379.81
403.579	364.49
403.953	323.64
404.326	359.39
404.7	321.09
405.074	300.66
405.447	400.24
405.821	395.14
406.195	356.83
406.568	390.03
406.942	461.52
407.315	356.83
407.688	390.03
408.062	418.12
408.435	423.22
408.808	346.62
409.181	356.83
409.554	382.37
409.927	407.9
410.3	390.03
410.673	382.37
411.046	397.69
411.419	308.32
411.792	372.15
412.165	397.69
412.537	374.71
412.91	372.15
413.283	372.15
413.655	405.35
414.028	453.86
414.4	410.46
414.773	435.99
415.145	369.6
415.517	384.92
415.889	384.92
416.262	372.15
416.634	369.6
417.006	351.73
417.378	333.85
417.75	425.78
418.122	415.56
418.494	372.15
418.866	384.92
419.238	405.35
419.609	374.71
419.981	395.14
420.353	333.85
420.725	328.75
421.096	435.99
421.468	369.6
421.839	446.2
422.211	384.92
422.582	418.12
422.953	425.78
423.325	315.98
423.696	390.03
424.067	384.92
424.438	356.83
424.809	420.67
425.18	361.94
425.551	361.94
425.922	349.17
426.293	433.44
426.664	423.22
427.035	466.63
427.406	425.78
427.776	413.01
428.147	354.28
428.518	374.71
428.888	390.03
429.259	415.56
429.629	410.46
429.999	379.81
430.37	374.71
430.74	372.15
431.11	415.56
431.481	469.18
431.851	392.58
432.221	425.78
432.591	384.92
432.961	354.28
433.331	392.58
433.701	400.24
434.071	374.71
434.441	425.78
434.81	415.56
435.18	369.6
435.55	351.73
435.919	364.49
436.289	395.14
436.658	354.28
437.028	346.62
437.397	374.71
437.767	298.11
438.136	344.07
438.505	405.35
438.875	367.05
439.244	430.88
439.613	367.05
439.982	374.71
440.351	395.14
440.72	448.76
441.089	372.15
441.458	382.37
441.827	369.6
442.196	344.07
442.564	474.29
442.933	390.03
443.302	441.1
443.67	464.08
444.039	446.2
444.407	461.52
444.776	443.65
445.144	418.12
445.513	374.71
445.881	410.46
446.249	397.69
446.617	487.06
446.986	474.29
447.354	430.88
447.722	469.18
448.09	407.9
448.458	410.46
448.826	466.63
449.194	392.58
449.561	433.44
449.929	413.01
450.297	341.51
450.665	384.92
451.032	487.06
451.4	369.6
451.767	415.56
452.135	338.96
452.502	405.35
452.87	384.92
453.237	367.05
453.604	390.03
453.971	458.97
454.339	435.99
454.706	354.28
455.073	387.48
455.44	413.01
455.807	387.48
456.174	379.81
456.541	384.92
456.908	387.48
457.274	318.53
457.641	377.26
458.008	382.37
458.374	374.71
458.741	392.58
459.108	433.44
459.474	336.41
459.841	405.35
460.207	420.67
460.573	369.6
460.94	415.56
461.306	413.01
461.672	400.24
462.038	469.18
462.404	397.69
462.771	420.67
463.137	374.71
463.503	423.22
463.868	438.54
464.234	402.8
464.6	433.44
464.966	446.2
465.332	405.35
465.697	418.12
466.063	369.6
466.429	420.67
466.794	400.24
467.16	435.99
467.525	387.48
467.89	382.37
468.256	387.48
468.621	341.51
468.986	435.99
469.351	336.41
469.717	446.2
470.082	428.33
470.447	338.96
470.812	384.92
471.177	438.54
471.542	441.1
471.906	464.08
472.271	453.86
472.636	446.2
473.001	458.97
473.365	331.3
473.73	390.03
474.094	328.75
474.459	369.6
474.823	372.15
475.188	359.39
475.552	382.37
475.917	428.33
476.281	418.12
476.645	441.1
477.009	423.22
477.373	364.49
477.737	361.94
478.101	458.97
478.465	392.58
478.829	415.56
479.193	395.14
479.557	313.43
479.921	413.01
480.284	492.16
480.648	430.88
481.012	328.75
481.375	405.35
481.739	420.67
482.102	433.44
482.466	397.69
482.829	356.83
483.193	415.56
483.556	448.76
483.919	379.81
484.282	433.44
484.645	428.33
485.009	369.6
485.372	438.54
485.735	346.62
486.098	379.81
486.46	402.8
486.823	392.58
487.186	418.12
487.549	392.58
487.912	413.01
488.274	400.24
488.637	441.1
488.999	387.48
489.362	359.39
489.724	415.56
490.087	367.05
490.449	356.83
490.811	382.37
491.174	423.22
491.536	466.63
491.898	382.37
492.26	372.15
492.622	395.14
492.984	435.99
493.346	410.46
493.708	456.42
494.07	415.56
494.432	410.46
494.794	369.6
495.155	351.73
495.517	415.56
495.879	374.71
496.24	372.15
496.602	438.54
496.963	400.24
497.325	395.14
497.686	441.1
498.048	374.71
498.409	423.22
498.77	392.58
499.131	390.03
499.492	336.41
499.854	374.71
500.215	395.14
500.576	313.43
500.937	361.94
501.298	346.62
501.658	415.56
502.019	293
502.38	354.28
502.741	390.03
503.101	402.8
503.462	390.03
503.823	338.96
504.183	415.56
504.543	397.69
504.904	451.31
505.264	443.65
505.625	413.01
505.985	379.81
506.345	423.22
506.705	428.33
507.065	451.31
507.426	400.24
507.786	402.8
508.146	451.31
508.505	438.54
508.865	372.15
509.225	367.05
509.585	395.14
509.945	433.44
510.304	336.41
510.664	400.24
511.024	392.58
511.383	379.81
511.743	374.71
512.102	392.58
512.462	341.51
512.821	425.78
513.18	433.44
513.539	349.17
513.899	425.78
514.258	364.49
514.617	410.46
514.976	344.07
515.335	387.48
515.694	410.46
516.053	435.99
516.412	402.8
516.771	466.63
517.129	402.8
517.488	377.26
517.847	435.99
518.205	435.99
518.564	359.39
518.922	425.78
519.281	372.15
519.639	410.46
519.998	425.78
520.356	418.12
520.714	456.42
521.073	425.78
521.431	407.9
521.789	344.07
522.147	453.86
522.505	456.42
522.863	435.99
523.221	407.9
523.579	364.49
523.937	344.07
524.295	349.17
524.652	359.39
525.01	443.65
525.368	359.39
525.725	374.71
526.083	402.8
526.44	361.94
526.798	354.28
527.155	453.86
527.513	405.35
527.87	395.14
528.227	369.6
528.584	338.96
528.942	374.71
529.299	395.14
529.656	425.78
530.013	494.72
530.37	469.18
530.727	405.35
531.083	441.1
531.44	517.7
531.797	415.56
532.154	474.29
532.511	451.31
532.867	372.15
533.224	364.49
533.58	390.03
533.937	446.2
534.293	448.76
534.65	384.92
535.006	435.99
535.362	382.37
535.718	354.28
536.075	407.9
536.431	430.88
536.787	425.78
537.143	441.1
537.499	410.46
537.855	382.37
538.211	418.12
538.567	405.35
538.923	407.9
539.278	407.9
539.634	425.78
539.99	438.54
540.345	461.52
540.701	433.44
541.056	423.22
541.412	384.92
541.767	351.73
542.123	387.48
542.478	400.24
542.833	446.2
543.188	410.46
543.544	415.56
543.899	315.98
544.254	397.69
544.609	446.2
544.964	423.22
545.319	466.63
545.674	453.86
546.029	402.8
546.383	379.81
546.738	400.24
547.093	435.99
547.447	405.35
547.802	425.78
548.157	413.01
548.511	423.22
548.866	379.81
549.22	430.88
549.574	374.71
549.929	430.88
550.283	420.67
550.637	423.22
550.991	433.44
551.345	410.46
551.699	428.33
552.053	423.22
552.407	395.14
552.761	420.67
553.115	377.26
553.469	382.37
553.823	405.35
554.176	410.46
554.53	397.69
554.884	382.37
555.237	624.94
555.591	471.74
555.944	392.58
556.298	413.01
556.651	441.1
557.005	397.69
557.358	433.44
557.711	435.99
558.064	405.35
558.417	464.08
558.771	540.68
559.124	405.35
559.477	400.24
559.83	395.14
560.182	390.03
560.535	413.01
560.888	451.31
561.241	372.15
561.594	369.6
561.946	413.01
562.299	441.1
562.651	402.8
563.004	395.14
563.356	413.01
563.709	395.14
564.061	367.05
564.413	405.35
564.766	481.95
565.118	384.92
565.47	410.46
565.822	418.12
566.174	456.42
566.526	428.33
566.878	405.35
567.23	458.97
567.582	458.97
567.934	441.1
568.286	377.26
568.638	338.96
568.989	336.41
569.341	326.19
569.693	397.69
570.044	397.69
570.396	336.41
570.747	402.8
571.098	407.9
571.45	392.58
571.801	387.48
572.152	402.8
572.504	379.81
572.855	428.33
573.206	400.24
573.557	423.22
573.908	425.78
574.259	423.22
574.61	397.69
574.961	418.12
575.311	415.56
575.662	338.96
576.013	344.07
576.364	382.37
576.714	413.01
577.065	344.07
577.415	361.94
577.766	395.14
578.116	415.56
578.467	420.67
578.817	405.35
579.167	451.31
579.518	410.46
579.868	400.24
580.218	448.76
580.568	456.42
580.918	367.05
581.268	407.9
581.618	367.05
581.968	387.48
582.318	369.6
582.668	448.76
583.017	423.22
583.367	433.44
583.717	448.76
584.066	453.86
584.416	418.12
584.765	425.78
585.115	364.49
585.464	423.22
585.814	364.49
586.163	428.33
586.512	415.56
586.862	390.03
587.211	384.92
587.56	420.67
587.909	423.22
588.258	441.1
588.607	361.94
588.956	425.78
589.305	418.12
589.654	435.99
590.002	423.22
590.351	384.92
590.7	369.6
591.048	305.77
591.397	446.2
591.746	425.78
592.094	400.24
592.443	438.54
592.791	351.73
593.139	369.6
593.488	364.49
593.836	367.05
594.184	423.22
594.532	379.81
594.88	418.12
595.228	400.24
595.576	418.12
595.924	420.67
596.272	407.9
596.62	372.15
596.968	331.3
597.316	413.01
597.664	443.65
598.011	407.9
598.359	400.24
598.706	390.03
599.054	405.35
599.402	359.39
599.749	361.94
600.096	346.62
600.444	413.01
600.791	435.99
601.138	428.33
601.485	410.46
601.833	469.18
602.18	430.88
602.527	435.99
602.874	448.76
603.221	443.65
603.568	361.94
603.914	413.01
604.261	379.81
604.608	326.19
604.955	328.75
605.301	364.49
605.648	451.31
605.995	407.9
606.341	418.12
606.688	387.48
607.034	333.85
607.38	397.69
607.727	407.9
608.073	397.69
608.419	402.8
608.765	415.56
609.112	377.26
609.458	367.05
609.804	433.44
610.15	481.95
610.496	487.06
610.842	377.26
611.187	341.51
611.533	349.17
611.879	458.97
612.225	318.53
612.57	346.62
612.916	359.39
613.261	402.8
613.607	392.58
613.952	397.69
614.298	402.8
614.643	356.83
614.989	435.99
615.334	405.35
615.679	367.05
616.024	390.03
616.369	397.69
616.714	405.35
617.059	410.46
617.404	361.94
617.749	433.44
618.094	336.41
618.439	369.6
618.784	407.9
619.129	379.81
619.473	323.64
619.818	346.62
620.163	433.44
620.507	423.22
620.852	418.12
621.196	379.81
621.54	372.15
621.885	374.71
622.229	441.1
622.573	367.05
622.918	423.22
623.262	354.28
623.606	328.75
623.95	438.54
624.294	479.4
624.638	435.99
624.982	441.1
625.326	413.01
625.67	413.01
626.013	367.05
626.357	390.03
626.701	372.15
627.044	400.24
627.388	395.14
627.731	438.54
628.075	392.58
628.418	395.14
628.762	418.12
629.105	384.92
629.448	458.97
629.792	374.71
630.135	349.17
630.478	382.37
630.821	430.88
631.164	392.58
631.507	400.24
631.85	387.48
632.193	410.46
632.536	372.15
632.879	390.03
633.221	372.15
633.564	321.09
633.907	418.12
634.249	313.43
634.592	392.58
634.935	410.46
635.277	410.46
635.619	397.69
635.962	415.56
636.304	374.71
636.646	382.37
636.989	387.48
637.331	438.54
637.673	369.6
638.015	359.39
638.357	338.96
638.699	407.9
639.041	346.62
639.383	351.73
639.725	438.54
640.067	377.26
640.408	382.37
640.75	387.48
641.092	487.06
641.433	453.86
641.775	392.58
642.116	405.35
642.458	423.22
642.799	400.24
643.141	430.88
643.482	441.1
643.823	338.96
644.164	369.6
644.506	448.76
644.847	428.33
645.188	438.54
645.529	433.44
645.87	392.58
646.211	443.65
646.552	494.72
646.893	407.9
647.233	313.43
647.574	405.35
647.915	303.21
648.255	333.85
648.596	356.83
648.937	384.92
649.277	379.81
649.618	405.35
649.958	384.92
650.298	377.26
650.639	430.88
650.979	397.69
651.319	395.14
651.659	405.35
651.999	300.66
652.339	331.3
652.679	310.87
653.019	349.17
653.359	390.03
653.699	410.46
654.039	415.56
654.379	338.96
654.719	402.8
655.058	372.15
655.398	377.26
655.737	507.48
656.077	448.76
656.416	395.14
656.756	390.03
657.095	418.12
657.435	405.35
657.774	402.8
658.113	390.03
658.452	356.83
658.792	367.05
659.131	420.67
659.47	461.52
659.809	453.86
660.148	413.01
660.487	418.12
660.826	387.48
661.164	428.33
661.503	379.81
661.842	415.56
662.181	397.69
662.519	392.58
662.858	351.73
663.196	361.94
663.535	420.67
663.873	377.26
664.212	420.67
664.55	405.35
664.888	364.49
665.226	397.69
665.565	433.44
665.903	663.24
666.241	481.95
666.579	415.56
666.917	351.73
667.255	420.67
667.593	367.05
667.931	464.08
668.268	441.1
668.606	410.46
668.944	443.65
669.282	387.48
669.619	333.85
669.957	418.12
670.294	402.8
670.632	420.67
670.969	367.05
671.307	369.6
671.644	367.05
671.981	338.96
672.318	356.83
672.656	341.51
672.993	433.44
673.33	407.9
673.667	392.58
674.004	402.8
674.341	420.67
674.678	384.92
675.015	418.12
675.351	374.71
675.688	415.56
676.025	331.3
676.362	354.28
676.698	351.73
677.035	328.75
677.371	390.03
677.708	410.46
678.044	390.03
678.38	476.84
678.717	438.54
679.053	361.94
679.389	413.01
679.725	331.3
680.062	410.46
680.398	397.69
680.734	446.2
681.07	313.43
681.406	364.49
681.742	443.65
682.077	361.94
682.413	390.03
682.749	420.67
683.085	497.27
683.42	410.46
683.756	333.85
684.091	402.8
684.427	428.33
684.762	308.32
685.098	367.05
685.433	364.49
685.768	328.75
686.104	382.37
686.439	336.41
686.774	402.8
687.109	420.67
687.444	438.54
687.779	400.24
688.114	402.8
688.449	410.46
688.784	387.48
689.119	382.37
689.454	382.37
689.789	328.75
690.123	356.83
690.458	382.37
690.792	405.35
691.127	379.81
691.461	392.58
691.796	382.37
692.13	328.75
692.465	369.6
692.799	356.83
693.133	405.35
693.467	420.67
693.802	418.12
694.136	356.83
694.47	397.69
694.804	323.64
695.138	438.54
695.472	407.9
695.806	361.94
696.139	423.22
696.473	374.71
696.807	377.26
697.141	351.73
697.474	369.6
697.808	405.35
698.141	349.17
698.475	341.51
698.808	364.49
699.142	382.37
699.475	354.28
699.808	448.76
700.142	390.03
700.475	400.24
700.808	384.92
701.141	415.56
701.474	346.62
701.807	321.09
702.14	489.61
702.473	456.42
702.806	395.14
703.139	341.51
703.472	430.88
703.804	315.98
704.137	379.81
704.47	425.78
704.802	390.03
705.135	469.18
705.467	418.12
705.8	346.62
706.132	354.28
706.464	418.12
706.797	351.73
707.129	315.98
707.461	397.69
707.793	390.03
708.125	428.33
708.457	349.17
708.789	413.01
709.121	382.37
709.453	367.05
709.785	346.62
710.117	392.58
710.449	379.81
710.781	379.81
711.112	377.26
711.444	407.9
711.775	349.17
712.107	413.01
712.438	351.73
712.77	367.05
713.101	341.51
713.433	377.26
713.764	374.71
714.095	420.67
714.426	397.69
714.757	405.35
715.089	356.83
715.42	344.07
715.751	382.37
716.082	407.9
716.412	400.24
716.743	413.01
717.074	410.46
717.405	395.14
717.736	433.44
718.066	413.01
718.397	349.17
718.727	402.8
719.058	344.07
719.388	410.46
719.719	369.6
720.049	321.09
720.38	395.14
720.71	369.6
721.04	367.05
721.37	367.05
721.7	374.71
722.031	344.07
722.361	423.22
722.691	418.12
723.021	361.94
723.35	405.35
723.68	379.81
724.01	395.14
724.34	484.5
724.67	349.17
724.999	415.56
725.329	377.26
725.658	420.67
725.988	344.07
726.317	433.44
726.647	384.92
726.976	387.48
727.306	382.37
727.635	298.11
727.964	415.56
728.293	400.24
728.622	428.33
728.952	430.88
729.281	418.12
729.61	349.17
729.939	418.12
730.267	443.65
730.596	413.01
730.925	341.51
731.254	402.8
731.583	423.22
731.911	425.78
732.24	364.49
732.568	379.81
732.897	415.56
733.225	323.64
733.554	369.6
733.882	369.6
734.21	397.69
734.539	344.07
734.867	400.24
735.195	428.33
735.523	367.05
735.851	392.58
736.179	359.39
736.507	392.58
736.835	361.94
737.163	361.94
737.491	400.24
737.819	428.33
738.147	379.81
738.474	487.06
738.802	446.2
739.13	433.44
739.457	351.73
739.785	448.76
740.112	415.56
740.44	415.56
740.767	374.71
741.094	318.53
741.422	367.05
741.749	410.46
742.076	344.07
742.403	384.92
742.73	407.9
743.057	428.33
743.384	361.94
743.711	359.39
744.038	415.56
744.365	438.54
744.692	367.05
745.018	369.6
745.345	407.9
745.672	441.1
745.998	397.69
746.325	377.26
746.651	361.94
746.978	438.54
747.304	392.58
747.631	382.37
747.957	397.69
748.283	318.53
748.61	407.9
748.936	441.1
749.262	379.81
749.588	418.12
749.914	341.51
750.24	438.54
750.566	382.37
750.892	443.65
751.218	458.97
751.543	410.46
751.869	413.01
752.195	390.03
752.521	384.92
752.846	443.65
753.172	392.58
753.497	405.35
753.823	438.54
754.148	415.56
754.473	441.1
754.799	395.14
755.124	405.35
755.449	428.33
755.774	430.88
756.1	392.58
756.425	405.35
756.75	415.56
757.075	448.76
757.4	515.14
757.724	410.46
758.049	344.07
758.374	425.78
758.699	377.26
759.024	456.42
759.348	413.01
759.673	369.6
759.997	435.99
760.322	387.48
760.646	405.35
760.971	410.46
761.295	484.5
761.619	502.38
761.944	377.26
762.268	466.63
762.592	484.5
762.916	492.16
763.24	484.5
763.564	458.97
763.888	533.02
764.212	471.74
764.536	545.78
764.86	594.3
765.184	724.52
765.508	729.63
765.831	770.48
766.155	1079.44
766.478	862.4
766.802	790.91
767.126	691.33
767.449	665.79
767.772	859.85
768.096	1013.05
768.419	1247.96
768.742	1564.58
769.066	1567.14
769.389	1526.28
769.712	1470.11
770.035	1322.01
770.358	995.18
770.681	890.49
771.004	1069.23
771.327	1306.69
771.65	1779.07
771.972	2182.5
772.295	2690.62
772.618	2764.67
772.941	2471.03
773.263	2144.2
773.586	1722.89
773.908	1416.49
774.231	1324.56
774.553	1398.61
774.875	1735.66
775.198	2351.02
775.52	2836.16
775.842	3091.5
776.164	2940.85
776.487	2777.44
776.809	2343.36
777.131	1855.67
777.453	1344.99
777.775	1260.73
778.096	1567.14
778.418	2228.46
778.74	3132.36
779.062	4296.7
779.384	5292.51
779.705	5282.3
780.027	4718
780.348	3760.49
780.67	3009.79
780.991	2246.33
781.313	1837.79
781.634	1950.14
781.955	2583.38
782.277	3607.28
782.598	4636.3
782.919	5821.06
783.24	6101.94
783.561	5749.57
783.882	5366.56
784.203	4350.32
784.524	3053.2
784.845	2223.35
785.166	2149.31
785.487	2698.28
785.807	3681.33
786.128	4467.77
786.449	5512.1
786.769	6620.27
787.09	7588
787.41	6952.21
787.731	5180.17
788.051	3500.04
788.372	2322.94
788.692	1960.36
789.012	2396.98
789.332	3180.87
789.653	4552.03
789.973	5961.5
790.293	7608.43
790.613	8218.69
790.933	8601.69
791.253	7662.05
791.573	5695.95
791.893	4038.81
792.212	2667.64
792.532	2179.95
792.852	2486.35
793.171	3173.21
793.491	4220.1
793.811	5555.51
794.13	6998.17
794.45	7565.02
794.769	7023.7
795.088	5923.2
795.408	4477.99
795.727	3262.58
796.046	2284.63
796.365	2059.94
796.684	2777.44
797.004	3980.08
797.323	5884.9
797.642	8004.2
797.96	10052.01
798.279	10636.73
798.598	10343.1
798.917	8823.84
799.236	6380.25
799.554	4100.09
799.873	2560.4
800.192	1707.57
800.51	1653.95
800.829	2177.39
