Data from 2025-12-03_xpw_interference_micrometer_637_FLMS141361__12__662.txt Node

Date: Wed Dec 03 15:56:06 MST 2025
User: james
Spectrometer: FLMS14136
Trigger mode: 0
Integration Time (sec): 1.000000E-1
Scans to average: 1
Electric dark correction enabled: true
Nonlinearity correction enabled: false
Boxcar width: 0
XAxis mode: Wavelengths
Number of Pixels in Spectrum: 2048
>>>>>Begin Spectral Data<<<<<
339.315	-23.78
339.697	-23.78
340.079	-23.78
340.461	-115.7
340.843	-39.1
341.225	-28.89
341.607	-85.06
341.989	-146.34
342.371	-64.63
342.752	-56.97
343.134	4.31
343.516	-85.06
343.897	-28.89
344.279	-64.63
344.661	32.4
345.042	1.76
345.423	22.18
345.805	131.98
346.186	124.32
346.567	106.44
346.949	137.08
347.33	172.83
347.711	198.37
348.092	198.37
348.473	200.92
348.854	282.63
349.235	295.39
349.616	267.31
349.997	323.48
350.378	297.95
350.758	328.59
351.139	392.42
351.52	372
351.9	405.19
352.281	397.53
352.661	361.78
353.042	328.59
353.422	313.27
353.803	420.51
354.183	341.35
354.563	364.34
354.943	346.46
355.324	338.8
355.704	351.57
356.084	425.62
356.464	374.55
356.844	387.32
357.224	484.34
357.603	389.87
357.983	420.51
358.363	466.47
358.743	463.92
359.122	456.26
359.502	402.64
359.882	356.67
360.261	349.01
360.641	338.8
361.02	364.34
361.399	349.01
361.779	417.96
362.158	387.32
362.537	356.67
362.916	476.68
363.296	361.78
363.675	397.53
364.054	392.42
364.433	346.46
364.812	400.08
365.19	349.01
365.569	361.78
365.948	328.59
366.327	382.21
366.705	392.42
367.084	428.17
367.463	359.23
367.841	331.14
368.22	379.66
368.598	359.23
368.977	315.82
369.355	366.89
369.733	343.91
370.111	351.57
370.49	315.82
370.868	310.71
371.246	377.1
371.624	420.51
372.002	313.27
372.38	341.35
372.758	420.51
373.136	443.49
373.513	377.1
373.891	430.72
374.269	374.55
374.646	366.89
375.024	323.48
375.402	331.14
375.779	377.1
376.157	364.34
376.534	412.85
376.911	364.34
377.289	349.01
377.666	392.42
378.043	369.44
378.42	400.08
378.797	415.4
379.175	351.57
379.552	400.08
379.929	341.35
380.305	331.14
380.682	318.37
381.059	394.98
381.436	423.06
381.813	430.72
382.189	476.68
382.566	382.21
382.943	364.34
383.319	359.23
383.696	351.57
384.072	354.12
384.448	405.19
384.825	415.4
385.201	387.32
385.577	359.23
385.953	446.04
386.329	349.01
386.706	435.83
387.082	412.85
387.458	387.32
387.834	435.83
388.209	382.21
388.585	394.98
388.961	384.76
389.337	392.42
389.713	466.47
390.088	446.04
390.464	354.12
390.839	384.76
391.215	389.87
391.59	338.8
391.966	364.34
392.341	394.98
392.716	379.66
393.092	372
393.467	397.53
393.842	369.44
394.217	354.12
394.592	382.21
394.967	420.51
395.342	392.42
395.717	382.21
396.092	374.55
396.467	435.83
396.841	417.96
397.216	364.34
397.591	394.98
397.965	364.34
398.34	415.4
398.714	402.64
399.089	394.98
399.463	389.87
399.838	400.08
400.212	405.19
400.586	369.44
400.961	384.76
401.335	382.21
401.709	407.74
402.083	374.55
402.457	372
402.831	410.3
403.205	384.76
403.579	310.71
403.953	415.4
404.326	400.08
404.7	443.49
405.074	379.66
405.447	394.98
405.821	354.12
406.195	377.1
406.568	415.4
406.942	474.13
407.315	374.55
407.688	318.37
408.062	377.1
408.435	466.47
408.808	313.27
409.181	420.51
409.554	423.06
409.927	382.21
410.3	384.76
410.673	415.4
411.046	412.85
411.419	405.19
411.792	425.62
412.165	430.72
412.537	379.66
412.91	435.83
413.283	461.36
413.655	420.51
414.028	443.49
414.4	433.28
414.773	415.4
415.145	331.14
415.517	377.1
415.889	400.08
416.262	389.87
416.634	405.19
417.006	349.01
417.378	412.85
417.75	494.56
418.122	433.28
418.494	451.15
418.866	402.64
419.238	364.34
419.609	405.19
419.981	354.12
420.353	448.6
420.725	440.94
421.096	384.76
421.468	415.4
421.839	343.91
422.211	392.42
422.582	377.1
422.953	400.08
423.325	394.98
423.696	451.15
424.067	420.51
424.438	417.96
424.809	377.1
425.18	446.04
425.551	458.81
425.922	402.64
426.293	479.24
426.664	387.32
427.035	435.83
427.406	453.7
427.776	420.51
428.147	453.7
428.518	397.53
428.888	481.79
429.259	486.9
429.629	417.96
429.999	379.66
430.37	382.21
430.74	469.02
431.11	410.3
431.481	402.64
431.851	494.56
432.221	415.4
432.591	417.96
432.961	412.85
433.331	420.51
433.701	394.98
434.071	389.87
434.441	417.96
434.81	497.11
435.18	412.85
435.55	440.94
435.919	474.13
436.289	412.85
436.658	349.01
437.028	364.34
437.397	433.28
437.767	415.4
438.136	456.26
438.505	433.28
438.875	446.04
439.244	446.04
439.613	364.34
439.982	369.44
440.351	481.79
440.72	461.36
441.089	415.4
441.458	379.66
441.827	448.6
442.196	417.96
442.564	504.77
442.933	384.76
443.302	417.96
443.67	361.78
444.039	392.42
444.407	405.19
444.776	435.83
445.144	382.21
445.513	507.32
445.881	420.51
446.249	384.76
446.617	405.19
446.986	425.62
447.354	394.98
447.722	372
448.09	379.66
448.458	461.36
448.826	379.66
449.194	461.36
449.561	435.83
449.929	463.92
450.297	387.32
450.665	346.46
451.032	417.96
451.4	374.55
451.767	435.83
452.135	423.06
452.502	417.96
452.87	443.49
453.237	456.26
453.604	425.62
453.971	512.43
454.339	535.41
454.706	343.91
455.073	389.87
455.44	364.34
455.807	433.28
456.174	502.22
456.541	440.94
456.908	448.6
457.274	405.19
457.641	389.87
458.008	417.96
458.374	372
458.741	377.1
459.108	400.08
459.474	417.96
459.841	407.74
460.207	440.94
460.573	397.53
460.94	474.13
461.306	423.06
461.672	438.38
462.038	428.17
462.404	423.06
462.771	425.62
463.137	446.04
463.503	463.92
463.868	514.98
464.234	415.4
464.6	451.15
464.966	430.72
465.332	400.08
465.697	435.83
466.063	405.19
466.429	361.78
466.794	433.28
467.16	474.13
467.525	471.58
467.89	394.98
468.256	415.4
468.621	425.62
468.986	512.43
469.351	438.38
469.717	446.04
470.082	440.94
470.447	425.62
470.812	377.1
471.177	417.96
471.542	405.19
471.906	443.49
472.271	507.32
472.636	346.46
473.001	417.96
473.365	420.51
473.73	481.79
474.094	410.3
474.459	417.96
474.823	453.7
475.188	361.78
475.552	458.81
475.917	402.64
476.281	463.92
476.645	471.58
477.009	430.72
477.373	377.1
477.737	384.76
478.101	456.26
478.465	407.74
478.829	458.81
479.193	402.64
479.557	415.4
479.921	420.51
480.284	489.45
480.648	417.96
481.012	430.72
481.375	410.3
481.739	433.28
482.102	423.06
482.466	351.57
482.829	417.96
483.193	407.74
483.556	354.12
483.919	415.4
484.282	456.26
484.645	423.06
485.009	397.53
485.372	379.66
485.735	430.72
486.098	410.3
486.46	425.62
486.823	377.1
487.186	474.13
487.549	458.81
487.912	412.85
488.274	461.36
488.637	417.96
488.999	384.76
489.362	443.49
489.724	410.3
490.087	448.6
490.449	377.1
490.811	430.72
491.174	369.44
491.536	392.42
491.898	448.6
492.26	438.38
492.622	453.7
492.984	489.45
493.346	512.43
493.708	469.02
494.07	412.85
494.432	440.94
494.794	412.85
495.155	417.96
495.517	428.17
495.879	389.87
496.24	428.17
496.602	415.4
496.963	433.28
497.325	397.53
497.686	443.49
498.048	407.74
498.409	451.15
498.77	394.98
499.131	463.92
499.492	410.3
499.854	361.78
500.215	382.21
500.576	446.04
500.937	446.04
501.298	392.42
501.658	440.94
502.019	430.72
502.38	435.83
502.741	410.3
503.101	492
503.462	443.49
503.823	438.38
504.183	456.26
504.543	346.46
504.904	417.96
505.264	405.19
505.625	474.13
505.985	492
506.345	463.92
506.705	423.06
507.065	481.79
507.426	446.04
507.786	402.64
508.146	425.62
508.505	410.3
508.865	423.06
509.225	384.76
509.585	532.86
509.945	400.08
510.304	443.49
510.664	333.69
511.024	374.55
511.383	453.7
511.743	402.64
512.102	471.58
512.462	359.23
512.821	364.34
513.18	405.19
513.539	440.94
513.899	433.28
514.258	372
514.617	425.62
514.976	446.04
515.335	402.64
515.694	364.34
516.053	349.01
516.412	420.51
516.771	476.68
517.129	446.04
517.488	466.47
517.847	428.17
518.205	494.56
518.564	481.79
518.922	430.72
519.281	405.19
519.639	402.64
519.998	430.72
520.356	407.74
520.714	423.06
521.073	430.72
521.431	497.11
521.789	433.28
522.147	392.42
522.505	440.94
522.863	412.85
523.221	486.9
523.579	405.19
523.937	440.94
524.295	489.45
524.652	476.68
525.01	440.94
525.368	389.87
525.725	387.32
526.083	453.7
526.44	461.36
526.798	463.92
527.155	484.34
527.513	479.24
527.87	405.19
528.227	346.46
528.584	405.19
528.942	435.83
529.299	438.38
529.656	405.19
530.013	448.6
530.37	420.51
530.727	476.68
531.083	423.06
531.44	440.94
531.797	417.96
532.154	387.32
532.511	435.83
532.867	374.55
533.224	433.28
533.58	458.81
533.937	428.17
534.293	394.98
534.65	410.3
535.006	415.4
535.362	433.28
535.718	412.85
536.075	471.58
536.431	438.38
536.787	466.47
537.143	405.19
537.499	415.4
537.855	417.96
538.211	453.7
538.567	415.4
538.923	492
539.278	435.83
539.634	417.96
539.99	359.23
540.345	451.15
540.701	438.38
541.056	379.66
541.412	438.38
541.767	356.67
542.123	484.34
542.478	392.42
542.833	366.89
543.188	494.56
543.544	407.74
543.899	420.51
544.254	430.72
544.609	504.77
544.964	379.66
545.319	428.17
545.674	469.02
546.029	443.49
546.383	354.12
546.738	433.28
547.093	423.06
547.447	479.24
547.802	415.4
548.157	430.72
548.511	476.68
548.866	405.19
549.22	412.85
549.574	435.83
549.929	438.38
550.283	420.51
550.637	435.83
550.991	466.47
551.345	430.72
551.699	412.85
552.053	448.6
552.407	440.94
552.761	425.62
553.115	402.64
553.469	461.36
553.823	458.81
554.176	469.02
554.53	502.22
554.884	446.04
555.237	765.22
555.591	423.06
555.944	479.24
556.298	448.6
556.651	425.62
557.005	428.17
557.358	456.26
557.711	356.67
558.064	458.81
558.417	384.76
558.771	479.24
559.124	446.04
559.477	412.85
559.83	417.96
560.182	425.62
560.535	423.06
560.888	502.22
561.241	476.68
561.594	387.32
561.946	451.15
562.299	425.62
562.651	469.02
563.004	456.26
563.356	489.45
563.709	438.38
564.061	446.04
564.413	372
564.766	435.83
565.118	469.02
565.47	448.6
565.822	486.9
566.174	394.98
566.526	415.4
566.878	469.02
567.23	392.42
567.582	394.98
567.934	435.83
568.286	405.19
568.638	443.49
568.989	425.62
569.341	461.36
569.693	394.98
570.044	405.19
570.396	466.47
570.747	420.51
571.098	397.53
571.45	446.04
571.801	364.34
572.152	512.43
572.504	438.38
572.855	346.46
573.206	420.51
573.557	446.04
573.908	458.81
574.259	366.89
574.61	387.32
574.961	453.7
575.311	456.26
575.662	377.1
576.013	423.06
576.364	382.21
576.714	415.4
577.065	440.94
577.415	412.85
577.766	507.32
578.116	420.51
578.467	440.94
578.817	366.89
579.167	415.4
579.518	451.15
579.868	402.64
580.218	458.81
580.568	428.17
580.918	446.04
581.268	448.6
581.618	435.83
581.968	423.06
582.318	366.89
582.668	430.72
583.017	366.89
583.367	466.47
583.717	425.62
584.066	433.28
584.416	356.67
584.765	469.02
585.115	425.62
585.464	425.62
585.814	394.98
586.163	428.17
586.512	417.96
586.862	389.87
587.211	435.83
587.56	359.23
587.909	387.32
588.258	402.64
588.607	402.64
588.956	486.9
589.305	458.81
589.654	402.64
590.002	405.19
590.351	461.36
590.7	410.3
591.048	469.02
591.397	400.08
591.746	349.01
592.094	438.38
592.443	417.96
592.791	412.85
593.139	417.96
593.488	417.96
593.836	377.1
594.184	356.67
594.532	389.87
594.88	489.45
595.228	402.64
595.576	412.85
595.924	402.64
596.272	448.6
596.62	448.6
596.968	420.51
597.316	415.4
597.664	364.34
598.011	423.06
598.359	377.1
598.706	438.38
599.054	405.19
599.402	394.98
599.749	446.04
600.096	453.7
600.444	407.74
600.791	425.62
601.138	405.19
601.485	400.08
601.833	435.83
602.18	402.64
602.527	384.76
602.874	410.3
603.221	417.96
603.568	481.79
603.914	451.15
604.261	420.51
604.608	397.53
604.955	417.96
605.301	428.17
605.648	428.17
605.995	397.53
606.341	458.81
606.688	402.64
607.034	458.81
607.38	417.96
607.727	341.35
608.073	428.17
608.419	405.19
608.765	433.28
609.112	351.57
609.458	394.98
609.804	453.7
610.15	400.08
610.496	440.94
610.842	410.3
611.187	451.15
611.533	384.76
611.879	433.28
612.225	412.85
612.57	443.49
612.916	433.28
613.261	456.26
613.607	394.98
613.952	394.98
614.298	471.58
614.643	415.4
614.989	435.83
615.334	364.34
615.679	405.19
616.024	366.89
616.369	384.76
616.714	420.51
617.059	364.34
617.404	446.04
617.749	499.66
618.094	369.44
618.439	397.53
618.784	486.9
619.129	379.66
619.473	346.46
619.818	356.67
620.163	372
620.507	405.19
620.852	402.64
621.196	402.64
621.54	402.64
621.885	349.01
622.229	394.98
622.573	415.4
622.918	430.72
623.262	486.9
623.606	469.02
623.95	384.76
624.294	440.94
624.638	417.96
624.982	415.4
625.326	474.13
625.67	389.87
626.013	428.17
626.357	417.96
626.701	374.55
627.044	405.19
627.388	438.38
627.731	489.45
628.075	356.67
628.418	349.01
628.762	364.34
629.105	392.42
629.448	407.74
629.792	412.85
630.135	443.49
630.478	466.47
630.821	394.98
631.164	377.1
631.507	430.72
631.85	389.87
632.193	425.62
632.536	446.04
632.879	438.38
633.221	453.7
633.564	397.53
633.907	430.72
634.249	410.3
634.592	407.74
634.935	364.34
635.277	356.67
635.619	366.89
635.962	402.64
636.304	417.96
636.646	379.66
636.989	402.64
637.331	494.56
637.673	435.83
638.015	397.53
638.357	320.93
638.699	410.3
639.041	359.23
639.383	420.51
639.725	387.32
640.067	400.08
640.408	361.78
640.75	423.06
641.092	397.53
641.433	402.64
641.775	489.45
642.116	446.04
642.458	461.36
642.799	433.28
643.141	374.55
643.482	361.78
643.823	343.91
644.164	392.42
644.506	415.4
644.847	410.3
645.188	430.72
645.529	400.08
645.87	374.55
646.211	451.15
646.552	474.13
646.893	366.89
647.233	433.28
647.574	497.11
647.915	377.1
648.255	410.3
648.596	443.49
648.937	394.98
649.277	338.8
649.618	479.24
649.958	469.02
650.298	440.94
650.639	456.26
650.979	407.74
651.319	525.2
651.659	494.56
651.999	453.7
652.339	389.87
652.679	397.53
653.019	471.58
653.359	471.58
653.699	415.4
654.039	366.89
654.379	438.38
654.719	377.1
655.058	443.49
655.398	446.04
655.737	417.96
656.077	423.06
656.416	417.96
656.756	394.98
657.095	389.87
657.435	397.53
657.774	425.62
658.113	366.89
658.452	415.4
658.792	448.6
659.131	443.49
659.47	471.58
659.809	458.81
660.148	400.08
660.487	387.32
660.826	374.55
661.164	428.17
661.503	423.06
661.842	392.42
662.181	417.96
662.519	359.23
662.858	428.17
663.196	394.98
663.535	466.47
663.873	417.96
664.212	315.82
664.55	428.17
664.888	384.76
665.226	364.34
665.565	382.21
665.903	652.87
666.241	489.45
666.579	481.79
666.917	430.72
667.255	394.98
667.593	469.02
667.931	463.92
668.268	356.67
668.606	453.7
668.944	430.72
669.282	423.06
669.619	456.26
669.957	387.32
670.294	430.72
670.632	458.81
670.969	369.44
671.307	476.68
671.644	428.17
671.981	407.74
672.318	407.74
672.656	356.67
672.993	400.08
673.33	397.53
673.667	407.74
674.004	428.17
674.341	463.92
674.678	458.81
675.015	361.78
675.351	336.25
675.688	428.17
676.025	349.01
676.362	458.81
676.698	379.66
677.035	392.42
677.371	361.78
677.708	387.32
678.044	407.74
678.38	392.42
678.717	430.72
679.053	466.47
679.389	433.28
679.725	417.96
680.062	415.4
680.398	402.64
680.734	394.98
681.07	374.55
681.406	331.14
681.742	379.66
682.077	435.83
682.413	461.36
682.749	359.23
683.085	415.4
683.42	366.89
683.756	415.4
684.091	433.28
684.427	397.53
684.762	481.79
685.098	361.78
685.433	389.87
685.768	405.19
686.104	382.21
686.439	346.46
686.774	456.26
687.109	412.85
687.444	446.04
687.779	374.55
688.114	438.38
688.449	364.34
688.784	415.4
689.119	410.3
689.454	415.4
689.789	356.67
690.123	446.04
690.458	374.55
690.792	382.21
691.127	369.44
691.461	443.49
691.796	394.98
692.13	328.59
692.465	415.4
692.799	392.42
693.133	400.08
693.467	405.19
693.802	341.35
694.136	374.55
694.47	415.4
694.804	366.89
695.138	446.04
695.472	369.44
695.806	517.54
696.139	415.4
696.473	474.13
696.807	466.47
697.141	448.6
697.474	400.08
697.808	497.11
698.141	440.94
698.475	440.94
698.808	351.57
699.142	382.21
699.475	313.27
699.808	423.06
700.142	443.49
700.475	394.98
700.808	405.19
701.141	394.98
701.474	420.51
701.807	405.19
702.14	379.66
702.473	456.26
702.806	451.15
703.139	438.38
703.472	476.68
703.804	438.38
704.137	394.98
704.47	417.96
704.802	458.81
705.135	405.19
705.467	361.78
705.8	435.83
706.132	443.49
706.464	438.38
706.797	389.87
707.129	446.04
707.461	364.34
707.793	364.34
708.125	412.85
708.457	412.85
708.789	379.66
709.121	405.19
709.453	430.72
709.785	410.3
710.117	440.94
710.449	453.7
710.781	354.12
711.112	412.85
711.444	417.96
711.775	377.1
712.107	405.19
712.438	364.34
712.77	359.23
713.101	417.96
713.433	453.7
713.764	451.15
714.095	451.15
714.426	423.06
714.757	438.38
715.089	410.3
715.42	443.49
715.751	372
716.082	379.66
716.412	382.21
716.743	356.67
717.074	303.05
717.405	400.08
717.736	397.53
718.066	379.66
718.397	458.81
718.727	492
719.058	540.52
719.388	412.85
719.719	479.24
720.049	453.7
720.38	438.38
720.71	412.85
721.04	435.83
721.37	382.21
721.7	405.19
722.031	402.64
722.361	394.98
722.691	446.04
723.021	389.87
723.35	435.83
723.68	394.98
724.01	400.08
724.34	430.72
724.67	417.96
724.999	384.76
725.329	451.15
725.658	443.49
725.988	423.06
726.317	412.85
726.647	410.3
726.976	433.28
727.306	420.51
727.635	461.36
727.964	471.58
728.293	392.42
728.622	451.15
728.952	504.77
729.281	423.06
729.61	382.21
729.939	384.76
730.267	377.1
730.596	435.83
730.925	435.83
731.254	384.76
731.583	451.15
731.911	509.88
732.24	389.87
732.568	456.26
732.897	420.51
733.225	433.28
733.554	387.32
733.882	417.96
734.21	415.4
734.539	377.1
734.867	313.27
735.195	387.32
735.523	407.74
735.851	405.19
736.179	428.17
736.507	384.76
736.835	417.96
737.163	361.78
737.491	379.66
737.819	392.42
738.147	333.69
738.474	407.74
738.802	410.3
739.13	458.81
739.457	410.3
739.785	420.51
740.112	392.42
740.44	397.53
740.767	417.96
741.094	443.49
741.422	392.42
741.749	374.55
742.076	458.81
742.403	417.96
742.73	384.76
743.057	425.62
743.384	394.98
743.711	387.32
744.038	417.96
744.365	451.15
744.692	379.66
745.018	369.44
745.345	423.06
745.672	453.7
745.998	387.32
746.325	417.96
746.651	402.64
746.978	405.19
747.304	440.94
747.631	361.78
747.957	433.28
748.283	425.62
748.61	410.3
748.936	377.1
749.262	410.3
749.588	379.66
749.914	354.12
750.24	438.38
750.566	417.96
750.892	397.53
751.218	448.6
751.543	430.72
751.869	433.28
752.195	423.06
752.521	377.1
752.846	448.6
753.172	443.49
753.497	461.36
753.823	415.4
754.148	377.1
754.473	392.42
754.799	394.98
755.124	382.21
755.449	359.23
755.774	438.38
756.1	420.51
756.425	461.36
756.75	405.19
757.075	417.96
757.4	535.41
757.724	433.28
758.049	417.96
758.374	425.62
758.699	423.06
759.024	461.36
759.348	440.94
759.673	484.34
759.997	461.36
760.322	343.91
760.646	433.28
760.971	428.17
761.295	410.3
761.619	417.96
761.944	497.11
762.268	481.79
762.592	469.02
762.916	520.09
763.24	520.09
763.564	517.54
763.888	469.02
764.212	463.92
764.536	550.73
764.86	668.19
765.184	701.38
765.508	841.82
765.831	885.22
766.155	1107.37
766.478	992.47
766.802	823.94
767.126	864.8
767.449	706.49
767.772	864.8
768.096	1127.8
768.419	1390.79
768.742	1584.85
769.066	1592.51
769.389	1610.38
769.712	1763.59
770.035	1367.81
770.358	1178.86
770.681	1071.62
771.004	1079.28
771.327	1401.01
771.65	1868.27
771.972	2279.37
772.295	2608.75
772.618	3004.53
772.941	2884.52
773.263	2373.84
773.586	2082.76
773.908	1702.31
774.231	1403.56
774.553	1457.18
774.875	1732.95
775.198	2414.7
775.52	2938.14
775.842	3239.44
776.164	3229.23
776.487	3116.88
776.809	2718.55
777.131	2090.42
777.453	1536.34
777.775	1296.32
778.096	1541.44
778.418	2133.83
778.74	3183.26
779.062	4250.58
779.384	5381.72
779.705	5795.37
780.027	5279.59
780.348	4225.04
780.67	3395.19
780.991	2486.19
781.313	2049.56
781.634	1970.41
781.955	2641.95
782.277	3653.09
782.598	4694.86
782.919	5956.23
783.24	6495
783.561	6354.56
783.882	5726.43
784.203	4955.31
784.524	3451.37
784.845	2445.34
785.166	2103.19
785.487	2606.2
785.807	3604.57
786.128	4498.25
786.449	5348.53
786.769	6980.14
787.09	8226.19
787.41	7751.26
787.731	6073.69
788.051	4199.51
788.372	2693.02
788.692	2187.45
789.012	2373.84
789.332	3121.98
789.653	4523.79
789.973	6109.44
790.293	7761.47
790.613	8734.31
790.933	9347.12
791.253	8747.08
791.573	6826.93
791.893	4702.52
792.212	3088.79
792.532	2343.2
792.852	2269.16
793.171	2963.67
793.491	4087.16
793.811	5598.76
794.13	7146.11
794.45	7853.39
794.769	7419.32
795.088	6689.05
795.408	5187.67
795.727	3780.75
796.046	2644.5
796.365	2161.91
796.684	2588.33
797.004	3808.84
797.323	5647.27
797.642	7817.65
797.96	10118.24
798.279	11175.34
798.598	11101.29
798.917	9559.05
799.236	7238.03
799.554	5001.27
799.873	3042.83
800.192	1929.56
800.51	1694.65
800.829	2141.49
801.147	3045.38
