Data from 2025-12-03_xpw_interference_micrometer_637_FLMS141361__8__658.txt Node

Date: Wed Dec 03 15:56:06 MST 2025
User: james
Spectrometer: FLMS14136
Trigger mode: 0
Integration Time (sec): 1.000000E-1
Scans to average: 1
Electric dark correction enabled: true
Nonlinearity correction enabled: false
Boxcar width: 0
XAxis mode: Wavelengths
Number of Pixels in Spectrum: 2048
>>>>>Begin Spectral Data<<<<<
339.315	-69.42
339.697	-69.42
340.079	-69.42
340.461	-148.57
340.843	-110.27
341.225	-97.51
341.607	-105.17
341.989	-82.19
342.371	-110.27
342.752	-97.51
343.134	-59.21
343.516	-13.25
343.897	-0.48
344.279	-20.91
344.661	-13.25
345.042	19.95
345.423	119.53
345.805	81.23
346.186	81.23
346.567	104.21
346.949	193.58
347.33	150.17
347.711	168.04
348.092	183.36
348.473	254.86
348.854	265.07
349.235	318.69
349.616	308.48
349.997	321.25
350.378	290.61
350.758	305.93
351.139	402.95
351.52	331.46
351.9	339.12
352.281	410.62
352.661	331.46
353.042	385.08
353.422	385.08
353.803	397.85
354.183	367.21
354.563	425.94
354.943	369.76
355.324	374.87
355.704	346.78
356.084	408.06
356.464	364.65
356.844	448.92
357.224	400.4
357.603	362.1
357.983	341.67
358.363	410.62
358.743	367.21
359.122	331.46
359.502	354.44
359.882	303.37
360.261	290.61
360.641	336.57
361.02	323.8
361.399	369.76
361.779	298.27
362.158	308.48
362.537	346.78
362.916	385.08
363.296	372.31
363.675	295.71
364.054	356.99
364.433	372.31
364.812	272.73
365.19	313.59
365.569	331.46
365.948	290.61
366.327	339.12
366.705	313.59
367.084	410.62
367.463	344.23
367.841	359.55
368.22	367.21
368.598	303.37
368.977	387.63
369.355	385.08
369.733	418.28
370.111	351.89
370.49	328.91
370.868	341.67
371.246	379.97
371.624	408.06
372.002	385.08
372.38	377.42
372.758	395.29
373.136	336.57
373.513	387.63
373.891	354.44
374.269	341.67
374.646	369.76
375.024	351.89
375.402	346.78
375.779	349.33
376.157	379.97
376.534	372.31
376.911	313.59
377.289	331.46
377.666	428.49
378.043	387.63
378.42	420.83
378.797	318.69
379.175	328.91
379.552	346.78
379.929	362.1
380.305	351.89
380.682	413.17
381.059	397.85
381.436	305.93
381.813	405.51
382.189	395.29
382.566	441.26
382.943	351.89
383.319	341.67
383.696	441.26
384.072	374.87
384.448	356.99
384.825	410.62
385.201	410.62
385.577	397.85
385.953	328.91
386.329	377.42
386.706	428.49
387.082	454.02
387.458	402.95
387.834	351.89
388.209	377.42
388.585	408.06
388.961	379.97
389.337	410.62
389.713	390.19
390.088	402.95
390.464	356.99
390.839	321.25
391.215	341.67
391.59	372.31
391.966	405.51
392.341	454.02
392.716	328.91
393.092	415.72
393.467	328.91
393.842	415.72
394.217	405.51
394.592	351.89
394.967	344.23
395.342	316.14
395.717	420.83
396.092	410.62
396.467	359.55
396.841	420.83
397.216	438.7
397.591	362.1
397.965	392.74
398.34	305.93
398.714	372.31
399.089	336.57
399.463	374.87
399.838	390.19
400.212	392.74
400.586	405.51
400.961	428.49
401.335	385.08
401.709	367.21
402.083	369.76
402.457	385.08
402.831	387.63
403.205	323.8
403.579	418.28
403.953	367.21
404.326	390.19
404.7	413.17
405.074	395.29
405.447	341.67
405.821	367.21
406.195	418.28
406.568	374.87
406.942	456.58
407.315	308.48
407.688	438.7
408.062	448.92
408.435	410.62
408.808	395.29
409.181	423.38
409.554	331.46
409.927	336.57
410.3	372.31
410.673	374.87
411.046	385.08
411.419	441.26
411.792	367.21
412.165	344.23
412.537	369.76
412.91	379.97
413.283	326.35
413.655	356.99
414.028	451.47
414.4	377.42
414.773	402.95
415.145	316.14
415.517	331.46
415.889	408.06
416.262	377.42
416.634	425.94
417.006	367.21
417.378	431.04
417.75	387.63
418.122	459.13
418.494	395.29
418.866	362.1
419.238	377.42
419.609	428.49
419.981	397.85
420.353	405.51
420.725	344.23
421.096	402.95
421.468	428.49
421.839	464.24
422.211	344.23
422.582	323.8
422.953	339.12
423.325	392.74
423.696	431.04
424.067	390.19
424.438	334.01
424.809	372.31
425.18	405.51
425.551	413.17
425.922	367.21
426.293	385.08
426.664	390.19
427.035	451.47
427.406	425.94
427.776	275.29
428.147	379.97
428.518	418.28
428.888	326.35
429.259	400.4
429.629	408.06
429.999	362.1
430.37	382.53
430.74	377.42
431.11	356.99
431.481	362.1
431.851	349.33
432.221	415.72
432.591	372.31
432.961	367.21
433.331	308.48
433.701	433.6
434.071	308.48
434.441	364.65
434.81	418.28
435.18	321.25
435.55	344.23
435.919	454.02
436.289	405.51
436.658	377.42
437.028	323.8
437.397	374.87
437.767	364.65
438.136	400.4
438.505	428.49
438.875	385.08
439.244	420.83
439.613	395.29
439.982	372.31
440.351	367.21
440.72	436.15
441.089	351.89
441.458	369.76
441.827	405.51
442.196	464.24
442.564	512.75
442.933	431.04
443.302	418.28
443.67	354.44
444.039	369.76
444.407	321.25
444.776	387.63
445.144	433.6
445.513	354.44
445.881	418.28
446.249	369.76
446.617	408.06
446.986	405.51
447.354	395.29
447.722	377.42
448.09	413.17
448.458	362.1
448.826	466.79
449.194	446.36
449.561	331.46
449.929	374.87
450.297	395.29
450.665	415.72
451.032	471.9
451.4	369.76
451.767	379.97
452.135	354.44
452.502	431.04
452.87	428.49
453.237	428.49
453.604	454.02
453.971	374.87
454.339	459.13
454.706	387.63
455.073	418.28
455.44	420.83
455.807	395.29
456.174	433.6
456.541	454.02
456.908	356.99
457.274	331.46
457.641	354.44
458.008	456.58
458.374	425.94
458.741	392.74
459.108	400.4
459.474	431.04
459.841	390.19
460.207	349.33
460.573	405.51
460.94	433.6
461.306	469.34
461.672	387.63
462.038	367.21
462.404	405.51
462.771	441.26
463.137	408.06
463.503	392.74
463.868	367.21
464.234	359.55
464.6	387.63
464.966	448.92
465.332	364.65
465.697	392.74
466.063	408.06
466.429	433.6
466.794	402.95
467.16	502.54
467.525	431.04
467.89	438.7
468.256	385.08
468.621	390.19
468.986	418.28
469.351	362.1
469.717	387.63
470.082	349.33
470.447	377.42
470.812	392.74
471.177	364.65
471.542	423.38
471.906	341.67
472.271	413.17
472.636	349.33
473.001	374.87
473.365	359.55
473.73	441.26
474.094	425.94
474.459	402.95
474.823	405.51
475.188	464.24
475.552	438.7
475.917	431.04
476.281	451.47
476.645	344.23
477.009	436.15
477.373	464.24
477.737	433.6
478.101	321.25
478.465	420.83
478.829	379.97
479.193	451.47
479.557	431.04
479.921	456.58
480.284	464.24
480.648	377.42
481.012	505.09
481.375	438.7
481.739	395.29
482.102	405.51
482.466	428.49
482.829	482.11
483.193	433.6
483.556	379.97
483.919	379.97
484.282	408.06
484.645	408.06
485.009	390.19
485.372	377.42
485.735	413.17
486.098	382.53
486.46	469.34
486.823	469.34
487.186	428.49
487.549	466.79
487.912	431.04
488.274	377.42
488.637	454.02
488.999	362.1
489.362	461.68
489.724	428.49
490.087	433.6
490.449	405.51
490.811	420.83
491.174	392.74
491.536	454.02
491.898	405.51
492.26	420.83
492.622	413.17
492.984	374.87
493.346	334.01
493.708	390.19
494.07	418.28
494.432	436.15
494.794	400.4
495.155	451.47
495.517	459.13
495.879	402.95
496.24	385.08
496.602	362.1
496.963	418.28
497.325	413.17
497.686	369.76
498.048	395.29
498.409	431.04
498.77	413.17
499.131	385.08
499.492	423.38
499.854	431.04
500.215	377.42
500.576	446.36
500.937	477
501.298	461.68
501.658	367.21
502.019	459.13
502.38	344.23
502.741	354.44
503.101	321.25
503.462	377.42
503.823	408.06
504.183	461.68
504.543	390.19
504.904	339.12
505.264	423.38
505.625	397.85
505.985	397.85
506.345	438.7
506.705	397.85
507.065	405.51
507.426	387.63
507.786	377.42
508.146	438.7
508.505	392.74
508.865	431.04
509.225	402.95
509.585	489.77
509.945	448.92
510.304	461.68
510.664	438.7
511.024	379.97
511.383	397.85
511.743	387.63
512.102	418.28
512.462	423.38
512.821	372.31
513.18	397.85
513.539	372.31
513.899	402.95
514.258	400.4
514.617	446.36
514.976	489.77
515.335	374.87
515.694	446.36
516.053	418.28
516.412	461.68
516.771	525.52
517.129	359.55
517.488	461.68
517.847	402.95
518.205	336.57
518.564	374.87
518.922	413.17
519.281	341.67
519.639	395.29
519.998	454.02
520.356	400.4
520.714	379.97
521.073	436.15
521.431	436.15
521.789	405.51
522.147	423.38
522.505	382.53
522.863	420.83
523.221	390.19
523.579	456.58
523.937	425.94
524.295	390.19
524.652	362.1
525.01	331.46
525.368	364.65
525.725	436.15
526.083	413.17
526.44	410.62
526.798	395.29
527.155	471.9
527.513	415.72
527.87	405.51
528.227	418.28
528.584	369.76
528.942	372.31
529.299	390.19
529.656	390.19
530.013	433.6
530.37	372.31
530.727	328.91
531.083	418.28
531.44	423.38
531.797	400.4
532.154	354.44
532.511	392.74
532.867	382.53
533.224	339.12
533.58	392.74
533.937	385.08
534.293	461.68
534.65	477
535.006	418.28
535.362	431.04
535.718	456.58
536.075	413.17
536.431	431.04
536.787	443.81
537.143	433.6
537.499	415.72
537.855	385.08
538.211	387.63
538.567	385.08
538.923	471.9
539.278	334.01
539.634	385.08
539.99	428.49
540.345	466.79
540.701	438.7
541.056	420.83
541.412	425.94
541.767	413.17
542.123	323.8
542.478	392.74
542.833	346.78
543.188	436.15
543.544	405.51
543.899	461.68
544.254	385.08
544.609	454.02
544.964	374.87
545.319	379.97
545.674	443.81
546.029	379.97
546.383	415.72
546.738	400.4
547.093	387.63
547.447	405.51
547.802	433.6
548.157	456.58
548.511	336.57
548.866	392.74
549.22	364.65
549.574	339.12
549.929	420.83
550.283	423.38
550.637	390.19
550.991	395.29
551.345	454.02
551.699	443.81
552.053	364.65
552.407	413.17
552.761	410.62
553.115	400.4
553.469	395.29
553.823	431.04
554.176	410.62
554.53	438.7
554.884	392.74
555.237	671.06
555.591	418.28
555.944	356.99
556.298	367.21
556.651	466.79
557.005	436.15
557.358	402.95
557.711	428.49
558.064	464.24
558.417	436.15
558.771	522.96
559.124	487.22
559.477	459.13
559.83	385.08
560.182	293.16
560.535	408.06
560.888	420.83
561.241	372.31
561.594	385.08
561.946	415.72
562.299	336.57
562.651	418.28
563.004	420.83
563.356	395.29
563.709	390.19
564.061	418.28
564.413	438.7
564.766	459.13
565.118	369.76
565.47	377.42
565.822	372.31
566.174	392.74
566.526	372.31
566.878	382.53
567.23	448.92
567.582	359.55
567.934	395.29
568.286	395.29
568.638	390.19
568.989	494.88
569.341	397.85
569.693	400.4
570.044	441.26
570.396	418.28
570.747	420.83
571.098	428.49
571.45	413.17
571.801	505.09
572.152	408.06
572.504	413.17
572.855	413.17
573.206	415.72
573.557	451.47
573.908	377.42
574.259	451.47
574.61	395.29
574.961	400.4
575.311	459.13
575.662	423.38
576.013	326.35
576.364	436.15
576.714	413.17
577.065	356.99
577.415	436.15
577.766	295.71
578.116	354.44
578.467	344.23
578.817	341.67
579.167	431.04
579.518	459.13
579.868	385.08
580.218	374.87
580.568	456.58
580.918	346.78
581.268	428.49
581.618	410.62
581.968	441.26
582.318	410.62
582.668	402.95
583.017	382.53
583.367	413.17
583.717	402.95
584.066	418.28
584.416	425.94
584.765	395.29
585.115	446.36
585.464	410.62
585.814	408.06
586.163	446.36
586.512	431.04
586.862	451.47
587.211	448.92
587.56	454.02
587.909	431.04
588.258	408.06
588.607	377.42
588.956	469.34
589.305	420.83
589.654	443.81
590.002	372.31
590.351	408.06
590.7	418.28
591.048	387.63
591.397	385.08
591.746	339.12
592.094	372.31
592.443	423.38
592.791	387.63
593.139	441.26
593.488	448.92
593.836	385.08
594.184	344.23
594.532	402.95
594.88	489.77
595.228	428.49
595.576	446.36
595.924	395.29
596.272	451.47
596.62	413.17
596.968	402.95
597.316	390.19
597.664	400.4
598.011	402.95
598.359	369.76
598.706	390.19
599.054	377.42
599.402	331.46
599.749	369.76
600.096	392.74
600.444	454.02
600.791	295.71
601.138	400.4
601.485	377.42
601.833	420.83
602.18	451.47
602.527	438.7
602.874	387.63
603.221	423.38
603.568	408.06
603.914	392.74
604.261	402.95
604.608	382.53
604.955	497.43
605.301	448.92
605.648	354.44
605.995	385.08
606.341	405.51
606.688	390.19
607.034	397.85
607.38	385.08
607.727	471.9
608.073	456.58
608.419	443.81
608.765	367.21
609.112	410.62
609.458	433.6
609.804	415.72
610.15	395.29
610.496	413.17
610.842	418.28
611.187	313.59
611.533	410.62
611.879	436.15
612.225	400.4
612.57	362.1
612.916	400.4
613.261	402.95
613.607	456.58
613.952	356.99
614.298	390.19
614.643	428.49
614.989	436.15
615.334	446.36
615.679	418.28
616.024	454.02
616.369	433.6
616.714	410.62
617.059	446.36
617.404	418.28
617.749	431.04
618.094	395.29
618.439	367.21
618.784	405.51
619.129	397.85
619.473	438.7
619.818	441.26
620.163	459.13
620.507	431.04
620.852	418.28
621.196	433.6
621.54	372.31
621.885	387.63
622.229	428.49
622.573	336.57
622.918	390.19
623.262	385.08
623.606	402.95
623.95	392.74
624.294	372.31
624.638	331.46
624.982	369.76
625.326	395.29
625.67	344.23
626.013	425.94
626.357	441.26
626.701	397.85
627.044	425.94
627.388	431.04
627.731	405.51
628.075	413.17
628.418	443.81
628.762	390.19
629.105	438.7
629.448	405.51
629.792	390.19
630.135	339.12
630.478	392.74
630.821	418.28
631.164	390.19
631.507	408.06
631.85	392.74
632.193	415.72
632.536	397.85
632.879	362.1
633.221	433.6
633.564	410.62
633.907	431.04
634.249	387.63
634.592	415.72
634.935	374.87
635.277	438.7
635.619	433.6
635.962	418.28
636.304	379.97
636.646	400.4
636.989	362.1
637.331	385.08
637.673	454.02
638.015	423.38
638.357	341.67
638.699	425.94
639.041	379.97
639.383	420.83
639.725	349.33
640.067	405.51
640.408	374.87
640.75	443.81
641.092	433.6
641.433	397.85
641.775	410.62
642.116	400.4
642.458	400.4
642.799	385.08
643.141	423.38
643.482	408.06
643.823	382.53
644.164	367.21
644.506	431.04
644.847	431.04
645.188	469.34
645.529	405.51
645.87	423.38
646.211	423.38
646.552	418.28
646.893	397.85
647.233	431.04
647.574	420.83
647.915	359.55
648.255	326.35
648.596	382.53
648.937	397.85
649.277	408.06
649.618	346.78
649.958	433.6
650.298	420.83
650.639	408.06
650.979	372.31
651.319	433.6
651.659	390.19
651.999	372.31
652.339	418.28
652.679	385.08
653.019	451.47
653.359	397.85
653.699	379.97
654.039	397.85
654.379	461.68
654.719	459.13
655.058	433.6
655.398	433.6
655.737	402.95
656.077	418.28
656.416	351.89
656.756	507.64
657.095	390.19
657.435	431.04
657.774	372.31
658.113	344.23
658.452	323.8
658.792	346.78
659.131	392.74
659.47	425.94
659.809	400.4
660.148	400.4
660.487	438.7
660.826	425.94
661.164	441.26
661.503	433.6
661.842	443.81
662.181	372.31
662.519	349.33
662.858	418.28
663.196	410.62
663.535	431.04
663.873	374.87
664.212	423.38
664.55	382.53
664.888	377.42
665.226	413.17
665.565	441.26
665.903	553.6
666.241	441.26
666.579	443.81
666.917	415.72
667.255	382.53
667.593	367.21
667.931	469.34
668.268	441.26
668.606	344.23
668.944	390.19
669.282	413.17
669.619	469.34
669.957	367.21
670.294	390.19
670.632	397.85
670.969	364.65
671.307	387.63
671.644	408.06
671.981	408.06
672.318	377.42
672.656	364.65
672.993	377.42
673.33	362.1
673.667	356.99
674.004	428.49
674.341	379.97
674.678	356.99
675.015	420.83
675.351	356.99
675.688	356.99
676.025	448.92
676.362	402.95
676.698	448.92
677.035	408.06
677.371	382.53
677.708	489.77
678.044	395.29
678.38	459.13
678.717	402.95
679.053	425.94
679.389	418.28
679.725	456.58
680.062	459.13
680.398	385.08
680.734	369.76
681.07	459.13
681.406	415.72
681.742	448.92
682.077	385.08
682.413	382.53
682.749	413.17
683.085	385.08
683.42	392.74
683.756	339.12
684.091	374.87
684.427	374.87
684.762	385.08
685.098	374.87
685.433	346.78
685.768	420.83
686.104	379.97
686.439	395.29
686.774	364.65
687.109	372.31
687.444	367.21
687.779	377.42
688.114	420.83
688.449	354.44
688.784	313.59
689.119	351.89
689.454	346.78
689.789	392.74
690.123	359.55
690.458	405.51
690.792	436.15
691.127	428.49
691.461	425.94
691.796	351.89
692.13	461.68
692.465	374.87
692.799	428.49
693.133	359.55
693.467	390.19
693.802	377.42
694.136	431.04
694.47	438.7
694.804	387.63
695.138	397.85
695.472	367.21
695.806	397.85
696.139	459.13
696.473	346.78
696.807	346.78
697.141	372.31
697.474	346.78
697.808	438.7
698.141	392.74
698.475	402.95
698.808	344.23
699.142	331.46
699.475	392.74
699.808	425.94
700.142	420.83
700.475	344.23
700.808	400.4
701.141	354.44
701.474	405.51
701.807	464.24
702.14	374.87
702.473	372.31
702.806	395.29
703.139	374.87
703.472	425.94
703.804	395.29
704.137	436.15
704.47	379.97
704.802	446.36
705.135	425.94
705.467	364.65
705.8	359.55
706.132	387.63
706.464	364.65
706.797	405.51
707.129	374.87
707.461	367.21
707.793	351.89
708.125	400.4
708.457	410.62
708.789	385.08
709.121	326.35
709.453	354.44
709.785	413.17
710.117	402.95
710.449	395.29
710.781	433.6
711.112	405.51
711.444	436.15
711.775	451.47
712.107	395.29
712.438	436.15
712.77	431.04
713.101	379.97
713.433	377.42
713.764	374.87
714.095	431.04
714.426	489.77
714.757	387.63
715.089	341.67
715.42	400.4
715.751	413.17
716.082	321.25
716.412	402.95
716.743	410.62
717.074	372.31
717.405	420.83
717.736	364.65
718.066	415.72
718.397	402.95
718.727	405.51
719.058	428.49
719.388	354.44
719.719	395.29
720.049	415.72
720.38	400.4
720.71	408.06
721.04	318.69
721.37	405.51
721.7	405.51
722.031	326.35
722.361	397.85
722.691	341.67
723.021	410.62
723.35	425.94
723.68	356.99
724.01	377.42
724.34	364.65
724.67	336.57
724.999	359.55
725.329	443.81
725.658	428.49
725.988	385.08
726.317	418.28
726.647	382.53
726.976	364.65
727.306	397.85
727.635	369.76
727.964	387.63
728.293	400.4
728.622	420.83
728.952	377.42
729.281	423.38
729.61	448.92
729.939	433.6
730.267	321.25
730.596	408.06
730.925	400.4
731.254	392.74
731.583	374.87
731.911	334.01
732.24	392.74
732.568	372.31
732.897	395.29
733.225	400.4
733.554	390.19
733.882	390.19
734.21	446.36
734.539	436.15
734.867	448.92
735.195	387.63
735.523	392.74
735.851	436.15
736.179	395.29
736.507	387.63
736.835	362.1
737.163	410.62
737.491	405.51
737.819	395.29
738.147	428.49
738.474	395.29
738.802	418.28
739.13	420.83
739.457	436.15
739.785	392.74
740.112	364.65
740.44	397.85
740.767	469.34
741.094	471.9
741.422	400.4
741.749	410.62
742.076	382.53
742.403	387.63
742.73	423.38
743.057	387.63
743.384	356.99
743.711	359.55
744.038	423.38
744.365	420.83
744.692	377.42
745.018	464.24
745.345	413.17
745.672	436.15
745.998	418.28
746.325	382.53
746.651	364.65
746.978	379.97
747.304	410.62
747.631	326.35
747.957	410.62
748.283	318.69
748.61	423.38
748.936	454.02
749.262	377.42
749.588	382.53
749.914	459.13
750.24	410.62
750.566	364.65
750.892	367.21
751.218	390.19
751.543	372.31
751.869	402.95
752.195	446.36
752.521	408.06
752.846	408.06
753.172	431.04
753.497	415.72
753.823	364.65
754.148	362.1
754.473	438.7
754.799	367.21
755.124	415.72
755.449	364.65
755.774	369.76
756.1	377.42
756.425	372.31
756.75	395.29
757.075	359.55
757.4	545.94
757.724	464.24
758.049	415.72
758.374	405.51
758.699	402.95
759.024	451.47
759.348	451.47
759.673	431.04
759.997	390.19
760.322	431.04
760.646	377.42
760.971	459.13
761.295	438.7
761.619	418.28
761.944	438.7
762.268	454.02
762.592	510.2
762.916	484.66
763.24	499.98
763.564	464.24
763.888	461.68
764.212	433.6
764.536	517.86
764.86	627.65
765.184	686.38
765.508	882.99
765.831	905.97
766.155	1197.06
766.478	992.79
766.802	888.1
767.126	742.55
767.449	803.84
767.772	821.71
768.096	1077.05
768.419	1373.24
768.742	1641.34
769.066	1651.56
769.389	1615.81
769.712	1590.28
770.035	1391.11
770.358	1145.99
770.681	1033.64
771.004	1102.58
771.327	1472.82
771.65	1720.5
771.972	2175
772.295	2716.32
772.618	3048.25
772.941	2874.62
773.263	2478.85
773.586	2011.58
773.908	1633.68
774.231	1411.54
774.553	1370.69
774.875	1728.16
775.198	2455.87
775.52	3068.68
775.842	3405.73
776.164	3293.38
776.487	3104.43
776.809	2621.84
777.131	2075.42
777.453	1559.64
777.775	1401.33
778.096	1587.72
778.418	2203.09
778.74	3124.86
779.062	4378.56
779.384	5468.86
779.705	5747.18
780.027	5210.97
780.348	4330.05
780.67	3311.25
780.991	2555.45
781.313	2014.14
781.634	2057.54
781.955	2649.93
782.277	3482.33
782.598	4718.16
782.919	5872.29
783.24	6462.12
783.561	6293.6
783.882	6061.24
784.203	4891.79
784.524	3543.61
784.845	2463.53
785.166	2205.64
785.487	2683.12
785.807	3538.5
786.128	4376.01
786.449	5560.78
786.769	7087.7
787.09	8101.39
787.41	7907.33
787.731	6119.97
788.051	4164.08
788.372	2823.56
788.692	2154.57
789.012	2379.27
789.332	3129.96
789.653	4353.03
789.973	6038.26
790.293	7812.86
790.613	8921.02
790.933	9561.92
791.253	8446.1
791.573	6919.18
791.893	4759.02
792.212	3193.8
792.532	2328.2
792.852	2379.27
793.171	3004.85
793.491	4212.59
793.811	5731.85
794.13	7138.77
794.45	7690.3
794.769	7440.06
795.088	6681.71
795.408	5208.41
795.727	3793.84
796.046	2552.9
796.365	2100.95
796.684	2649.93
797.004	3926.62
797.323	5670.57
797.642	7823.07
797.96	10036.85
798.279	10986.71
798.598	11129.7
798.917	9584.9
799.236	7057.06
799.554	4771.78
799.873	2989.53
