Data from 2025-12-03_xpw_interference_micrometer_637_FLMS141361__60__710.txt Node

Date: Wed Dec 03 15:56:11 MST 2025
User: james
Spectrometer: FLMS14136
Trigger mode: 0
Integration Time (sec): 1.000000E-1
Scans to average: 1
Electric dark correction enabled: true
Nonlinearity correction enabled: false
Boxcar width: 0
XAxis mode: Wavelengths
Number of Pixels in Spectrum: 2048
>>>>>Begin Spectral Data<<<<<
339.315	-84.26
339.697	-84.26
340.079	-84.26
340.461	-145.54
340.843	-40.85
341.225	-81.71
341.607	-150.65
341.989	-109.8
342.371	-127.67
342.752	-74.05
343.134	-58.73
343.516	33.19
343.897	17.87
344.279	-30.64
344.661	-10.21
345.042	58.73
345.423	53.62
345.805	91.92
346.186	104.69
346.567	120.01
346.949	163.42
347.33	186.4
347.711	165.97
348.092	165.97
348.473	209.38
348.854	196.61
349.235	155.76
349.616	268.1
349.997	303.85
350.378	285.98
350.758	283.42
351.139	375.35
351.52	339.6
351.9	342.15
352.281	349.81
352.661	337.05
353.042	326.83
353.422	329.39
353.803	388.11
354.183	441.73
354.563	477.48
354.943	426.41
355.324	431.52
355.704	400.88
356.084	385.56
356.464	347.26
356.844	393.22
357.224	329.39
357.603	349.81
357.983	383.01
358.363	416.2
358.743	408.54
359.122	385.56
359.502	390.67
359.882	316.62
360.261	357.47
360.641	426.41
361.02	337.05
361.399	324.28
361.779	360.03
362.158	400.88
362.537	388.11
362.916	375.35
363.296	342.15
363.675	319.17
364.054	263
364.433	268.1
364.812	347.26
365.19	362.58
365.569	365.13
365.948	306.41
366.327	339.6
366.705	354.92
367.084	316.62
367.463	357.47
367.841	324.28
368.22	400.88
368.598	383.01
368.977	385.56
369.355	431.52
369.733	372.79
370.111	293.64
370.49	337.05
370.868	331.94
371.246	303.85
371.624	260.44
372.002	316.62
372.38	360.03
372.758	362.58
373.136	306.41
373.513	398.33
373.891	375.35
374.269	329.39
374.646	362.58
375.024	349.81
375.402	339.6
375.779	388.11
376.157	329.39
376.534	398.33
376.911	354.92
377.289	319.17
377.666	288.53
378.043	339.6
378.42	370.24
378.797	398.33
379.175	360.03
379.552	390.67
379.929	324.28
380.305	334.49
380.682	354.92
381.059	339.6
381.436	349.81
381.813	326.83
382.189	306.41
382.566	337.05
382.943	354.92
383.319	324.28
383.696	319.17
384.072	344.71
384.448	411.09
384.825	337.05
385.201	331.94
385.577	319.17
385.953	398.33
386.329	365.13
386.706	411.09
387.082	408.54
387.458	308.96
387.834	349.81
388.209	383.01
388.585	395.77
388.961	375.35
389.337	324.28
389.713	385.56
390.088	301.3
390.464	388.11
390.839	408.54
391.215	331.94
391.59	331.94
391.966	347.26
392.341	298.75
392.716	354.92
393.092	367.69
393.467	337.05
393.842	390.67
394.217	380.45
394.592	377.9
394.967	349.81
395.342	349.81
395.717	365.13
396.092	462.16
396.467	375.35
396.841	334.49
397.216	385.56
397.591	408.54
397.965	390.67
398.34	347.26
398.714	301.3
399.089	352.37
399.463	411.09
399.838	416.2
400.212	360.03
400.586	383.01
400.961	357.47
401.335	360.03
401.709	347.26
402.083	273.21
402.457	398.33
402.831	421.31
403.205	349.81
403.579	319.17
403.953	280.87
404.326	370.24
404.7	365.13
405.074	288.53
405.447	354.92
405.821	413.65
406.195	375.35
406.568	383.01
406.942	457.05
407.315	362.58
407.688	408.54
408.062	357.47
408.435	403.43
408.808	311.51
409.181	372.79
409.554	339.6
409.927	344.71
410.3	393.22
410.673	337.05
411.046	388.11
411.419	314.07
411.792	357.47
412.165	372.79
412.537	441.73
412.91	395.77
413.283	362.58
413.655	426.41
414.028	398.33
414.4	436.63
414.773	428.97
415.145	296.19
415.517	377.9
415.889	405.99
416.262	464.71
416.634	411.09
417.006	334.49
417.378	324.28
417.75	352.37
418.122	388.11
418.494	421.31
418.866	418.75
419.238	383.01
419.609	408.54
419.981	380.45
420.353	365.13
420.725	416.2
421.096	434.07
421.468	411.09
421.839	457.05
422.211	352.37
422.582	347.26
422.953	393.22
423.325	370.24
423.696	372.79
424.067	331.94
424.438	354.92
424.809	408.54
425.18	441.73
425.551	347.26
425.922	321.73
426.293	403.43
426.664	385.56
427.035	395.77
427.406	416.2
427.776	398.33
428.147	398.33
428.518	439.18
428.888	372.79
429.259	362.58
429.629	385.56
429.999	411.09
430.37	400.88
430.74	388.11
431.11	408.54
431.481	352.37
431.851	354.92
432.221	390.67
432.591	385.56
432.961	416.2
433.331	383.01
433.701	403.43
434.071	405.99
434.441	454.5
434.81	423.86
435.18	377.9
435.55	408.54
435.919	352.37
436.289	342.15
436.658	403.43
437.028	457.05
437.397	395.77
437.767	403.43
438.136	372.79
438.505	352.37
438.875	403.43
439.244	428.97
439.613	352.37
439.982	423.86
440.351	357.47
440.72	459.61
441.089	400.88
441.458	403.43
441.827	388.11
442.196	390.67
442.564	513.23
442.933	319.17
443.302	331.94
443.67	354.92
444.039	411.09
444.407	405.99
444.776	375.35
445.144	428.97
445.513	337.05
445.881	339.6
446.249	367.69
446.617	428.97
446.986	421.31
447.354	477.48
447.722	390.67
448.09	390.67
448.458	411.09
448.826	467.27
449.194	423.86
449.561	334.49
449.929	370.24
450.297	380.45
450.665	362.58
451.032	439.18
451.4	352.37
451.767	365.13
452.135	400.88
452.502	377.9
452.87	400.88
453.237	367.69
453.604	423.86
453.971	436.63
454.339	472.37
454.706	441.73
455.073	380.45
455.44	423.86
455.807	428.97
456.174	349.81
456.541	497.91
456.908	385.56
457.274	423.86
457.641	385.56
458.008	385.56
458.374	454.5
458.741	367.69
459.108	316.62
459.474	423.86
459.841	408.54
460.207	439.18
460.573	436.63
460.94	385.56
461.306	357.47
461.672	405.99
462.038	405.99
462.404	449.39
462.771	393.22
463.137	416.2
463.503	362.58
463.868	326.83
464.234	441.73
464.6	408.54
464.966	413.65
465.332	362.58
465.697	370.24
466.063	370.24
466.429	360.03
466.794	372.79
467.16	423.86
467.525	380.45
467.89	462.16
468.256	492.8
468.621	367.69
468.986	393.22
469.351	370.24
469.717	400.88
470.082	380.45
470.447	441.73
470.812	357.47
471.177	441.73
471.542	395.77
471.906	303.85
472.271	395.77
472.636	385.56
473.001	436.63
473.365	434.07
473.73	388.11
474.094	352.37
474.459	331.94
474.823	372.79
475.188	474.93
475.552	380.45
475.917	423.86
476.281	434.07
476.645	418.75
477.009	423.86
477.373	370.24
477.737	428.97
478.101	383.01
478.465	441.73
478.829	367.69
479.193	370.24
479.557	385.56
479.921	403.43
480.284	354.92
480.648	421.31
481.012	349.81
481.375	367.69
481.739	342.15
482.102	428.97
482.466	380.45
482.829	385.56
483.193	431.52
483.556	393.22
483.919	411.09
484.282	380.45
484.645	398.33
485.009	400.88
485.372	352.37
485.735	390.67
486.098	360.03
486.46	370.24
486.823	370.24
487.186	372.79
487.549	354.92
487.912	385.56
488.274	477.48
488.637	426.41
488.999	362.58
489.362	342.15
489.724	403.43
490.087	357.47
490.449	377.9
490.811	367.69
491.174	398.33
491.536	403.43
491.898	385.56
492.26	400.88
492.622	354.92
492.984	462.16
493.346	403.43
493.708	418.75
494.07	421.31
494.432	383.01
494.794	360.03
495.155	372.79
495.517	375.35
495.879	426.41
496.24	388.11
496.602	482.59
496.963	367.69
497.325	418.75
497.686	367.69
498.048	395.77
498.409	375.35
498.77	416.2
499.131	400.88
499.492	405.99
499.854	403.43
500.215	398.33
500.576	398.33
500.937	395.77
501.298	393.22
501.658	331.94
502.019	421.31
502.38	411.09
502.741	418.75
503.101	403.43
503.462	439.18
503.823	365.13
504.183	426.41
504.543	426.41
504.904	383.01
505.264	411.09
505.625	428.97
505.985	413.65
506.345	454.5
506.705	423.86
507.065	416.2
507.426	400.88
507.786	337.05
508.146	357.47
508.505	393.22
508.865	428.97
509.225	385.56
509.585	436.63
509.945	365.13
510.304	423.86
510.664	426.41
511.024	434.07
511.383	388.11
511.743	383.01
512.102	326.83
512.462	362.58
512.821	367.69
513.18	446.84
513.539	454.5
513.899	431.52
514.258	454.5
514.617	467.27
514.976	428.97
515.335	413.65
515.694	405.99
516.053	352.37
516.412	372.79
516.771	380.45
517.129	352.37
517.488	388.11
517.847	393.22
518.205	316.62
518.564	421.31
518.922	398.33
519.281	446.84
519.639	408.54
519.998	405.99
520.356	426.41
520.714	365.13
521.073	393.22
521.431	421.31
521.789	449.39
522.147	449.39
522.505	377.9
522.863	459.61
523.221	360.03
523.579	431.52
523.937	436.63
524.295	411.09
524.652	426.41
525.01	360.03
525.368	426.41
525.725	434.07
526.083	365.13
526.44	388.11
526.798	467.27
527.155	383.01
527.513	459.61
527.87	444.29
528.227	431.52
528.584	383.01
528.942	388.11
529.299	324.28
529.656	434.07
530.013	405.99
530.37	388.11
530.727	349.81
531.083	418.75
531.44	449.39
531.797	434.07
532.154	421.31
532.511	477.48
532.867	365.13
533.224	467.27
533.58	459.61
533.937	365.13
534.293	434.07
534.65	408.54
535.006	367.69
535.362	431.52
535.718	388.11
536.075	434.07
536.431	375.35
536.787	344.71
537.143	344.71
537.499	370.24
537.855	413.65
538.211	393.22
538.567	423.86
538.923	403.43
539.278	421.31
539.634	423.86
539.99	377.9
540.345	372.79
540.701	449.39
541.056	405.99
541.412	434.07
541.767	421.31
542.123	408.54
542.478	349.81
542.833	434.07
543.188	383.01
543.544	380.45
543.899	446.84
544.254	344.71
544.609	383.01
544.964	428.97
545.319	426.41
545.674	418.75
546.029	398.33
546.383	393.22
546.738	370.24
547.093	403.43
547.447	400.88
547.802	385.56
548.157	331.94
548.511	365.13
548.866	434.07
549.22	441.73
549.574	398.33
549.929	342.15
550.283	383.01
550.637	383.01
550.991	416.2
551.345	339.6
551.699	367.69
552.053	428.97
552.407	372.79
552.761	372.79
553.115	380.45
553.469	426.41
553.823	472.37
554.176	459.61
554.53	367.69
554.884	334.49
555.237	597.49
555.591	416.2
555.944	441.73
556.298	405.99
556.651	408.54
557.005	434.07
557.358	464.71
557.711	349.81
558.064	393.22
558.417	416.2
558.771	449.39
559.124	413.65
559.477	457.05
559.83	434.07
560.182	362.58
560.535	365.13
560.888	408.54
561.241	449.39
561.594	383.01
561.946	408.54
562.299	413.65
562.651	365.13
563.004	314.07
563.356	413.65
563.709	405.99
564.061	388.11
564.413	393.22
564.766	474.93
565.118	398.33
565.47	377.9
565.822	411.09
566.174	449.39
566.526	398.33
566.878	380.45
567.23	400.88
567.582	416.2
567.934	390.67
568.286	370.24
568.638	354.92
568.989	385.56
569.341	418.75
569.693	329.39
570.044	375.35
570.396	418.75
570.747	444.29
571.098	462.16
571.45	411.09
571.801	383.01
572.152	421.31
572.504	428.97
572.855	349.81
573.206	416.2
573.557	413.65
573.908	400.88
574.259	482.59
574.61	411.09
574.961	377.9
575.311	444.29
575.662	349.81
576.013	360.03
576.364	380.45
576.714	375.35
577.065	337.05
577.415	354.92
577.766	349.81
578.116	421.31
578.467	372.79
578.817	375.35
579.167	449.39
579.518	390.67
579.868	308.96
580.218	418.75
580.568	423.86
580.918	365.13
581.268	405.99
581.618	431.52
581.968	385.56
582.318	393.22
582.668	388.11
583.017	383.01
583.367	380.45
583.717	408.54
584.066	403.43
584.416	344.71
584.765	377.9
585.115	293.64
585.464	334.49
585.814	326.83
586.163	347.26
586.512	385.56
586.862	449.39
587.211	454.5
587.56	436.63
587.909	329.39
588.258	362.58
588.607	385.56
588.956	393.22
589.305	403.43
589.654	390.67
590.002	408.54
590.351	347.26
590.7	439.18
591.048	454.5
591.397	390.67
591.746	411.09
592.094	375.35
592.443	441.73
592.791	418.75
593.139	411.09
593.488	451.95
593.836	423.86
594.184	411.09
594.532	390.67
594.88	416.2
595.228	400.88
595.576	347.26
595.924	349.81
596.272	380.45
596.62	423.86
596.968	380.45
597.316	426.41
597.664	395.77
598.011	477.48
598.359	337.05
598.706	395.77
599.054	326.83
599.402	418.75
599.749	449.39
600.096	370.24
600.444	347.26
600.791	436.63
601.138	421.31
601.485	385.56
601.833	380.45
602.18	349.81
602.527	357.47
602.874	411.09
603.221	439.18
603.568	395.77
603.914	400.88
604.261	334.49
604.608	380.45
604.955	385.56
605.301	367.69
605.648	385.56
605.995	413.65
606.341	411.09
606.688	413.65
607.034	441.73
607.38	403.43
607.727	388.11
608.073	360.03
608.419	352.37
608.765	370.24
609.112	362.58
609.458	375.35
609.804	370.24
610.15	393.22
610.496	390.67
610.842	388.11
611.187	403.43
611.533	339.6
611.879	383.01
612.225	416.2
612.57	303.85
612.916	413.65
613.261	446.84
613.607	398.33
613.952	367.69
614.298	357.47
614.643	413.65
614.989	423.86
615.334	395.77
615.679	431.52
616.024	462.16
616.369	408.54
616.714	372.79
617.059	398.33
617.404	370.24
617.749	390.67
618.094	426.41
618.439	398.33
618.784	339.6
619.129	390.67
619.473	446.84
619.818	347.26
620.163	385.56
620.507	370.24
620.852	380.45
621.196	372.79
621.54	375.35
621.885	434.07
622.229	395.77
622.573	405.99
622.918	403.43
623.262	464.71
623.606	413.65
623.95	413.65
624.294	362.58
624.638	296.19
624.982	418.75
625.326	372.79
625.67	423.86
626.013	388.11
626.357	370.24
626.701	385.56
627.044	393.22
627.388	418.75
627.731	375.35
628.075	416.2
628.418	347.26
628.762	326.83
629.105	405.99
629.448	444.29
629.792	418.75
630.135	349.81
630.478	400.88
630.821	449.39
631.164	449.39
631.507	421.31
631.85	390.67
632.193	436.63
632.536	416.2
632.879	380.45
633.221	446.84
633.564	400.88
633.907	372.79
634.249	316.62
634.592	385.56
634.935	418.75
635.277	421.31
635.619	428.97
635.962	472.37
636.304	342.15
636.646	400.88
636.989	365.13
637.331	400.88
637.673	405.99
638.015	434.07
638.357	370.24
638.699	388.11
639.041	380.45
639.383	337.05
639.725	372.79
640.067	426.41
640.408	370.24
640.75	411.09
641.092	426.41
641.433	423.86
641.775	393.22
642.116	283.42
642.458	426.41
642.799	377.9
643.141	372.79
643.482	439.18
643.823	393.22
644.164	408.54
644.506	457.05
644.847	393.22
645.188	426.41
645.529	398.33
645.87	441.73
646.211	393.22
646.552	413.65
646.893	428.97
647.233	405.99
647.574	416.2
647.915	357.47
648.255	352.37
648.596	451.95
648.937	485.14
649.277	434.07
649.618	400.88
649.958	408.54
650.298	385.56
650.639	347.26
650.979	403.43
651.319	385.56
651.659	354.92
651.999	372.79
652.339	308.96
652.679	403.43
653.019	413.65
653.359	331.94
653.699	357.47
654.039	416.2
654.379	377.9
654.719	388.11
655.058	388.11
655.398	411.09
655.737	439.18
656.077	375.35
656.416	436.63
656.756	390.67
657.095	411.09
657.435	354.92
657.774	377.9
658.113	439.18
658.452	375.35
658.792	380.45
659.131	352.37
659.47	400.88
659.809	395.77
660.148	367.69
660.487	370.24
660.826	383.01
661.164	405.99
661.503	439.18
661.842	416.2
662.181	329.39
662.519	393.22
662.858	367.69
663.196	431.52
663.535	372.79
663.873	395.77
664.212	398.33
664.55	303.85
664.888	380.45
665.226	377.9
665.565	398.33
665.903	635.79
666.241	418.75
666.579	436.63
666.917	395.77
667.255	344.71
667.593	467.27
667.931	390.67
668.268	377.9
668.606	362.58
668.944	388.11
669.282	367.69
669.619	426.41
669.957	416.2
670.294	413.65
670.632	349.81
670.969	411.09
671.307	403.43
671.644	326.83
671.981	439.18
672.318	385.56
672.656	370.24
672.993	403.43
673.33	400.88
673.667	339.6
674.004	383.01
674.341	395.77
674.678	444.29
675.015	462.16
675.351	395.77
675.688	454.5
676.025	428.97
676.362	377.9
676.698	360.03
677.035	377.9
677.371	362.58
677.708	354.92
678.044	426.41
678.38	477.48
678.717	462.16
679.053	398.33
679.389	357.47
679.725	408.54
680.062	428.97
680.398	385.56
680.734	426.41
681.07	411.09
681.406	390.67
681.742	426.41
682.077	434.07
682.413	331.94
682.749	400.88
683.085	370.24
683.42	367.69
683.756	423.86
684.091	454.5
684.427	349.81
684.762	375.35
685.098	416.2
685.433	413.65
685.768	388.11
686.104	416.2
686.439	423.86
686.774	393.22
687.109	377.9
687.444	390.67
687.779	383.01
688.114	413.65
688.449	357.47
688.784	395.77
689.119	421.31
689.454	413.65
689.789	352.37
690.123	395.77
690.458	393.22
690.792	446.84
691.127	372.79
691.461	423.86
691.796	377.9
692.13	367.69
692.465	449.39
692.799	331.94
693.133	321.73
693.467	360.03
693.802	370.24
694.136	375.35
694.47	352.37
694.804	301.3
695.138	349.81
695.472	416.2
695.806	428.97
696.139	398.33
696.473	393.22
696.807	375.35
697.141	357.47
697.474	375.35
697.808	411.09
698.141	337.05
698.475	357.47
698.808	319.17
699.142	301.3
699.475	334.49
699.808	405.99
700.142	405.99
700.475	365.13
700.808	388.11
701.141	413.65
701.474	408.54
701.807	383.01
702.14	393.22
702.473	385.56
702.806	367.69
703.139	405.99
703.472	418.75
703.804	388.11
704.137	434.07
704.47	431.52
704.802	428.97
705.135	467.27
705.467	400.88
705.8	352.37
706.132	390.67
706.464	477.48
706.797	423.86
707.129	426.41
707.461	449.39
707.793	360.03
708.125	383.01
708.457	469.82
708.789	393.22
709.121	426.41
709.453	390.67
709.785	454.5
710.117	436.63
710.449	388.11
710.781	393.22
711.112	411.09
711.444	367.69
711.775	377.9
712.107	451.95
712.438	398.33
712.77	288.53
713.101	395.77
713.433	365.13
713.764	395.77
714.095	400.88
714.426	487.7
714.757	454.5
715.089	342.15
715.42	398.33
715.751	370.24
716.082	403.43
716.412	398.33
716.743	347.26
717.074	411.09
717.405	441.73
717.736	357.47
718.066	400.88
718.397	395.77
718.727	370.24
719.058	416.2
719.388	421.31
719.719	370.24
720.049	326.83
720.38	354.92
720.71	434.07
721.04	395.77
721.37	324.28
721.7	400.88
722.031	388.11
722.361	423.86
722.691	403.43
723.021	434.07
723.35	400.88
723.68	360.03
724.01	326.83
724.34	383.01
724.67	377.9
724.999	308.96
725.329	421.31
725.658	416.2
725.988	449.39
726.317	344.71
726.647	395.77
726.976	411.09
727.306	434.07
727.635	426.41
727.964	403.43
728.293	413.65
728.622	360.03
728.952	342.15
729.281	413.65
729.61	388.11
729.939	331.94
730.267	436.63
730.596	403.43
730.925	454.5
731.254	395.77
731.583	413.65
731.911	347.26
732.24	377.9
732.568	403.43
732.897	403.43
733.225	367.69
733.554	395.77
733.882	360.03
734.21	398.33
734.539	388.11
734.867	400.88
735.195	383.01
735.523	329.39
735.851	405.99
736.179	431.52
736.507	400.88
736.835	357.47
737.163	380.45
737.491	418.75
737.819	395.77
738.147	349.81
738.474	360.03
738.802	431.52
739.13	354.92
739.457	444.29
739.785	380.45
740.112	334.49
740.44	411.09
740.767	418.75
741.094	393.22
741.422	370.24
741.749	383.01
742.076	390.67
742.403	426.41
742.73	418.75
743.057	375.35
743.384	434.07
743.711	380.45
744.038	434.07
744.365	390.67
744.692	377.9
745.018	403.43
745.345	390.67
745.672	398.33
745.998	344.71
746.325	385.56
746.651	383.01
746.978	421.31
747.304	400.88
747.631	423.86
747.957	306.41
748.283	347.26
748.61	349.81
748.936	385.56
749.262	403.43
749.588	395.77
749.914	395.77
750.24	354.92
750.566	408.54
750.892	428.97
751.218	408.54
751.543	393.22
751.869	326.83
752.195	431.52
752.521	349.81
752.846	360.03
753.172	418.75
753.497	457.05
753.823	426.41
754.148	446.84
754.473	416.2
754.799	319.17
755.124	377.9
755.449	398.33
755.774	362.58
756.1	403.43
756.425	395.77
756.75	446.84
757.075	390.67
757.4	469.82
757.724	423.86
758.049	444.29
758.374	413.65
758.699	375.35
759.024	360.03
759.348	367.69
759.673	413.65
759.997	469.82
760.322	367.69
760.646	375.35
760.971	446.84
761.295	393.22
761.619	411.09
761.944	446.84
762.268	474.93
762.592	515.78
762.916	485.14
763.24	467.27
763.564	454.5
763.888	428.97
764.212	526
764.536	526
764.86	643.45
765.184	740.48
765.508	783.89
765.831	786.44
766.155	1016.24
766.478	845.17
766.802	817.08
767.126	735.37
767.449	686.86
767.772	776.23
768.096	1057.1
768.419	1253.71
768.742	1539.69
769.066	1595.86
769.389	1524.37
769.712	1506.49
770.035	1297.12
770.358	939.64
770.681	931.98
771.004	1059.65
771.327	1348.18
771.65	1749.06
771.972	2075.9
772.295	2607
772.618	2757.65
772.941	2637.64
773.263	2065.68
773.586	1779.7
773.908	1432.45
774.231	1223.07
774.553	1243.5
774.875	1718.42
775.198	2285.27
775.52	2908.3
775.842	3140.65
776.164	3018.09
776.487	2847.02
776.809	2328.68
777.131	1858.86
777.453	1317.54
777.775	1240.94
778.096	1567.77
778.418	2239.31
778.74	3066.61
779.062	4225.84
779.384	5208.89
779.705	5362.09
780.027	4537.35
780.348	3628.35
780.67	2880.21
780.991	2157.6
781.313	1846.09
781.634	1876.73
781.955	2545.72
782.277	3403.65
782.598	4496.5
782.919	5469.34
783.24	5903.41
783.561	5579.13
783.882	5185.91
784.203	4256.48
784.524	3120.23
784.845	2203.57
785.166	2070.79
785.487	2645.3
785.807	3600.26
786.128	4432.66
786.449	5270.17
786.769	6761.34
787.09	7565.66
787.41	7129.03
787.731	5374.86
788.051	3577.28
788.372	2244.42
788.692	2006.96
789.012	2402.73
789.332	3061.5
789.653	4562.89
789.973	5939.16
790.293	7700.99
790.613	8408.27
790.933	8661.06
791.253	7818.44
791.573	5949.37
791.893	4149.24
792.212	2790.84
792.532	2244.42
792.852	2451.24
793.171	3201.94
793.491	4241.16
793.811	5696.59
794.13	6960.51
794.45	7325.64
794.769	6812.41
795.088	6105.13
795.408	4560.33
795.727	3283.64
796.046	2290.38
796.365	2024.83
796.684	2716.79
797.004	4172.22
797.323	5939.16
797.642	8127.4
797.96	10139.46
798.279	11017.83
798.598	10371.82
798.917	8916.4
799.236	6623.46
799.554	4350.96
