Data from 2025-12-03_xpw_interference_micrometer_637_FLMS141361__83__733.txt Node

Date: Wed Dec 03 15:56:13 MST 2025
User: james
Spectrometer: FLMS14136
Trigger mode: 0
Integration Time (sec): 1.000000E-1
Scans to average: 1
Electric dark correction enabled: true
Nonlinearity correction enabled: false
Boxcar width: 0
XAxis mode: Wavelengths
Number of Pixels in Spectrum: 2048
>>>>>Begin Spectral Data<<<<<
339.315	-59.69
339.697	-59.69
340.079	-59.69
340.461	-69.9
340.843	-97.99
341.225	-141.39
341.607	-62.24
341.989	-77.56
342.371	-69.9
342.752	-115.86
343.134	-13.72
343.516	-52.03
343.897	-13.72
344.279	-23.94
344.661	-41.81
345.042	50.11
345.423	50.11
345.805	75.64
346.186	126.71
346.567	147.14
346.949	162.46
347.33	111.39
347.711	195.65
348.092	226.29
348.473	241.61
348.854	233.95
349.235	259.49
349.616	236.51
349.997	297.79
350.378	264.59
350.758	356.52
351.139	343.75
351.52	379.5
351.9	338.64
352.281	356.52
352.661	315.66
353.042	346.3
353.422	353.96
353.803	374.39
354.183	433.12
354.563	402.48
354.943	361.62
355.324	402.48
355.704	361.62
356.084	415.24
356.464	410.14
356.844	507.16
357.224	430.56
357.603	415.24
357.983	382.05
358.363	369.28
358.743	402.48
359.122	379.5
359.502	361.62
359.882	379.5
360.261	348.86
360.641	333.54
361.02	318.21
361.399	420.35
361.779	364.18
362.158	364.18
362.537	402.48
362.916	318.21
363.296	328.43
363.675	356.52
364.054	305.45
364.433	399.92
364.812	323.32
365.19	348.86
365.569	330.98
365.948	341.2
366.327	328.43
366.705	315.66
367.084	389.71
367.463	282.47
367.841	323.32
368.22	302.89
368.598	387.16
368.977	277.36
369.355	336.09
369.733	325.87
370.111	376.94
370.49	382.05
370.868	302.89
371.246	361.62
371.624	371.84
372.002	330.98
372.38	318.21
372.758	366.73
373.136	384.6
373.513	328.43
373.891	405.03
374.269	348.86
374.646	356.52
375.024	361.62
375.402	394.82
375.779	300.34
376.157	353.96
376.534	371.84
376.911	353.96
377.289	310.55
377.666	313.11
378.043	346.3
378.42	308
378.797	320.77
379.175	333.54
379.552	341.2
379.929	356.52
380.305	410.14
380.682	323.32
381.059	341.2
381.436	410.14
381.813	397.37
382.189	374.39
382.566	392.26
382.943	369.28
383.319	338.64
383.696	290.13
384.072	371.84
384.448	359.07
384.825	379.5
385.201	328.43
385.577	369.28
385.953	348.86
386.329	343.75
386.706	282.47
387.082	369.28
387.458	394.82
387.834	384.6
388.209	361.62
388.585	330.98
388.961	328.43
389.337	330.98
389.713	366.73
390.088	364.18
390.464	338.64
390.839	384.6
391.215	389.71
391.59	290.13
391.966	356.52
392.341	415.24
392.716	397.37
393.092	374.39
393.467	374.39
393.842	387.16
394.217	407.58
394.592	341.2
394.967	351.41
395.342	397.37
395.717	356.52
396.092	356.52
396.467	374.39
396.841	399.92
397.216	341.2
397.591	397.37
397.965	351.41
398.34	382.05
398.714	353.96
399.089	364.18
399.463	351.41
399.838	394.82
400.212	353.96
400.586	351.41
400.961	351.41
401.335	353.96
401.709	387.16
402.083	336.09
402.457	323.32
402.831	389.71
403.205	361.62
403.579	336.09
403.953	361.62
404.326	361.62
404.7	364.18
405.074	318.21
405.447	351.41
405.821	405.03
406.195	313.11
406.568	325.87
406.942	425.46
407.315	399.92
407.688	407.58
408.062	356.52
408.435	295.23
408.808	285.02
409.181	410.14
409.554	376.94
409.927	310.55
410.3	412.69
410.673	325.87
411.046	348.86
411.419	361.62
411.792	333.54
412.165	353.96
412.537	376.94
412.91	313.11
413.283	343.75
413.655	356.52
414.028	376.94
414.4	361.62
414.773	422.9
415.145	407.58
415.517	402.48
415.889	315.66
416.262	323.32
416.634	379.5
417.006	376.94
417.378	399.92
417.75	346.3
418.122	443.33
418.494	394.82
418.866	325.87
419.238	405.03
419.609	356.52
419.981	384.6
420.353	392.26
420.725	402.48
421.096	407.58
421.468	387.16
421.839	336.09
422.211	384.6
422.582	369.28
422.953	361.62
423.325	366.73
423.696	315.66
424.067	361.62
424.438	364.18
424.809	333.54
425.18	346.3
425.551	402.48
425.922	389.71
426.293	382.05
426.664	361.62
427.035	356.52
427.406	318.21
427.776	364.18
428.147	394.82
428.518	348.86
428.888	341.2
429.259	374.39
429.629	351.41
429.999	300.34
430.37	364.18
430.74	379.5
431.11	310.55
431.481	435.67
431.851	430.56
432.221	397.37
432.591	425.46
432.961	456.1
433.331	402.48
433.701	359.07
434.071	422.9
434.441	422.9
434.81	346.3
435.18	410.14
435.55	415.24
435.919	410.14
436.289	456.1
436.658	438.22
437.028	338.64
437.397	376.94
437.767	374.39
438.136	438.22
438.505	366.73
438.875	405.03
439.244	438.22
439.613	356.52
439.982	417.8
440.351	392.26
440.72	417.8
441.089	412.69
441.458	402.48
441.827	361.62
442.196	389.71
442.564	468.86
442.933	369.28
443.302	405.03
443.67	308
444.039	338.64
444.407	382.05
444.776	405.03
445.144	356.52
445.513	384.6
445.881	415.24
446.249	420.35
446.617	407.58
446.986	407.58
447.354	397.37
447.722	417.8
448.09	425.46
448.458	371.84
448.826	458.65
449.194	361.62
449.561	448.44
449.929	402.48
450.297	405.03
450.665	422.9
451.032	445.88
451.4	361.62
451.767	399.92
452.135	417.8
452.502	430.56
452.87	443.33
453.237	369.28
453.604	369.28
453.971	438.22
454.339	502.06
454.706	394.82
455.073	364.18
455.44	461.2
455.807	376.94
456.174	364.18
456.541	433.12
456.908	346.3
457.274	420.35
457.641	402.48
458.008	433.12
458.374	450.99
458.741	433.12
459.108	359.07
459.474	359.07
459.841	364.18
460.207	415.24
460.573	384.6
460.94	415.24
461.306	410.14
461.672	407.58
462.038	443.33
462.404	346.3
462.771	412.69
463.137	435.67
463.503	417.8
463.868	415.24
464.234	387.16
464.6	415.24
464.966	397.37
465.332	371.84
465.697	468.86
466.063	463.76
466.429	458.65
466.794	397.37
467.16	445.88
467.525	366.73
467.89	440.78
468.256	382.05
468.621	371.84
468.986	428.01
469.351	422.9
469.717	445.88
470.082	440.78
470.447	369.28
470.812	412.69
471.177	389.71
471.542	407.58
471.906	359.07
472.271	394.82
472.636	425.46
473.001	394.82
473.365	371.84
473.73	323.32
474.094	443.33
474.459	402.48
474.823	387.16
475.188	430.56
475.552	468.86
475.917	369.28
476.281	399.92
476.645	443.33
477.009	389.71
477.373	438.22
477.737	379.5
478.101	399.92
478.465	445.88
478.829	379.5
479.193	387.16
479.557	359.07
479.921	374.39
480.284	412.69
480.648	425.46
481.012	443.33
481.375	379.5
481.739	366.73
482.102	389.71
482.466	366.73
482.829	445.88
483.193	425.46
483.556	422.9
483.919	420.35
484.282	397.37
484.645	433.12
485.009	407.58
485.372	481.63
485.735	445.88
486.098	448.44
486.46	435.67
486.823	387.16
487.186	399.92
487.549	402.48
487.912	433.12
488.274	351.41
488.637	392.26
488.999	420.35
489.362	456.1
489.724	456.1
490.087	394.82
490.449	379.5
490.811	343.75
491.174	412.69
491.536	361.62
491.898	422.9
492.26	364.18
492.622	346.3
492.984	440.78
493.346	461.2
493.708	399.92
494.07	387.16
494.432	412.69
494.794	425.46
495.155	410.14
495.517	420.35
495.879	433.12
496.24	425.46
496.602	366.73
496.963	394.82
497.325	491.84
497.686	389.71
498.048	453.54
498.409	392.26
498.77	428.01
499.131	410.14
499.492	405.03
499.854	379.5
500.215	420.35
500.576	422.9
500.937	384.6
501.298	433.12
501.658	369.28
502.019	389.71
502.38	394.82
502.741	453.54
503.101	389.71
503.462	353.96
503.823	420.35
504.183	371.84
504.543	369.28
504.904	389.71
505.264	433.12
505.625	481.63
505.985	389.71
506.345	456.1
506.705	399.92
507.065	435.67
507.426	399.92
507.786	481.63
508.146	438.22
508.505	389.71
508.865	371.84
509.225	456.1
509.585	466.31
509.945	463.76
510.304	430.56
510.664	384.6
511.024	387.16
511.383	428.01
511.743	445.88
512.102	394.82
512.462	443.33
512.821	356.52
513.18	366.73
513.539	448.44
513.899	346.3
514.258	308
514.617	336.09
514.976	433.12
515.335	382.05
515.694	356.52
516.053	364.18
516.412	428.01
516.771	496.95
517.129	435.67
517.488	382.05
517.847	336.09
518.205	382.05
518.564	356.52
518.922	361.62
519.281	430.56
519.639	428.01
519.998	486.74
520.356	402.48
520.714	384.6
521.073	415.24
521.431	392.26
521.789	438.22
522.147	440.78
522.505	407.58
522.863	412.69
523.221	405.03
523.579	417.8
523.937	399.92
524.295	422.9
524.652	394.82
525.01	407.58
525.368	412.69
525.725	445.88
526.083	420.35
526.44	412.69
526.798	422.9
527.155	364.18
527.513	366.73
527.87	359.07
528.227	445.88
528.584	405.03
528.942	376.94
529.299	417.8
529.656	343.75
530.013	433.12
530.37	412.69
530.727	433.12
531.083	361.62
531.44	417.8
531.797	415.24
532.154	410.14
532.511	435.67
532.867	389.71
533.224	366.73
533.58	489.29
533.937	389.71
534.293	356.52
534.65	359.07
535.006	382.05
535.362	443.33
535.718	415.24
536.075	407.58
536.431	415.24
536.787	420.35
537.143	405.03
537.499	366.73
537.855	382.05
538.211	371.84
538.567	369.28
538.923	387.16
539.278	433.12
539.634	450.99
539.99	415.24
540.345	343.75
540.701	412.69
541.056	359.07
541.412	476.52
541.767	417.8
542.123	346.3
542.478	348.86
542.833	435.67
543.188	412.69
543.544	330.98
543.899	412.69
544.254	461.2
544.609	433.12
544.964	374.39
545.319	445.88
545.674	405.03
546.029	420.35
546.383	359.07
546.738	402.48
547.093	387.16
547.447	356.52
547.802	384.6
548.157	369.28
548.511	374.39
548.866	422.9
549.22	448.44
549.574	484.18
549.929	440.78
550.283	412.69
550.637	415.24
550.991	473.97
551.345	425.46
551.699	389.71
552.053	394.82
552.407	397.37
552.761	389.71
553.115	371.84
553.469	430.56
553.823	361.62
554.176	392.26
554.53	461.2
554.884	430.56
555.237	604.19
555.591	512.27
555.944	461.2
556.298	394.82
556.651	450.99
557.005	359.07
557.358	379.5
557.711	384.6
558.064	382.05
558.417	430.56
558.771	476.52
559.124	379.5
559.477	392.26
559.83	348.86
560.182	353.96
560.535	417.8
560.888	420.35
561.241	410.14
561.594	415.24
561.946	376.94
562.299	376.94
562.651	364.18
563.004	415.24
563.356	407.58
563.709	346.3
564.061	412.69
564.413	428.01
564.766	366.73
565.118	371.84
565.47	433.12
565.822	374.39
566.174	397.37
566.526	407.58
566.878	374.39
567.23	394.82
567.582	371.84
567.934	484.18
568.286	382.05
568.638	366.73
568.989	443.33
569.341	405.03
569.693	471.42
570.044	369.28
570.396	417.8
570.747	405.03
571.098	407.58
571.45	384.6
571.801	348.86
572.152	458.65
572.504	336.09
572.855	417.8
573.206	463.76
573.557	405.03
573.908	392.26
574.259	402.48
574.61	438.22
574.961	496.95
575.311	433.12
575.662	348.86
576.013	461.2
576.364	392.26
576.714	376.94
577.065	399.92
577.415	399.92
577.766	415.24
578.116	476.52
578.467	473.97
578.817	430.56
579.167	415.24
579.518	361.62
579.868	407.58
580.218	405.03
580.568	420.35
580.918	392.26
581.268	435.67
581.618	361.62
581.968	417.8
582.318	415.24
582.668	440.78
583.017	356.52
583.367	440.78
583.717	320.77
584.066	315.66
584.416	399.92
584.765	509.72
585.115	374.39
585.464	445.88
585.814	382.05
586.163	405.03
586.512	351.41
586.862	428.01
587.211	376.94
587.56	410.14
587.909	366.73
588.258	374.39
588.607	412.69
588.956	417.8
589.305	435.67
589.654	484.18
590.002	438.22
590.351	364.18
590.7	458.65
591.048	382.05
591.397	364.18
591.746	397.37
592.094	397.37
592.443	412.69
592.791	435.67
593.139	402.48
593.488	382.05
593.836	397.37
594.184	328.43
594.532	371.84
594.88	445.88
595.228	394.82
595.576	376.94
595.924	384.6
596.272	415.24
596.62	438.22
596.968	407.58
597.316	428.01
597.664	387.16
598.011	438.22
598.359	341.2
598.706	361.62
599.054	407.58
599.402	448.44
599.749	392.26
600.096	379.5
600.444	353.96
600.791	351.41
601.138	407.58
601.485	405.03
601.833	405.03
602.18	448.44
602.527	364.18
602.874	402.48
603.221	361.62
603.568	376.94
603.914	438.22
604.261	428.01
604.608	466.31
604.955	456.1
605.301	407.58
605.648	397.37
605.995	412.69
606.341	392.26
606.688	397.37
607.034	371.84
607.38	387.16
607.727	379.5
608.073	374.39
608.419	397.37
608.765	379.5
609.112	448.44
609.458	379.5
609.804	376.94
610.15	387.16
610.496	420.35
610.842	361.62
611.187	384.6
611.533	371.84
611.879	351.41
612.225	364.18
612.57	364.18
612.916	448.44
613.261	405.03
613.607	450.99
613.952	341.2
614.298	387.16
614.643	397.37
614.989	330.98
615.334	359.07
615.679	379.5
616.024	356.52
616.369	397.37
616.714	364.18
617.059	369.28
617.404	389.71
617.749	346.3
618.094	325.87
618.439	453.54
618.784	405.03
619.129	415.24
619.473	428.01
619.818	417.8
620.163	369.28
620.507	382.05
620.852	387.16
621.196	453.54
621.54	371.84
621.885	374.39
622.229	338.64
622.573	397.37
622.918	430.56
623.262	410.14
623.606	341.2
623.95	359.07
624.294	473.97
624.638	379.5
624.982	328.43
625.326	343.75
625.67	399.92
626.013	394.82
626.357	415.24
626.701	374.39
627.044	402.48
627.388	425.46
627.731	453.54
628.075	412.69
628.418	387.16
628.762	405.03
629.105	356.52
629.448	374.39
629.792	364.18
630.135	433.12
630.478	341.2
630.821	387.16
631.164	412.69
631.507	376.94
631.85	445.88
632.193	353.96
632.536	356.52
632.879	399.92
633.221	397.37
633.564	402.48
633.907	387.16
634.249	443.33
634.592	410.14
634.935	356.52
635.277	410.14
635.619	376.94
635.962	333.54
636.304	369.28
636.646	392.26
636.989	456.1
637.331	397.37
637.673	422.9
638.015	410.14
638.357	405.03
638.699	376.94
639.041	422.9
639.383	384.6
639.725	369.28
640.067	387.16
640.408	341.2
640.75	415.24
641.092	422.9
641.433	450.99
641.775	402.48
642.116	374.39
642.458	397.37
642.799	496.95
643.141	461.2
643.482	405.03
643.823	376.94
644.164	443.33
644.506	509.72
644.847	379.5
645.188	407.58
645.529	330.98
645.87	374.39
646.211	443.33
646.552	394.82
646.893	315.66
647.233	348.86
647.574	330.98
647.915	359.07
648.255	341.2
648.596	330.98
648.937	405.03
649.277	410.14
649.618	359.07
649.958	440.78
650.298	379.5
650.639	371.84
650.979	425.46
651.319	394.82
651.659	394.82
651.999	343.75
652.339	389.71
652.679	382.05
653.019	382.05
653.359	320.77
653.699	443.33
654.039	379.5
654.379	415.24
654.719	405.03
655.058	348.86
655.398	369.28
655.737	415.24
656.077	407.58
656.416	412.69
656.756	456.1
657.095	456.1
657.435	392.26
657.774	346.3
658.113	384.6
658.452	371.84
658.792	473.97
659.131	440.78
659.47	387.16
659.809	361.62
660.148	348.86
660.487	348.86
660.826	394.82
661.164	397.37
661.503	343.75
661.842	359.07
662.181	420.35
662.519	458.65
662.858	412.69
663.196	376.94
663.535	399.92
663.873	425.46
664.212	376.94
664.55	405.03
664.888	366.73
665.226	405.03
665.565	366.73
665.903	622.07
666.241	463.76
666.579	382.05
666.917	371.84
667.255	325.87
667.593	346.3
667.931	359.07
668.268	399.92
668.606	379.5
668.944	392.26
669.282	433.12
669.619	369.28
669.957	364.18
670.294	302.89
670.632	379.5
670.969	389.71
671.307	420.35
671.644	397.37
671.981	361.62
672.318	353.96
672.656	486.74
672.993	425.46
673.33	438.22
673.667	399.92
674.004	412.69
674.341	392.26
674.678	433.12
675.015	341.2
675.351	415.24
675.688	369.28
676.025	430.56
676.362	425.46
676.698	353.96
677.035	448.44
677.371	410.14
677.708	420.35
678.044	438.22
678.38	422.9
678.717	422.9
679.053	410.14
679.389	394.82
679.725	371.84
680.062	405.03
680.398	389.71
680.734	353.96
681.07	320.77
681.406	410.14
681.742	422.9
682.077	415.24
682.413	366.73
682.749	410.14
683.085	384.6
683.42	394.82
683.756	387.16
684.091	382.05
684.427	461.2
684.762	453.54
685.098	412.69
685.433	417.8
685.768	343.75
686.104	364.18
686.439	379.5
686.774	359.07
687.109	397.37
687.444	433.12
687.779	402.48
688.114	369.28
688.449	338.64
688.784	438.22
689.119	461.2
689.454	399.92
689.789	450.99
690.123	456.1
690.458	428.01
690.792	425.46
691.127	308
691.461	338.64
691.796	392.26
692.13	412.69
692.465	428.01
692.799	338.64
693.133	338.64
693.467	430.56
693.802	430.56
694.136	392.26
694.47	405.03
694.804	364.18
695.138	313.11
695.472	410.14
695.806	353.96
696.139	351.41
696.473	387.16
696.807	366.73
697.141	338.64
697.474	412.69
697.808	410.14
698.141	402.48
698.475	382.05
698.808	410.14
699.142	359.07
699.475	343.75
699.808	430.56
700.142	415.24
700.475	374.39
700.808	328.43
701.141	366.73
701.474	323.32
701.807	371.84
702.14	341.2
702.473	410.14
702.806	422.9
703.139	387.16
703.472	471.42
703.804	410.14
704.137	405.03
704.47	374.39
704.802	371.84
705.135	379.5
705.467	384.6
705.8	428.01
706.132	428.01
706.464	405.03
706.797	338.64
707.129	417.8
707.461	433.12
707.793	428.01
708.125	387.16
708.457	405.03
708.789	407.58
709.121	394.82
709.453	351.41
709.785	351.41
710.117	376.94
710.449	392.26
710.781	366.73
711.112	394.82
711.444	353.96
711.775	330.98
712.107	323.32
712.438	371.84
712.77	366.73
713.101	361.62
713.433	389.71
713.764	387.16
714.095	328.43
714.426	397.37
714.757	410.14
715.089	359.07
715.42	448.44
715.751	410.14
716.082	387.16
716.412	415.24
716.743	461.2
717.074	382.05
717.405	343.75
717.736	387.16
718.066	392.26
718.397	374.39
718.727	369.28
719.058	412.69
719.388	397.37
719.719	348.86
720.049	351.41
720.38	359.07
720.71	405.03
721.04	387.16
721.37	333.54
721.7	369.28
722.031	389.71
722.361	438.22
722.691	438.22
723.021	336.09
723.35	379.5
723.68	333.54
724.01	315.66
724.34	463.76
724.67	397.37
724.999	410.14
725.329	438.22
725.658	428.01
725.988	359.07
726.317	438.22
726.647	425.46
726.976	428.01
727.306	387.16
727.635	379.5
727.964	412.69
728.293	371.84
728.622	341.2
728.952	402.48
729.281	440.78
729.61	496.95
729.939	399.92
730.267	379.5
730.596	430.56
730.925	374.39
731.254	366.73
731.583	353.96
731.911	333.54
732.24	420.35
732.568	382.05
732.897	356.52
733.225	356.52
733.554	458.65
733.882	415.24
734.21	410.14
734.539	325.87
734.867	412.69
735.195	402.48
735.523	361.62
735.851	364.18
736.179	376.94
736.507	374.39
736.835	420.35
737.163	425.46
737.491	387.16
737.819	443.33
738.147	412.69
738.474	389.71
738.802	422.9
739.13	407.58
739.457	379.5
739.785	379.5
740.112	374.39
740.44	328.43
740.767	300.34
741.094	333.54
741.422	369.28
741.749	417.8
742.076	440.78
742.403	343.75
742.73	320.77
743.057	379.5
743.384	392.26
743.711	359.07
744.038	392.26
744.365	476.52
744.692	466.31
745.018	374.39
745.345	379.5
745.672	461.2
745.998	366.73
746.325	341.2
746.651	356.52
746.978	313.11
747.304	425.46
747.631	387.16
747.957	323.32
748.283	315.66
748.61	366.73
748.936	382.05
749.262	392.26
749.588	412.69
749.914	361.62
750.24	397.37
750.566	369.28
750.892	394.82
751.218	364.18
751.543	471.42
751.869	392.26
752.195	471.42
752.521	412.69
752.846	402.48
753.172	445.88
753.497	343.75
753.823	359.07
754.148	425.46
754.473	359.07
754.799	366.73
755.124	417.8
755.449	425.46
755.774	417.8
756.1	399.92
756.425	371.84
756.75	402.48
757.075	428.01
757.4	576.11
757.724	425.46
758.049	348.86
758.374	415.24
758.699	366.73
759.024	450.99
759.348	412.69
759.673	353.96
759.997	397.37
760.322	422.9
760.646	430.56
760.971	374.39
761.295	468.86
761.619	473.97
761.944	379.5
762.268	466.31
762.592	484.18
762.916	489.29
763.24	461.2
763.564	440.78
763.888	453.54
764.212	389.71
764.536	489.29
764.86	604.19
765.184	706.33
765.508	696.11
765.831	834
766.155	999.97
766.478	839.1
766.802	844.21
767.126	675.69
767.449	693.56
767.772	851.87
768.096	997.41
768.419	1229.77
768.742	1426.38
769.066	1536.18
769.389	1508.09
769.712	1500.43
770.035	1308.93
770.358	1117.42
770.681	1017.84
771.004	1035.71
771.327	1337.01
771.65	1727.68
771.972	2069.83
772.295	2491.14
772.618	2687.75
772.941	2567.74
773.263	2095.37
773.586	1796.62
773.908	1449.36
774.231	1319.14
774.553	1278.28
774.875	1594.9
775.198	2220.48
775.52	2833.29
775.842	3045.22
776.164	2861.38
776.487	2759.24
776.809	2304.74
777.131	1773.64
777.453	1329.35
777.775	1211.9
778.096	1457.02
778.418	2016.21
778.74	2863.93
779.062	3892.94
779.384	5075.16
779.705	5371.35
780.027	4720.24
780.348	3862.3
780.67	2922.66
780.991	2261.34
781.313	1796.62
781.634	1829.81
781.955	2330.28
782.277	3336.31
782.598	4388.3
782.919	5432.63
783.24	5879.47
783.561	5685.42
783.882	5499.02
784.203	4600.23
784.524	3063.1
784.845	2256.23
785.166	1990.68
785.487	2478.37
785.807	3331.2
786.128	4344.89
786.449	5131.33
786.769	6428.45
787.09	7373.2
787.41	6997.85
787.731	5333.05
788.051	3795.92
788.372	2544.76
788.692	1939.61
789.012	2233.25
789.332	2917.55
789.653	4079.34
789.973	5527.11
790.293	7199.57
790.613	8190.28
790.933	8665.21
791.253	7723.01
791.573	6114.38
791.893	4201.9
792.212	2823.08
792.532	2161.75
792.852	2258.78
793.171	2894.57
793.491	3984.87
793.811	5430.08
794.13	6806.35
794.45	7319.58
794.769	6951.89
795.088	6206.3
795.408	4819.82
795.727	3443.55
796.046	2429.86
796.365	2097.92
796.684	2506.46
797.004	3691.23
797.323	5542.43
797.642	7531.51
797.96	9750.39
798.279	10705.36
798.598	10342.78
798.917	9017.57
799.236	6941.68
799.554	4656.4
799.873	2784.78
800.192	1796.62
800.51	1515.75
800.829	1965.14
