Data from 2025-12-03_xpw_interference_micrometer_637_FLMS141361__10__660.txt Node

Date: Wed Dec 03 15:56:06 MST 2025
User: james
Spectrometer: FLMS14136
Trigger mode: 0
Integration Time (sec): 1.000000E-1
Scans to average: 1
Electric dark correction enabled: true
Nonlinearity correction enabled: false
Boxcar width: 0
XAxis mode: Wavelengths
Number of Pixels in Spectrum: 2048
>>>>>Begin Spectral Data<<<<<
339.315	15.64
339.697	15.64
340.079	15.64
340.461	-132.46
340.843	-53.3
341.225	-137.56
341.607	-114.58
341.989	-48.2
342.371	-109.48
342.752	-83.94
343.134	-71.18
343.516	-27.77
343.897	0.32
344.279	-4.79
344.661	28.41
345.042	89.69
345.423	-30.32
345.805	69.26
346.186	122.88
346.567	150.97
346.949	166.29
347.33	120.33
347.711	212.25
348.092	171.4
348.473	186.72
348.854	265.87
349.235	196.93
349.616	161.18
349.997	248
350.378	296.51
350.758	339.92
351.139	322.04
351.52	375.67
351.9	373.11
352.281	329.7
352.661	327.15
353.042	337.37
353.422	288.85
353.803	408.86
354.183	322.04
354.563	431.84
354.943	421.63
355.324	347.58
355.704	390.99
356.084	352.69
356.464	357.79
356.844	439.5
357.224	431.84
357.603	408.86
357.983	388.43
358.363	375.67
358.743	447.16
359.122	388.43
359.502	339.92
359.882	360.35
360.261	370.56
360.641	360.35
361.02	299.06
361.399	265.87
361.779	352.69
362.158	352.69
362.537	327.15
362.916	352.69
363.296	365.45
363.675	368.01
364.054	362.9
364.433	309.28
364.812	383.33
365.19	406.31
365.569	350.13
365.948	403.75
366.327	301.62
366.705	378.22
367.084	319.49
367.463	322.04
367.841	296.51
368.22	388.43
368.598	375.67
368.977	270.98
369.355	322.04
369.733	355.24
370.111	350.13
370.49	319.49
370.868	465.03
371.246	311.83
371.624	273.53
372.002	322.04
372.38	342.47
372.758	337.37
373.136	306.72
373.513	416.52
373.891	373.11
374.269	362.9
374.646	385.88
375.024	324.6
375.402	380.77
375.779	311.83
376.157	332.26
376.534	355.24
376.911	345.03
377.289	368.01
377.666	398.65
378.043	352.69
378.42	329.7
378.797	319.49
379.175	345.03
379.552	390.99
379.929	388.43
380.305	352.69
380.682	362.9
381.059	339.92
381.436	368.01
381.813	416.52
382.189	398.65
382.566	337.37
382.943	373.11
383.319	406.31
383.696	319.49
384.072	365.45
384.448	365.45
384.825	306.72
385.201	334.81
385.577	357.79
385.953	370.56
386.329	365.45
386.706	416.52
387.082	406.31
387.458	314.38
387.834	393.54
388.209	345.03
388.585	375.67
388.961	390.99
389.337	406.31
389.713	316.94
390.088	283.74
390.464	345.03
390.839	301.62
391.215	324.6
391.59	431.84
391.966	365.45
392.341	365.45
392.716	403.75
393.092	355.24
393.467	332.26
393.842	309.28
394.217	345.03
394.592	403.75
394.967	380.77
395.342	388.43
395.717	362.9
396.092	314.38
396.467	352.69
396.841	383.33
397.216	421.63
397.591	393.54
397.965	370.56
398.34	357.79
398.714	383.33
399.089	368.01
399.463	393.54
399.838	347.58
400.212	345.03
400.586	383.33
400.961	401.2
401.335	413.97
401.709	365.45
402.083	421.63
402.457	383.33
402.831	373.11
403.205	373.11
403.579	329.7
403.953	454.82
404.326	439.5
404.7	398.65
405.074	352.69
405.447	368.01
405.821	434.39
406.195	390.99
406.568	314.38
406.942	465.03
407.315	375.67
407.688	337.37
408.062	398.65
408.435	370.56
408.808	362.9
409.181	345.03
409.554	406.31
409.927	396.09
410.3	373.11
410.673	444.61
411.046	355.24
411.419	360.35
411.792	370.56
412.165	362.9
412.537	337.37
412.91	334.81
413.283	322.04
413.655	413.97
414.028	347.58
414.4	319.49
414.773	339.92
415.145	373.11
415.517	368.01
415.889	390.99
416.262	388.43
416.634	398.65
417.006	429.29
417.378	452.27
417.75	357.79
418.122	416.52
418.494	426.73
418.866	345.03
419.238	352.69
419.609	350.13
419.981	380.77
420.353	365.45
420.725	365.45
421.096	388.43
421.468	393.54
421.839	368.01
422.211	370.56
422.582	360.35
422.953	411.41
423.325	470.14
423.696	375.67
424.067	424.18
424.438	378.22
424.809	362.9
425.18	406.31
425.551	396.09
425.922	424.18
426.293	411.41
426.664	388.43
427.035	462.48
427.406	406.31
427.776	316.94
428.147	378.22
428.518	385.88
428.888	306.72
429.259	345.03
429.629	375.67
429.999	319.49
430.37	426.73
430.74	401.2
431.11	416.52
431.481	375.67
431.851	449.71
432.221	360.35
432.591	352.69
432.961	406.31
433.331	324.6
433.701	360.35
434.071	322.04
434.441	388.43
434.81	370.56
435.18	380.77
435.55	408.86
435.919	393.54
436.289	365.45
436.658	362.9
437.028	424.18
437.397	380.77
437.767	434.39
438.136	416.52
438.505	373.11
438.875	419.07
439.244	439.5
439.613	424.18
439.982	375.67
440.351	408.86
440.72	365.45
441.089	339.92
441.458	459.93
441.827	442.05
442.196	385.88
442.564	431.84
442.933	383.33
443.302	442.05
443.67	383.33
444.039	350.13
444.407	357.79
444.776	337.37
445.144	434.39
445.513	398.65
445.881	413.97
446.249	416.52
446.617	339.92
446.986	429.29
447.354	411.41
447.722	383.33
448.09	442.05
448.458	373.11
448.826	406.31
449.194	419.07
449.561	373.11
449.929	388.43
450.297	347.58
450.665	467.59
451.032	421.63
451.4	439.5
451.767	421.63
452.135	431.84
452.502	345.03
452.87	439.5
453.237	472.69
453.604	424.18
453.971	398.65
454.339	436.95
454.706	416.52
455.073	449.71
455.44	368.01
455.807	452.27
456.174	396.09
456.541	431.84
456.908	467.59
457.274	396.09
457.641	424.18
458.008	360.35
458.374	362.9
458.741	334.81
459.108	345.03
459.474	444.61
459.841	429.29
460.207	383.33
460.573	452.27
460.94	457.37
461.306	485.46
461.672	457.37
462.038	383.33
462.404	470.14
462.771	396.09
463.137	362.9
463.503	411.41
463.868	388.43
464.234	380.77
464.6	436.95
464.966	470.14
465.332	393.54
465.697	380.77
466.063	368.01
466.429	416.52
466.794	365.45
467.16	408.86
467.525	383.33
467.89	370.56
468.256	375.67
468.621	411.41
468.986	350.13
469.351	362.9
469.717	327.15
470.082	436.95
470.447	429.29
470.812	403.75
471.177	383.33
471.542	416.52
471.906	431.84
472.271	431.84
472.636	398.65
473.001	393.54
473.365	339.92
473.73	378.22
474.094	383.33
474.459	406.31
474.823	480.35
475.188	403.75
475.552	355.24
475.917	378.22
476.281	421.63
476.645	319.49
477.009	403.75
477.373	406.31
477.737	406.31
478.101	388.43
478.465	429.29
478.829	459.93
479.193	385.88
479.557	390.99
479.921	503.33
480.284	401.2
480.648	390.99
481.012	452.27
481.375	362.9
481.739	393.54
482.102	424.18
482.466	398.65
482.829	434.39
483.193	373.11
483.556	403.75
483.919	465.03
484.282	370.56
484.645	419.07
485.009	459.93
485.372	419.07
485.735	388.43
486.098	408.86
486.46	370.56
486.823	380.77
487.186	390.99
487.549	375.67
487.912	324.6
488.274	368.01
488.637	352.69
488.999	424.18
489.362	390.99
489.724	401.2
490.087	380.77
490.449	378.22
490.811	373.11
491.174	373.11
491.536	500.78
491.898	424.18
492.26	411.41
492.622	419.07
492.984	378.22
493.346	375.67
493.708	424.18
494.07	362.9
494.432	436.95
494.794	406.31
495.155	406.31
495.517	429.29
495.879	419.07
496.24	406.31
496.602	436.95
496.963	467.59
497.325	406.31
497.686	421.63
498.048	452.27
498.409	457.37
498.77	411.41
499.131	390.99
499.492	454.82
499.854	403.75
500.215	462.48
500.576	424.18
500.937	357.79
501.298	316.94
501.658	419.07
502.019	439.5
502.38	362.9
502.741	396.09
503.101	385.88
503.462	380.77
503.823	370.56
504.183	434.39
504.543	380.77
504.904	390.99
505.264	495.67
505.625	419.07
505.985	378.22
506.345	495.67
506.705	444.61
507.065	413.97
507.426	477.8
507.786	360.35
508.146	393.54
508.505	403.75
508.865	408.86
509.225	365.45
509.585	490.57
509.945	362.9
510.304	388.43
510.664	390.99
511.024	350.13
511.383	462.48
511.743	368.01
512.102	396.09
512.462	424.18
512.821	362.9
513.18	424.18
513.539	406.31
513.899	355.24
514.258	383.33
514.617	429.29
514.976	368.01
515.335	396.09
515.694	390.99
516.053	342.47
516.412	355.24
516.771	406.31
517.129	477.8
517.488	439.5
517.847	408.86
518.205	452.27
518.564	406.31
518.922	401.2
519.281	365.45
519.639	447.16
519.998	449.71
520.356	350.13
520.714	357.79
521.073	406.31
521.431	406.31
521.789	436.95
522.147	434.39
522.505	472.69
522.863	390.99
523.221	406.31
523.579	436.95
523.937	459.93
524.295	424.18
524.652	388.43
525.01	365.45
525.368	390.99
525.725	370.56
526.083	378.22
526.44	370.56
526.798	436.95
527.155	429.29
527.513	403.75
527.87	334.81
528.227	276.08
528.584	472.69
528.942	462.48
529.299	439.5
529.656	380.77
530.013	334.81
530.37	408.86
530.727	388.43
531.083	447.16
531.44	439.5
531.797	385.88
532.154	375.67
532.511	360.35
532.867	411.41
533.224	442.05
533.58	447.16
533.937	442.05
534.293	444.61
534.65	510.99
535.006	373.11
535.362	401.2
535.718	383.33
536.075	383.33
536.431	360.35
536.787	357.79
537.143	362.9
537.499	373.11
537.855	398.65
538.211	383.33
538.567	416.52
538.923	465.03
539.278	393.54
539.634	401.2
539.99	413.97
540.345	345.03
540.701	408.86
541.056	419.07
541.412	347.58
541.767	352.69
542.123	329.7
542.478	360.35
542.833	401.2
543.188	401.2
543.544	357.79
543.899	454.82
544.254	475.25
544.609	378.22
544.964	485.46
545.319	390.99
545.674	413.97
546.029	342.47
546.383	416.52
546.738	449.71
547.093	434.39
547.447	439.5
547.802	424.18
548.157	416.52
548.511	436.95
548.866	429.29
549.22	401.2
549.574	408.86
549.929	406.31
550.283	324.6
550.637	411.41
550.991	413.97
551.345	406.31
551.699	431.84
552.053	431.84
552.407	424.18
552.761	362.9
553.115	431.84
553.469	388.43
553.823	454.82
554.176	419.07
554.53	419.07
554.884	393.54
555.237	615.68
555.591	459.93
555.944	467.59
556.298	401.2
556.651	429.29
557.005	398.65
557.358	390.99
557.711	360.35
558.064	388.43
558.417	416.52
558.771	477.8
559.124	475.25
559.477	475.25
559.83	360.35
560.182	467.59
560.535	482.91
560.888	485.46
561.241	459.93
561.594	444.61
561.946	436.95
562.299	454.82
562.651	424.18
563.004	406.31
563.356	393.54
563.709	385.88
564.061	444.61
564.413	403.75
564.766	431.84
565.118	495.67
565.47	385.88
565.822	424.18
566.174	398.65
566.526	398.65
566.878	357.79
567.23	396.09
567.582	388.43
567.934	345.03
568.286	390.99
568.638	370.56
568.989	442.05
569.341	482.91
569.693	426.73
570.044	439.5
570.396	413.97
570.747	434.39
571.098	342.47
571.45	324.6
571.801	385.88
572.152	393.54
572.504	419.07
572.855	301.62
573.206	447.16
573.557	401.2
573.908	470.14
574.259	462.48
574.61	408.86
574.961	329.7
575.311	413.97
575.662	411.41
576.013	347.58
576.364	385.88
576.714	347.58
577.065	393.54
577.415	408.86
577.766	426.73
578.116	360.35
578.467	457.37
578.817	388.43
579.167	426.73
579.518	375.67
579.868	342.47
580.218	401.2
580.568	447.16
580.918	436.95
581.268	426.73
581.618	408.86
581.968	449.71
582.318	375.67
582.668	375.67
583.017	370.56
583.367	375.67
583.717	436.95
584.066	396.09
584.416	406.31
584.765	439.5
585.115	360.35
585.464	401.2
585.814	411.41
586.163	401.2
586.512	380.77
586.862	439.5
587.211	485.46
587.56	429.29
587.909	459.93
588.258	413.97
588.607	396.09
588.956	388.43
589.305	401.2
589.654	401.2
590.002	403.75
590.351	411.41
590.7	416.52
591.048	383.33
591.397	403.75
591.746	337.37
592.094	362.9
592.443	401.2
592.791	357.79
593.139	419.07
593.488	375.67
593.836	373.11
594.184	342.47
594.532	436.95
594.88	442.05
595.228	426.73
595.576	424.18
595.924	505.89
596.272	370.56
596.62	485.46
596.968	472.69
597.316	398.65
597.664	449.71
598.011	393.54
598.359	378.22
598.706	322.04
599.054	370.56
599.402	360.35
599.749	424.18
600.096	390.99
600.444	413.97
600.791	347.58
601.138	429.29
601.485	449.71
601.833	429.29
602.18	383.33
602.527	411.41
602.874	457.37
603.221	355.24
603.568	411.41
603.914	368.01
604.261	403.75
604.608	431.84
604.955	426.73
605.301	398.65
605.648	472.69
605.995	383.33
606.341	408.86
606.688	401.2
607.034	396.09
607.38	413.97
607.727	403.75
608.073	411.41
608.419	429.29
608.765	385.88
609.112	347.58
609.458	352.69
609.804	429.29
610.15	436.95
610.496	360.35
610.842	426.73
611.187	403.75
611.533	350.13
611.879	324.6
612.225	362.9
612.57	431.84
612.916	439.5
613.261	403.75
613.607	385.88
613.952	373.11
614.298	383.33
614.643	396.09
614.989	419.07
615.334	380.77
615.679	449.71
616.024	398.65
616.369	355.24
616.714	436.95
617.059	408.86
617.404	411.41
617.749	421.63
618.094	380.77
618.439	380.77
618.784	375.67
619.129	352.69
619.473	362.9
619.818	424.18
620.163	413.97
620.507	401.2
620.852	332.26
621.196	368.01
621.54	347.58
621.885	373.11
622.229	403.75
622.573	490.57
622.918	442.05
623.262	390.99
623.606	403.75
623.95	449.71
624.294	421.63
624.638	403.75
624.982	459.93
625.326	368.01
625.67	416.52
626.013	413.97
626.357	419.07
626.701	380.77
627.044	380.77
627.388	375.67
627.731	373.11
628.075	370.56
628.418	373.11
628.762	439.5
629.105	334.81
629.448	413.97
629.792	398.65
630.135	373.11
630.478	401.2
630.821	401.2
631.164	316.94
631.507	396.09
631.85	424.18
632.193	403.75
632.536	383.33
632.879	406.31
633.221	385.88
633.564	408.86
633.907	373.11
634.249	337.37
634.592	380.77
634.935	401.2
635.277	401.2
635.619	383.33
635.962	406.31
636.304	398.65
636.646	378.22
636.989	413.97
637.331	424.18
637.673	447.16
638.015	370.56
638.357	314.38
638.699	347.58
639.041	347.58
639.383	401.2
639.725	439.5
640.067	375.67
640.408	385.88
640.75	365.45
641.092	378.22
641.433	396.09
641.775	401.2
642.116	396.09
642.458	452.27
642.799	426.73
643.141	401.2
643.482	388.43
643.823	375.67
644.164	357.79
644.506	406.31
644.847	388.43
645.188	401.2
645.529	370.56
645.87	436.95
646.211	380.77
646.552	304.17
646.893	439.5
647.233	332.26
647.574	329.7
647.915	439.5
648.255	462.48
648.596	370.56
648.937	434.39
649.277	368.01
649.618	380.77
649.958	408.86
650.298	429.29
650.639	388.43
650.979	385.88
651.319	413.97
651.659	396.09
651.999	380.77
652.339	350.13
652.679	324.6
653.019	378.22
653.359	442.05
653.699	403.75
654.039	419.07
654.379	380.77
654.719	411.41
655.058	378.22
655.398	444.61
655.737	380.77
656.077	383.33
656.416	398.65
656.756	467.59
657.095	352.69
657.435	347.58
657.774	383.33
658.113	385.88
658.452	401.2
658.792	449.71
659.131	421.63
659.47	459.93
659.809	360.35
660.148	413.97
660.487	426.73
660.826	424.18
661.164	365.45
661.503	383.33
661.842	373.11
662.181	442.05
662.519	352.69
662.858	370.56
663.196	434.39
663.535	347.58
663.873	368.01
664.212	368.01
664.55	424.18
664.888	434.39
665.226	457.37
665.565	385.88
665.903	549.3
666.241	419.07
666.579	368.01
666.917	375.67
667.255	416.52
667.593	390.99
667.931	411.41
668.268	390.99
668.606	375.67
668.944	385.88
669.282	505.89
669.619	419.07
669.957	403.75
670.294	421.63
670.632	431.84
670.969	388.43
671.307	396.09
671.644	368.01
671.981	378.22
672.318	429.29
672.656	421.63
672.993	436.95
673.33	426.73
673.667	380.77
674.004	462.48
674.341	362.9
674.678	380.77
675.015	385.88
675.351	429.29
675.688	429.29
676.025	408.86
676.362	357.79
676.698	421.63
677.035	411.41
677.371	345.03
677.708	442.05
678.044	396.09
678.38	347.58
678.717	388.43
679.053	355.24
679.389	393.54
679.725	339.92
680.062	365.45
680.398	390.99
680.734	360.35
681.07	413.97
681.406	429.29
681.742	385.88
682.077	424.18
682.413	439.5
682.749	378.22
683.085	355.24
683.42	431.84
683.756	444.61
684.091	436.95
684.427	375.67
684.762	390.99
685.098	485.46
685.433	327.15
685.768	411.41
686.104	355.24
686.439	413.97
686.774	368.01
687.109	416.52
687.444	352.69
687.779	360.35
688.114	362.9
688.449	365.45
688.784	396.09
689.119	408.86
689.454	403.75
689.789	424.18
690.123	472.69
690.458	396.09
690.792	436.95
691.127	388.43
691.461	393.54
691.796	368.01
692.13	401.2
692.465	365.45
692.799	380.77
693.133	362.9
693.467	447.16
693.802	368.01
694.136	406.31
694.47	424.18
694.804	413.97
695.138	426.73
695.472	355.24
695.806	365.45
696.139	398.65
696.473	439.5
696.807	406.31
697.141	436.95
697.474	385.88
697.808	467.59
698.141	426.73
698.475	365.45
698.808	396.09
699.142	360.35
699.475	365.45
699.808	385.88
700.142	426.73
700.475	442.05
700.808	393.54
701.141	406.31
701.474	447.16
701.807	416.52
702.14	378.22
702.473	362.9
702.806	375.67
703.139	375.67
703.472	452.27
703.804	380.77
704.137	403.75
704.47	390.99
704.802	370.56
705.135	413.97
705.467	383.33
705.8	342.47
706.132	413.97
706.464	368.01
706.797	383.33
707.129	383.33
707.461	429.29
707.793	357.79
708.125	426.73
708.457	403.75
708.789	429.29
709.121	457.37
709.453	421.63
709.785	385.88
710.117	362.9
710.449	442.05
710.781	380.77
711.112	388.43
711.444	436.95
711.775	342.47
712.107	362.9
712.438	444.61
712.77	442.05
713.101	421.63
713.433	383.33
713.764	429.29
714.095	413.97
714.426	413.97
714.757	393.54
715.089	388.43
715.42	416.52
715.751	327.15
716.082	352.69
716.412	373.11
716.743	380.77
717.074	431.84
717.405	457.37
717.736	393.54
718.066	378.22
718.397	368.01
718.727	388.43
719.058	411.41
719.388	378.22
719.719	426.73
720.049	482.91
720.38	411.41
720.71	465.03
721.04	406.31
721.37	431.84
721.7	413.97
722.031	368.01
722.361	419.07
722.691	457.37
723.021	429.29
723.35	449.71
723.68	396.09
724.01	375.67
724.34	442.05
724.67	396.09
724.999	339.92
725.329	396.09
725.658	452.27
725.988	429.29
726.317	355.24
726.647	413.97
726.976	390.99
727.306	322.04
727.635	426.73
727.964	385.88
728.293	408.86
728.622	434.39
728.952	393.54
729.281	390.99
729.61	365.45
729.939	416.52
730.267	352.69
730.596	403.75
730.925	434.39
731.254	360.35
731.583	385.88
731.911	403.75
732.24	398.65
732.568	429.29
732.897	368.01
733.225	416.52
733.554	403.75
733.882	431.84
734.21	436.95
734.539	416.52
734.867	406.31
735.195	439.5
735.523	408.86
735.851	385.88
736.179	406.31
736.507	375.67
736.835	396.09
737.163	447.16
737.491	401.2
737.819	467.59
738.147	385.88
738.474	421.63
738.802	416.52
739.13	383.33
739.457	355.24
739.785	401.2
740.112	368.01
740.44	350.13
740.767	408.86
741.094	324.6
741.422	362.9
741.749	355.24
742.076	398.65
742.403	390.99
742.73	329.7
743.057	403.75
743.384	472.69
743.711	309.28
744.038	383.33
744.365	413.97
744.692	347.58
745.018	373.11
745.345	413.97
745.672	383.33
745.998	322.04
746.325	416.52
746.651	378.22
746.978	388.43
747.304	419.07
747.631	419.07
747.957	436.95
748.283	401.2
748.61	360.35
748.936	360.35
749.262	411.41
749.588	462.48
749.914	398.65
750.24	398.65
750.566	434.39
750.892	393.54
751.218	342.47
751.543	329.7
751.869	375.67
752.195	342.47
752.521	373.11
752.846	368.01
753.172	352.69
753.497	406.31
753.823	347.58
754.148	429.29
754.473	401.2
754.799	434.39
755.124	390.99
755.449	416.52
755.774	406.31
756.1	368.01
756.425	393.54
756.75	393.54
757.075	355.24
757.4	467.59
757.724	350.13
758.049	449.71
758.374	388.43
758.699	442.05
759.024	477.8
759.348	434.39
759.673	421.63
759.997	339.92
760.322	322.04
760.646	396.09
760.971	332.26
761.295	429.29
761.619	459.93
761.944	439.5
762.268	447.16
762.592	480.35
762.916	488.01
763.24	457.37
763.564	426.73
763.888	528.87
764.212	523.76
764.536	569.72
764.86	605.47
765.184	748.46
765.508	779.1
765.831	873.57
766.155	1116.15
766.478	888.89
766.802	822.51
767.126	735.69
767.449	710.16
767.772	817.4
768.096	1044.65
768.419	1297.44
768.742	1514.47
769.066	1562.99
769.389	1534.9
769.712	1506.81
770.035	1299.99
770.358	1139.13
770.681	1054.86
771.004	1088.06
771.327	1348.5
771.65	1843.86
771.972	2134.94
772.295	2609.87
772.618	2849.89
772.941	2668.6
773.263	2374.96
773.586	1917.91
773.908	1445.53
774.231	1315.31
774.553	1420
774.875	1716.19
775.198	2357.09
775.52	2860.1
775.842	3143.53
776.164	3143.53
776.487	2929.04
776.809	2454.12
777.131	1938.33
777.453	1453.19
777.775	1320.42
778.096	1463.4
778.418	2114.52
778.74	2934.15
779.062	3993.8
779.384	5290.92
779.705	5525.83
780.027	4879.82
780.348	3978.48
780.67	3179.27
780.991	2433.69
781.313	1897.48
781.634	1851.52
781.955	2451.56
782.277	3478.02
782.598	4530.01
782.919	5650.94
783.24	6215.24
783.561	6110.55
783.882	5740.31
784.203	4887.48
784.524	3513.77
784.845	2364.75
785.166	2104.3
785.487	2428.58
785.807	3375.88
786.128	4277.23
786.449	5326.67
786.769	6697.83
787.09	7979.63
787.41	7762.59
787.731	5880.75
788.051	3983.59
788.372	2632.85
788.692	2150.26
789.012	2295.81
789.332	3072.03
789.653	4353.83
789.973	5911.39
790.293	7471.5
790.613	8592.44
790.933	9251.21
791.253	8380.51
791.573	6513.99
791.893	4484.05
792.212	3003.09
792.532	2382.62
792.852	2415.81
793.171	3005.65
793.491	4042.32
793.811	5492.64
794.13	7037.43
794.45	7558.32
794.769	7257.02
795.088	6432.28
795.408	4915.57
795.727	3582.71
796.046	2617.53
796.365	2078.77
796.684	2535.82
797.004	3794.64
797.323	5410.93
797.642	7624.71
797.96	9565.27
798.279	10811.32
798.598	10561.09
798.917	9317.6
799.236	6955.72
799.554	4667.89
799.873	2809.03
