Data from 2025-12-03_xpw_interference_micrometer_637_FLMS141361__47__697.txt Node

Date: Wed Dec 03 15:56:10 MST 2025
User: james
Spectrometer: FLMS14136
Trigger mode: 0
Integration Time (sec): 1.000000E-1
Scans to average: 1
Electric dark correction enabled: true
Nonlinearity correction enabled: false
Boxcar width: 0
XAxis mode: Wavelengths
Number of Pixels in Spectrum: 2048
>>>>>Begin Spectral Data<<<<<
339.315	-69.58
339.697	-69.58
340.079	-69.58
340.461	-59.37
340.843	-107.88
341.225	-123.2
341.607	-133.41
341.989	-110.43
342.371	-92.56
342.752	-72.13
343.134	-49.15
343.516	-79.79
343.897	-26.17
344.279	37.66
344.661	32.56
345.042	35.11
345.423	24.9
345.805	60.64
346.186	139.8
346.567	188.31
346.949	167.88
347.33	188.31
347.711	226.61
348.092	150.01
348.473	234.27
348.854	157.67
349.235	290.45
349.616	300.66
349.997	241.93
350.378	349.17
350.758	290.45
351.139	321.09
351.52	402.8
351.9	344.07
352.281	367.05
352.661	336.41
353.042	361.94
353.422	361.94
353.803	374.71
354.183	364.49
354.563	415.56
354.943	382.37
355.324	418.12
355.704	323.64
356.084	390.03
356.464	405.35
356.844	418.12
357.224	400.24
357.603	344.07
357.983	326.19
358.363	435.99
358.743	359.39
359.122	402.8
359.502	384.92
359.882	390.03
360.261	435.99
360.641	367.05
361.02	377.26
361.399	405.35
361.779	315.98
362.158	267.47
362.537	333.85
362.916	344.07
363.296	374.71
363.675	400.24
364.054	331.3
364.433	328.75
364.812	359.39
365.19	298.11
365.569	372.15
365.948	341.51
366.327	372.15
366.705	326.19
367.084	448.76
367.463	254.7
367.841	300.66
368.22	392.58
368.598	354.28
368.977	359.39
369.355	364.49
369.733	290.45
370.111	433.44
370.49	364.49
370.868	351.73
371.246	379.81
371.624	377.26
372.002	336.41
372.38	323.64
372.758	367.05
373.136	402.8
373.513	328.75
373.891	328.75
374.269	369.6
374.646	318.53
375.024	407.9
375.402	346.62
375.779	356.83
376.157	275.13
376.534	264.91
376.911	359.39
377.289	461.52
377.666	395.14
378.043	374.71
378.42	359.39
378.797	392.58
379.175	372.15
379.552	338.96
379.929	410.46
380.305	356.83
380.682	346.62
381.059	413.01
381.436	377.26
381.813	428.33
382.189	405.35
382.566	379.81
382.943	361.94
383.319	323.64
383.696	323.64
384.072	293
384.448	413.01
384.825	361.94
385.201	333.85
385.577	303.21
385.953	349.17
386.329	407.9
386.706	413.01
387.082	333.85
387.458	323.64
387.834	382.37
388.209	277.68
388.585	295.55
388.961	303.21
389.337	410.46
389.713	310.87
390.088	341.51
390.464	415.56
390.839	395.14
391.215	367.05
391.59	392.58
391.966	336.41
392.341	364.49
392.716	384.92
393.092	344.07
393.467	351.73
393.842	374.71
394.217	359.39
394.592	390.03
394.967	384.92
395.342	448.76
395.717	420.67
396.092	372.15
396.467	356.83
396.841	410.46
397.216	323.64
397.591	310.87
397.965	356.83
398.34	344.07
398.714	387.48
399.089	333.85
399.463	397.69
399.838	344.07
400.212	400.24
400.586	369.6
400.961	333.85
401.335	369.6
401.709	435.99
402.083	341.51
402.457	397.69
402.831	420.67
403.205	423.22
403.579	395.14
403.953	351.73
404.326	333.85
404.7	351.73
405.074	423.22
405.447	384.92
405.821	418.12
406.195	384.92
406.568	351.73
406.942	387.48
407.315	420.67
407.688	390.03
408.062	420.67
408.435	356.83
408.808	415.56
409.181	433.44
409.554	351.73
409.927	418.12
410.3	344.07
410.673	456.42
411.046	387.48
411.419	382.37
411.792	369.6
412.165	481.95
412.537	344.07
412.91	323.64
413.283	433.44
413.655	423.22
414.028	387.48
414.4	323.64
414.773	364.49
415.145	351.73
415.517	397.69
415.889	410.46
416.262	395.14
416.634	333.85
417.006	387.48
417.378	430.88
417.75	397.69
418.122	400.24
418.494	364.49
418.866	476.84
419.238	372.15
419.609	425.78
419.981	407.9
420.353	384.92
420.725	384.92
421.096	356.83
421.468	410.46
421.839	415.56
422.211	379.81
422.582	395.14
422.953	384.92
423.325	387.48
423.696	430.88
424.067	387.48
424.438	415.56
424.809	379.81
425.18	344.07
425.551	377.26
425.922	369.6
426.293	415.56
426.664	407.9
427.035	461.52
427.406	379.81
427.776	433.44
428.147	451.31
428.518	374.71
428.888	423.22
429.259	310.87
429.629	397.69
429.999	433.44
430.37	435.99
430.74	448.76
431.11	443.65
431.481	415.56
431.851	397.69
432.221	390.03
432.591	390.03
432.961	372.15
433.331	390.03
433.701	410.46
434.071	474.29
434.441	402.8
434.81	372.15
435.18	382.37
435.55	387.48
435.919	428.33
436.289	310.87
436.658	407.9
437.028	402.8
437.397	420.67
437.767	338.96
438.136	310.87
438.505	364.49
438.875	300.66
439.244	372.15
439.613	341.51
439.982	382.37
440.351	400.24
440.72	367.05
441.089	469.18
441.458	423.22
441.827	413.01
442.196	433.44
442.564	492.16
442.933	359.39
443.302	402.8
443.67	336.41
444.039	377.26
444.407	321.09
444.776	464.08
445.144	428.33
445.513	390.03
445.881	384.92
446.249	453.86
446.617	418.12
446.986	420.67
447.354	464.08
447.722	344.07
448.09	392.58
448.458	369.6
448.826	469.18
449.194	407.9
449.561	430.88
449.929	397.69
450.297	428.33
450.665	410.46
451.032	400.24
451.4	413.01
451.767	323.64
452.135	425.78
452.502	341.51
452.87	326.19
453.237	433.44
453.604	420.67
453.971	374.71
454.339	418.12
454.706	435.99
455.073	387.48
455.44	392.58
455.807	369.6
456.174	410.46
456.541	441.1
456.908	410.46
457.274	438.54
457.641	392.58
458.008	402.8
458.374	464.08
458.741	525.36
459.108	395.14
459.474	356.83
459.841	377.26
460.207	377.26
460.573	433.44
460.94	441.1
461.306	384.92
461.672	410.46
462.038	390.03
462.404	326.19
462.771	367.05
463.137	410.46
463.503	397.69
463.868	387.48
464.234	395.14
464.6	400.24
464.966	423.22
465.332	374.71
465.697	390.03
466.063	451.31
466.429	448.76
466.794	423.22
467.16	435.99
467.525	377.26
467.89	377.26
468.256	430.88
468.621	428.33
468.986	415.56
469.351	441.1
469.717	400.24
470.082	402.8
470.447	390.03
470.812	405.35
471.177	443.65
471.542	361.94
471.906	382.37
472.271	367.05
472.636	364.49
473.001	407.9
473.365	392.58
473.73	372.15
474.094	390.03
474.459	420.67
474.823	379.81
475.188	469.18
475.552	443.65
475.917	367.05
476.281	377.26
476.645	392.58
477.009	410.46
477.373	361.94
477.737	384.92
478.101	405.35
478.465	392.58
478.829	438.54
479.193	433.44
479.557	471.74
479.921	405.35
480.284	418.12
480.648	446.2
481.012	367.05
481.375	458.97
481.739	405.35
482.102	435.99
482.466	400.24
482.829	379.81
483.193	425.78
483.556	451.31
483.919	415.56
484.282	413.01
484.645	372.15
485.009	425.78
485.372	418.12
485.735	395.14
486.098	458.97
486.46	423.22
486.823	441.1
487.186	487.06
487.549	441.1
487.912	379.81
488.274	397.69
488.637	336.41
488.999	420.67
489.362	453.86
489.724	361.94
490.087	359.39
490.449	354.28
490.811	448.76
491.174	402.8
491.536	423.22
491.898	367.05
492.26	435.99
492.622	379.81
492.984	433.44
493.346	458.97
493.708	446.2
494.07	359.39
494.432	448.76
494.794	418.12
495.155	349.17
495.517	430.88
495.879	453.86
496.24	369.6
496.602	384.92
496.963	443.65
497.325	397.69
497.686	428.33
498.048	402.8
498.409	425.78
498.77	448.76
499.131	359.39
499.492	364.49
499.854	423.22
500.215	395.14
500.576	410.46
500.937	377.26
501.298	420.67
501.658	397.69
502.019	451.31
502.38	515.14
502.741	410.46
503.101	423.22
503.462	415.56
503.823	438.54
504.183	382.37
504.543	407.9
504.904	341.51
505.264	395.14
505.625	410.46
505.985	382.37
506.345	451.31
506.705	413.01
507.065	430.88
507.426	433.44
507.786	418.12
508.146	377.26
508.505	377.26
508.865	448.76
509.225	367.05
509.585	487.06
509.945	466.63
510.304	410.46
510.664	415.56
511.024	379.81
511.383	435.99
511.743	466.63
512.102	413.01
512.462	349.17
512.821	346.62
513.18	364.49
513.539	344.07
513.899	402.8
514.258	428.33
514.617	441.1
514.976	430.88
515.335	359.39
515.694	387.48
516.053	405.35
516.412	407.9
516.771	433.44
517.129	453.86
517.488	430.88
517.847	298.11
518.205	384.92
518.564	413.01
518.922	438.54
519.281	428.33
519.639	453.86
519.998	410.46
520.356	387.48
520.714	359.39
521.073	344.07
521.431	387.48
521.789	469.18
522.147	430.88
522.505	418.12
522.863	410.46
523.221	415.56
523.579	425.78
523.937	438.54
524.295	425.78
524.652	367.05
525.01	466.63
525.368	425.78
525.725	492.16
526.083	384.92
526.44	359.39
526.798	405.35
527.155	441.1
527.513	433.44
527.87	395.14
528.227	402.8
528.584	400.24
528.942	397.69
529.299	351.73
529.656	364.49
530.013	397.69
530.37	443.65
530.727	395.14
531.083	448.76
531.44	410.46
531.797	395.14
532.154	331.3
532.511	410.46
532.867	369.6
533.224	351.73
533.58	395.14
533.937	351.73
534.293	377.26
534.65	356.83
535.006	418.12
535.362	441.1
535.718	443.65
536.075	420.67
536.431	359.39
536.787	400.24
537.143	433.44
537.499	479.4
537.855	413.01
538.211	341.51
538.567	402.8
538.923	423.22
539.278	400.24
539.634	413.01
539.99	438.54
540.345	402.8
540.701	458.97
541.056	443.65
541.412	418.12
541.767	451.31
542.123	387.48
542.478	451.31
542.833	438.54
543.188	384.92
543.544	418.12
543.899	435.99
544.254	443.65
544.609	369.6
544.964	430.88
545.319	384.92
545.674	349.17
546.029	423.22
546.383	387.48
546.738	392.58
547.093	400.24
547.447	443.65
547.802	428.33
548.157	420.67
548.511	387.48
548.866	367.05
549.22	377.26
549.574	364.49
549.929	469.18
550.283	446.2
550.637	354.28
550.991	298.11
551.345	384.92
551.699	471.74
552.053	344.07
552.407	405.35
552.761	356.83
553.115	435.99
553.469	361.94
553.823	400.24
554.176	359.39
554.53	369.6
554.884	379.81
555.237	622.39
555.591	458.97
555.944	433.44
556.298	448.76
556.651	392.58
557.005	435.99
557.358	410.46
557.711	413.01
558.064	430.88
558.417	423.22
558.771	538.12
559.124	382.37
559.477	397.69
559.83	377.26
560.182	413.01
560.535	405.35
560.888	402.8
561.241	415.56
561.594	374.71
561.946	397.69
562.299	379.81
562.651	443.65
563.004	384.92
563.356	395.14
563.709	461.52
564.061	474.29
564.413	428.33
564.766	405.35
565.118	354.28
565.47	423.22
565.822	336.41
566.174	430.88
566.526	466.63
566.878	420.67
567.23	387.48
567.582	349.17
567.934	402.8
568.286	349.17
568.638	418.12
568.989	425.78
569.341	382.37
569.693	407.9
570.044	367.05
570.396	323.64
570.747	390.03
571.098	367.05
571.45	420.67
571.801	415.56
572.152	420.67
572.504	438.54
572.855	405.35
573.206	377.26
573.557	471.74
573.908	418.12
574.259	415.56
574.61	405.35
574.961	364.49
575.311	448.76
575.662	390.03
576.013	425.78
576.364	374.71
576.714	435.99
577.065	390.03
577.415	413.01
577.766	451.31
578.116	415.56
578.467	405.35
578.817	402.8
579.167	407.9
579.518	387.48
579.868	435.99
580.218	395.14
580.568	402.8
580.918	395.14
581.268	405.35
581.618	390.03
581.968	390.03
582.318	438.54
582.668	390.03
583.017	359.39
583.367	407.9
583.717	433.44
584.066	451.31
584.416	418.12
584.765	397.69
585.115	354.28
585.464	367.05
585.814	387.48
586.163	425.78
586.512	379.81
586.862	390.03
587.211	379.81
587.56	344.07
587.909	430.88
588.258	428.33
588.607	361.94
588.956	464.08
589.305	379.81
589.654	438.54
590.002	390.03
590.351	392.58
590.7	341.51
591.048	423.22
591.397	390.03
591.746	392.58
592.094	382.37
592.443	377.26
592.791	387.48
593.139	464.08
593.488	474.29
593.836	413.01
594.184	384.92
594.532	466.63
594.88	479.4
595.228	428.33
595.576	300.66
595.924	395.14
596.272	354.28
596.62	359.39
596.968	395.14
597.316	418.12
597.664	441.1
598.011	379.81
598.359	397.69
598.706	379.81
599.054	369.6
599.402	433.44
599.749	413.01
600.096	415.56
600.444	367.05
600.791	423.22
601.138	377.26
601.485	428.33
601.833	364.49
602.18	466.63
602.527	377.26
602.874	400.24
603.221	374.71
603.568	328.75
603.914	441.1
604.261	400.24
604.608	423.22
604.955	410.46
605.301	321.09
605.648	356.83
605.995	453.86
606.341	382.37
606.688	402.8
607.034	418.12
607.38	369.6
607.727	397.69
608.073	448.76
608.419	361.94
608.765	451.31
609.112	423.22
609.458	466.63
609.804	390.03
610.15	474.29
610.496	367.05
610.842	494.72
611.187	395.14
611.533	382.37
611.879	418.12
612.225	430.88
612.57	453.86
612.916	420.67
613.261	458.97
613.607	390.03
613.952	372.15
614.298	367.05
614.643	346.62
614.989	451.31
615.334	458.97
615.679	382.37
616.024	390.03
616.369	425.78
616.714	397.69
617.059	456.42
617.404	474.29
617.749	361.94
618.094	349.17
618.439	359.39
618.784	384.92
619.129	387.48
619.473	346.62
619.818	407.9
620.163	433.44
620.507	425.78
620.852	344.07
621.196	400.24
621.54	502.38
621.885	361.94
622.229	415.56
622.573	369.6
622.918	413.01
623.262	418.12
623.606	382.37
623.95	441.1
624.294	428.33
624.638	387.48
624.982	395.14
625.326	407.9
625.67	305.77
626.013	369.6
626.357	395.14
626.701	405.35
627.044	364.49
627.388	430.88
627.731	428.33
628.075	430.88
628.418	410.46
628.762	420.67
629.105	336.41
629.448	384.92
629.792	418.12
630.135	402.8
630.478	372.15
630.821	390.03
631.164	379.81
631.507	349.17
631.85	372.15
632.193	418.12
632.536	428.33
632.879	433.44
633.221	392.58
633.564	418.12
633.907	441.1
634.249	481.95
634.592	438.54
634.935	428.33
635.277	369.6
635.619	407.9
635.962	351.73
636.304	384.92
636.646	405.35
636.989	418.12
637.331	374.71
637.673	397.69
638.015	395.14
638.357	364.49
638.699	359.39
639.041	400.24
639.383	410.46
639.725	344.07
640.067	323.64
640.408	361.94
640.75	397.69
641.092	392.58
641.433	441.1
641.775	369.6
642.116	392.58
642.458	374.71
642.799	413.01
643.141	382.37
643.482	367.05
643.823	397.69
644.164	400.24
644.506	438.54
644.847	372.15
645.188	400.24
645.529	359.39
645.87	392.58
646.211	415.56
646.552	387.48
646.893	407.9
647.233	346.62
647.574	397.69
647.915	420.67
648.255	328.75
648.596	405.35
648.937	390.03
649.277	374.71
649.618	392.58
649.958	438.54
650.298	410.46
650.639	392.58
650.979	451.31
651.319	315.98
651.659	430.88
651.999	443.65
652.339	387.48
652.679	341.51
653.019	405.35
653.359	443.65
653.699	397.69
654.039	425.78
654.379	418.12
654.719	369.6
655.058	382.37
655.398	395.14
655.737	456.42
656.077	328.75
656.416	443.65
656.756	377.26
657.095	344.07
657.435	333.85
657.774	397.69
658.113	402.8
658.452	364.49
658.792	415.56
659.131	410.46
659.47	369.6
659.809	341.51
660.148	410.46
660.487	435.99
660.826	387.48
661.164	407.9
661.503	372.15
661.842	356.83
662.181	374.71
662.519	395.14
662.858	359.39
663.196	428.33
663.535	400.24
663.873	405.35
664.212	379.81
664.55	377.26
664.888	476.84
665.226	484.5
665.565	446.2
665.903	535.57
666.241	410.46
666.579	369.6
666.917	356.83
667.255	344.07
667.593	443.65
667.931	438.54
668.268	387.48
668.606	446.2
668.944	425.78
669.282	392.58
669.619	349.17
669.957	354.28
670.294	364.49
670.632	492.16
670.969	428.33
671.307	356.83
671.644	395.14
671.981	405.35
672.318	392.58
672.656	430.88
672.993	400.24
673.33	456.42
673.667	420.67
674.004	377.26
674.341	407.9
674.678	336.41
675.015	379.81
675.351	433.44
675.688	369.6
676.025	425.78
676.362	420.67
676.698	448.76
677.035	418.12
677.371	361.94
677.708	395.14
678.044	351.73
678.38	420.67
678.717	379.81
679.053	428.33
679.389	430.88
679.725	418.12
680.062	407.9
680.398	326.19
680.734	425.78
681.07	372.15
681.406	435.99
681.742	369.6
682.077	415.56
682.413	446.2
682.749	377.26
683.085	415.56
683.42	397.69
683.756	410.46
684.091	384.92
684.427	430.88
684.762	338.96
685.098	359.39
685.433	367.05
685.768	441.1
686.104	418.12
686.439	356.83
686.774	351.73
687.109	425.78
687.444	361.94
687.779	415.56
688.114	369.6
688.449	367.05
688.784	308.32
689.119	367.05
689.454	395.14
689.789	402.8
690.123	425.78
690.458	433.44
690.792	369.6
691.127	395.14
691.461	423.22
691.796	395.14
692.13	423.22
692.465	387.48
692.799	425.78
693.133	372.15
693.467	446.2
693.802	382.37
694.136	379.81
694.47	379.81
694.804	418.12
695.138	466.63
695.472	469.18
695.806	377.26
696.139	377.26
696.473	364.49
696.807	369.6
697.141	349.17
697.474	400.24
697.808	435.99
698.141	390.03
698.475	341.51
698.808	351.73
699.142	418.12
699.475	415.56
699.808	377.26
700.142	361.94
700.475	351.73
700.808	318.53
701.141	395.14
701.474	400.24
701.807	387.48
702.14	397.69
702.473	407.9
702.806	415.56
703.139	372.15
703.472	390.03
703.804	430.88
704.137	395.14
704.47	425.78
704.802	438.54
705.135	377.26
705.467	351.73
705.8	328.75
706.132	415.56
706.464	354.28
706.797	395.14
707.129	387.48
707.461	469.18
707.793	374.71
708.125	384.92
708.457	374.71
708.789	410.46
709.121	364.49
709.453	430.88
709.785	344.07
710.117	410.46
710.449	397.69
710.781	405.35
711.112	367.05
711.444	333.85
711.775	336.41
712.107	415.56
712.438	359.39
712.77	415.56
713.101	395.14
713.433	430.88
713.764	384.92
714.095	428.33
714.426	441.1
714.757	512.59
715.089	392.58
715.42	430.88
715.751	379.81
716.082	326.19
716.412	351.73
716.743	418.12
717.074	305.77
717.405	346.62
717.736	395.14
718.066	392.58
718.397	405.35
718.727	420.67
719.058	349.17
719.388	420.67
719.719	407.9
720.049	390.03
720.38	443.65
720.71	372.15
721.04	341.51
721.37	481.95
721.7	453.86
722.031	407.9
722.361	377.26
722.691	402.8
723.021	413.01
723.35	397.69
723.68	441.1
724.01	364.49
724.34	402.8
724.67	458.97
724.999	410.46
725.329	407.9
725.658	430.88
725.988	407.9
726.317	349.17
726.647	438.54
726.976	313.43
727.306	413.01
727.635	441.1
727.964	438.54
728.293	338.96
728.622	410.46
728.952	341.51
729.281	428.33
729.61	446.2
729.939	453.86
730.267	418.12
730.596	392.58
730.925	410.46
731.254	395.14
731.583	346.62
731.911	395.14
732.24	479.4
732.568	397.69
732.897	344.07
733.225	415.56
733.554	374.71
733.882	405.35
734.21	379.81
734.539	420.67
734.867	466.63
735.195	390.03
735.523	451.31
735.851	402.8
736.179	346.62
736.507	395.14
736.835	458.97
737.163	402.8
737.491	402.8
737.819	405.35
738.147	379.81
738.474	390.03
738.802	326.19
739.13	387.48
739.457	390.03
739.785	392.58
740.112	392.58
740.44	318.53
740.767	390.03
741.094	392.58
741.422	356.83
741.749	377.26
742.076	402.8
742.403	392.58
742.73	433.44
743.057	435.99
743.384	354.28
743.711	346.62
744.038	438.54
744.365	377.26
744.692	405.35
745.018	379.81
745.345	420.67
745.672	441.1
745.998	379.81
746.325	364.49
746.651	392.58
746.978	407.9
747.304	367.05
747.631	402.8
747.957	430.88
748.283	464.08
748.61	344.07
748.936	415.56
749.262	382.37
749.588	448.76
749.914	428.33
750.24	405.35
750.566	435.99
750.892	428.33
751.218	379.81
751.543	369.6
751.869	349.17
752.195	344.07
752.521	415.56
752.846	377.26
753.172	392.58
753.497	346.62
753.823	430.88
754.148	415.56
754.473	471.74
754.799	423.22
755.124	384.92
755.449	367.05
755.774	374.71
756.1	407.9
756.425	443.65
756.75	461.52
757.075	522.8
757.4	497.27
757.724	390.03
758.049	372.15
758.374	418.12
758.699	377.26
759.024	384.92
759.348	377.26
759.673	387.48
759.997	384.92
760.322	415.56
760.646	369.6
760.971	354.28
761.295	354.28
761.619	395.14
761.944	430.88
762.268	504.93
762.592	538.12
762.916	456.42
763.24	492.16
763.564	479.4
763.888	458.97
764.212	507.48
764.536	466.63
764.86	607.07
765.184	665.79
765.508	788.36
765.831	773.04
766.155	1140.72
766.478	984.97
766.802	821.55
767.126	770.48
767.449	737.29
767.772	762.82
768.096	1005.39
768.419	1301.58
768.742	1419.04
769.066	1613.1
769.389	1600.33
769.712	1465
770.035	1286.26
770.358	1125.4
770.681	931.34
771.004	1043.69
771.327	1265.84
771.65	1554.37
771.972	1991
772.295	2562.95
772.618	2757.01
772.941	2723.82
773.263	2246.33
773.586	1850.56
773.908	1549.26
774.231	1385.85
774.553	1299.03
774.875	1600.33
775.198	2220.8
775.52	2892.34
775.842	3065.97
776.164	3104.27
776.487	2907.66
776.809	2511.89
777.131	2016.53
777.453	1490.53
777.775	1278.6
778.096	1436.91
778.418	1937.38
778.74	2843.82
779.062	4000.5
779.384	5233.79
779.705	5512.1
780.027	4873.76
780.348	3967.31
780.67	3254.92
780.991	2465.92
781.313	1911.84
781.634	1883.75
781.955	2516.99
782.277	3357.05
782.598	4273.72
782.919	5473.8
783.24	6015.12
783.561	5923.2
783.882	5573.39
784.203	4605.66
784.524	3219.17
784.845	2366.34
785.166	1968.02
785.487	2524.65
785.807	3362.16
786.128	4222.65
786.449	5277.19
786.769	6645.8
787.09	7659.5
787.41	7378.62
787.731	5785.32
788.051	3923.9
788.372	2504.23
788.692	2049.72
789.012	2271.87
789.332	2818.29
789.653	4202.22
789.973	5575.94
790.293	7273.94
790.613	8272.31
790.933	8846.82
791.253	8022.08
791.573	6441.53
791.893	4488.2
792.212	2902.55
792.532	2282.08
792.852	2225.91
793.171	2846.38
793.491	3972.42
793.811	5330.81
794.13	6801.56
794.45	7401.6
794.769	7095.2
795.088	6431.32
795.408	5088.24
795.727	3653.25
796.046	2504.23
796.365	2019.08
796.684	2396.98
797.004	3655.8
797.323	5369.12
797.642	7465.44
797.96	9597.51
798.279	10634.18
798.598	10491.19
798.917	9480.05
799.236	7059.45
799.554	4541.82
799.873	2910.21
800.192	1796.94
