Data from 2025-12-03_xpw_interference_micrometer_637_FLMS141361__11__661.txt Node

Date: Wed Dec 03 15:56:06 MST 2025
User: james
Spectrometer: FLMS14136
Trigger mode: 0
Integration Time (sec): 1.000000E-1
Scans to average: 1
Electric dark correction enabled: true
Nonlinearity correction enabled: false
Boxcar width: 0
XAxis mode: Wavelengths
Number of Pixels in Spectrum: 2048
>>>>>Begin Spectral Data<<<<<
339.315	-47.88
339.697	-47.88
340.079	-47.88
340.461	-132.14
340.843	-139.8
341.225	-106.6
341.607	-83.62
341.989	-175.54
342.371	-52.98
342.752	-121.92
343.134	-116.82
343.516	23.62
343.897	-12.13
344.279	-42.77
344.661	84.9
345.042	21.07
345.423	46.6
345.805	141.07
346.186	130.86
346.567	153.84
346.949	110.43
347.33	158.95
347.711	176.82
348.092	202.36
348.473	289.17
348.854	243.21
349.235	266.19
349.616	255.98
349.997	319.81
350.378	296.83
350.758	304.49
351.139	289.17
351.52	304.49
351.9	378.54
352.281	309.6
352.661	314.7
353.042	322.36
353.422	319.81
353.803	355.56
354.183	327.47
354.563	330.02
354.943	368.32
355.324	342.79
355.704	386.2
356.084	355.56
356.464	414.29
356.844	360.66
357.224	388.75
357.603	350.45
357.983	396.41
358.363	439.82
358.743	404.07
359.122	391.31
359.502	353
359.882	360.66
360.261	401.52
360.641	342.79
361.02	312.15
361.399	388.75
361.779	404.07
362.158	353
362.537	347.9
362.916	363.22
363.296	401.52
363.675	419.39
364.054	347.9
364.433	381.09
364.812	281.51
365.19	347.9
365.569	340.24
365.948	330.02
366.327	358.11
366.705	240.66
367.084	350.45
367.463	368.32
367.841	398.97
368.22	421.95
368.598	393.86
368.977	383.65
369.355	421.95
369.733	396.41
370.111	353
370.49	363.22
370.868	363.22
371.246	342.79
371.624	381.09
372.002	393.86
372.38	419.39
372.758	363.22
373.136	347.9
373.513	353
373.891	414.29
374.269	330.02
374.646	353
375.024	401.52
375.402	312.15
375.779	322.36
376.157	276.4
376.534	322.36
376.911	337.68
377.289	337.68
377.666	353
378.043	375.98
378.42	404.07
378.797	391.31
379.175	375.98
379.552	383.65
379.929	381.09
380.305	383.65
380.682	429.61
381.059	370.88
381.436	368.32
381.813	337.68
382.189	404.07
382.566	375.98
382.943	373.43
383.319	421.95
383.696	381.09
384.072	363.22
384.448	406.63
384.825	301.94
385.201	378.54
385.577	383.65
385.953	342.79
386.329	411.73
386.706	358.11
387.082	391.31
387.458	393.86
387.834	404.07
388.209	393.86
388.585	406.63
388.961	378.54
389.337	353
389.713	368.32
390.088	393.86
390.464	319.81
390.839	370.88
391.215	409.18
391.59	340.24
391.966	317.26
392.341	312.15
392.716	419.39
393.092	411.73
393.467	358.11
393.842	386.2
394.217	373.43
394.592	406.63
394.967	388.75
395.342	432.16
395.717	381.09
396.092	419.39
396.467	483.23
396.841	467.91
397.216	358.11
397.591	404.07
397.965	381.09
398.34	368.32
398.714	360.66
399.089	345.34
399.463	317.26
399.838	465.35
400.212	406.63
400.586	409.18
400.961	355.56
401.335	386.2
401.709	378.54
402.083	350.45
402.457	370.88
402.831	401.52
403.205	442.37
403.579	340.24
403.953	368.32
404.326	424.5
404.7	383.65
405.074	398.97
405.447	414.29
405.821	432.16
406.195	347.9
406.568	434.71
406.942	524.08
407.315	439.82
407.688	373.43
408.062	391.31
408.435	353
408.808	424.5
409.181	457.69
409.554	393.86
409.927	353
410.3	429.61
410.673	358.11
411.046	427.05
411.419	393.86
411.792	465.35
412.165	355.56
412.537	381.09
412.91	350.45
413.283	353
413.655	342.79
414.028	391.31
414.4	383.65
414.773	353
415.145	353
415.517	373.43
415.889	414.29
416.262	393.86
416.634	378.54
417.006	322.36
417.378	439.82
417.75	393.86
418.122	404.07
418.494	330.02
418.866	398.97
419.238	386.2
419.609	419.39
419.981	388.75
420.353	353
420.725	350.45
421.096	401.52
421.468	365.77
421.839	340.24
422.211	383.65
422.582	434.71
422.953	404.07
423.325	401.52
423.696	383.65
424.067	424.5
424.438	342.79
424.809	398.97
425.18	434.71
425.551	409.18
425.922	398.97
426.293	383.65
426.664	375.98
427.035	398.97
427.406	406.63
427.776	355.56
428.147	434.71
428.518	386.2
428.888	386.2
429.259	416.84
429.629	416.84
429.999	414.29
430.37	391.31
430.74	355.56
431.11	350.45
431.481	330.02
431.851	373.43
432.221	414.29
432.591	442.37
432.961	398.97
433.331	424.5
433.701	388.75
434.071	383.65
434.441	424.5
434.81	411.73
435.18	353
435.55	355.56
435.919	383.65
436.289	419.39
436.658	455.14
437.028	424.5
437.397	396.41
437.767	353
438.136	335.13
438.505	429.61
438.875	434.71
439.244	411.73
439.613	455.14
439.982	396.41
440.351	340.24
440.72	465.35
441.089	378.54
441.458	404.07
441.827	365.77
442.196	409.18
442.564	414.29
442.933	365.77
443.302	363.22
443.67	365.77
444.039	350.45
444.407	358.11
444.776	396.41
445.144	434.71
445.513	391.31
445.881	393.86
446.249	478.12
446.617	432.16
446.986	363.22
447.354	388.75
447.722	460.25
448.09	324.92
448.458	363.22
448.826	373.43
449.194	391.31
449.561	421.95
449.929	406.63
450.297	444.93
450.665	434.71
451.032	404.07
451.4	419.39
451.767	427.05
452.135	388.75
452.502	419.39
452.87	393.86
453.237	421.95
453.604	406.63
453.971	447.48
454.339	406.63
454.706	393.86
455.073	373.43
455.44	381.09
455.807	335.13
456.174	396.41
456.541	388.75
456.908	409.18
457.274	419.39
457.641	381.09
458.008	457.69
458.374	432.16
458.741	391.31
459.108	375.98
459.474	347.9
459.841	365.77
460.207	419.39
460.573	363.22
460.94	386.2
461.306	365.77
461.672	411.73
462.038	386.2
462.404	450.03
462.771	488.33
463.137	467.91
463.503	378.54
463.868	396.41
464.234	427.05
464.6	396.41
464.966	452.59
465.332	442.37
465.697	396.41
466.063	391.31
466.429	437.27
466.794	424.5
467.16	383.65
467.525	406.63
467.89	398.97
468.256	391.31
468.621	409.18
468.986	373.43
469.351	421.95
469.717	391.31
470.082	363.22
470.447	370.88
470.812	368.32
471.177	414.29
471.542	363.22
471.906	414.29
472.271	424.5
472.636	350.45
473.001	347.9
473.365	470.46
473.73	434.71
474.094	404.07
474.459	419.39
474.823	457.69
475.188	360.66
475.552	322.36
475.917	388.75
476.281	391.31
476.645	370.88
477.009	368.32
477.373	414.29
477.737	416.84
478.101	363.22
478.465	393.86
478.829	437.27
479.193	475.57
479.557	473.01
479.921	460.25
480.284	424.5
480.648	411.73
481.012	490.89
481.375	368.32
481.739	370.88
482.102	327.47
482.466	373.43
482.829	427.05
483.193	421.95
483.556	378.54
483.919	442.37
484.282	455.14
484.645	340.24
485.009	404.07
485.372	452.59
485.735	378.54
486.098	347.9
486.46	383.65
486.823	383.65
487.186	404.07
487.549	401.52
487.912	401.52
488.274	404.07
488.637	404.07
488.999	373.43
489.362	419.39
489.724	414.29
490.087	424.5
490.449	358.11
490.811	409.18
491.174	386.2
491.536	439.82
491.898	429.61
492.26	452.59
492.622	427.05
492.984	381.09
493.346	401.52
493.708	375.98
494.07	450.03
494.432	442.37
494.794	419.39
495.155	398.97
495.517	421.95
495.879	401.52
496.24	465.35
496.602	432.16
496.963	391.31
497.325	409.18
497.686	383.65
498.048	281.51
498.409	373.43
498.77	409.18
499.131	457.69
499.492	404.07
499.854	455.14
500.215	419.39
500.576	401.52
500.937	416.84
501.298	373.43
501.658	383.65
502.019	386.2
502.38	393.86
502.741	411.73
503.101	363.22
503.462	383.65
503.823	355.56
504.183	398.97
504.543	424.5
504.904	404.07
505.264	409.18
505.625	452.59
505.985	432.16
506.345	327.47
506.705	388.75
507.065	355.56
507.426	363.22
507.786	347.9
508.146	483.23
508.505	391.31
508.865	304.49
509.225	378.54
509.585	473.01
509.945	404.07
510.304	373.43
510.664	442.37
511.024	416.84
511.383	414.29
511.743	429.61
512.102	419.39
512.462	465.35
512.821	437.27
513.18	424.5
513.539	401.52
513.899	473.01
514.258	434.71
514.617	406.63
514.976	388.75
515.335	388.75
515.694	373.43
516.053	368.32
516.412	432.16
516.771	411.73
517.129	406.63
517.488	414.29
517.847	386.2
518.205	398.97
518.564	475.57
518.922	447.48
519.281	342.79
519.639	457.69
519.998	462.8
520.356	393.86
520.714	421.95
521.073	368.32
521.431	442.37
521.789	419.39
522.147	434.71
522.505	368.32
522.863	437.27
523.221	388.75
523.579	365.77
523.937	404.07
524.295	396.41
524.652	381.09
525.01	421.95
525.368	411.73
525.725	378.54
526.083	473.01
526.44	393.86
526.798	404.07
527.155	388.75
527.513	355.56
527.87	388.75
528.227	444.93
528.584	398.97
528.942	396.41
529.299	421.95
529.656	355.56
530.013	439.82
530.37	478.12
530.727	370.88
531.083	409.18
531.44	370.88
531.797	386.2
532.154	401.52
532.511	409.18
532.867	432.16
533.224	409.18
533.58	406.63
533.937	465.35
534.293	442.37
534.65	409.18
535.006	447.48
535.362	447.48
535.718	358.11
536.075	450.03
536.431	442.37
536.787	381.09
537.143	421.95
537.499	360.66
537.855	421.95
538.211	327.47
538.567	378.54
538.923	414.29
539.278	439.82
539.634	409.18
539.99	335.13
540.345	355.56
540.701	307.04
541.056	355.56
541.412	381.09
541.767	401.52
542.123	447.48
542.478	370.88
542.833	416.84
543.188	460.25
543.544	424.5
543.899	442.37
544.254	368.32
544.609	386.2
544.964	447.48
545.319	424.5
545.674	434.71
546.029	324.92
546.383	406.63
546.738	421.95
547.093	434.71
547.447	495.99
547.802	508.76
548.157	452.59
548.511	485.78
548.866	404.07
549.22	419.39
549.574	437.27
549.929	485.78
550.283	414.29
550.637	429.61
550.991	411.73
551.345	432.16
551.699	409.18
552.053	383.65
552.407	355.56
552.761	368.32
553.115	439.82
553.469	457.69
553.823	444.93
554.176	406.63
554.53	370.88
554.884	427.05
555.237	631.32
555.591	460.25
555.944	421.95
556.298	414.29
556.651	447.48
557.005	416.84
557.358	427.05
557.711	465.35
558.064	429.61
558.417	401.52
558.771	452.59
559.124	483.23
559.477	424.5
559.83	442.37
560.182	419.39
560.535	424.5
560.888	398.97
561.241	373.43
561.594	419.39
561.946	411.73
562.299	419.39
562.651	427.05
563.004	393.86
563.356	427.05
563.709	368.32
564.061	457.69
564.413	452.59
564.766	409.18
565.118	386.2
565.47	345.34
565.822	411.73
566.174	429.61
566.526	411.73
566.878	416.84
567.23	381.09
567.582	404.07
567.934	386.2
568.286	404.07
568.638	396.41
568.989	358.11
569.341	358.11
569.693	498.55
570.044	429.61
570.396	411.73
570.747	411.73
571.098	381.09
571.45	442.37
571.801	375.98
572.152	358.11
572.504	404.07
572.855	383.65
573.206	398.97
573.557	416.84
573.908	391.31
574.259	327.47
574.61	429.61
574.961	427.05
575.311	421.95
575.662	353
576.013	391.31
576.364	386.2
576.714	381.09
577.065	398.97
577.415	353
577.766	322.36
578.116	365.77
578.467	388.75
578.817	467.91
579.167	404.07
579.518	419.39
579.868	427.05
580.218	411.73
580.568	386.2
580.918	434.71
581.268	314.7
581.618	350.45
581.968	414.29
582.318	381.09
582.668	388.75
583.017	416.84
583.367	450.03
583.717	378.54
584.066	398.97
584.416	391.31
584.765	467.91
585.115	478.12
585.464	432.16
585.814	381.09
586.163	368.32
586.512	406.63
586.862	416.84
587.211	465.35
587.56	455.14
587.909	462.8
588.258	391.31
588.607	375.98
588.956	439.82
589.305	409.18
589.654	455.14
590.002	419.39
590.351	427.05
590.7	427.05
591.048	386.2
591.397	424.5
591.746	432.16
592.094	355.56
592.443	360.66
592.791	452.59
593.139	455.14
593.488	409.18
593.836	421.95
594.184	429.61
594.532	388.75
594.88	439.82
595.228	365.77
595.576	388.75
595.924	442.37
596.272	427.05
596.62	427.05
596.968	437.27
597.316	447.48
597.664	373.43
598.011	411.73
598.359	437.27
598.706	421.95
599.054	314.7
599.402	429.61
599.749	475.57
600.096	452.59
600.444	404.07
600.791	416.84
601.138	416.84
601.485	455.14
601.833	388.75
602.18	393.86
602.527	437.27
602.874	391.31
603.221	363.22
603.568	437.27
603.914	414.29
604.261	360.66
604.608	388.75
604.955	404.07
605.301	335.13
605.648	388.75
605.995	434.71
606.341	473.01
606.688	398.97
607.034	432.16
607.38	391.31
607.727	439.82
608.073	398.97
608.419	427.05
608.765	470.46
609.112	434.71
609.458	340.24
609.804	365.77
610.15	386.2
610.496	375.98
610.842	424.5
611.187	373.43
611.533	350.45
611.879	330.02
612.225	411.73
612.57	414.29
612.916	419.39
613.261	393.86
613.607	424.5
613.952	439.82
614.298	393.86
614.643	442.37
614.989	332.58
615.334	373.43
615.679	416.84
616.024	398.97
616.369	393.86
616.714	398.97
617.059	460.25
617.404	432.16
617.749	406.63
618.094	398.97
618.439	416.84
618.784	427.05
619.129	409.18
619.473	432.16
619.818	309.6
620.163	391.31
620.507	365.77
620.852	401.52
621.196	424.5
621.54	393.86
621.885	373.43
622.229	411.73
622.573	470.46
622.918	485.78
623.262	398.97
623.606	398.97
623.95	434.71
624.294	401.52
624.638	455.14
624.982	370.88
625.326	452.59
625.67	414.29
626.013	388.75
626.357	383.65
626.701	444.93
627.044	429.61
627.388	460.25
627.731	437.27
628.075	439.82
628.418	475.57
628.762	370.88
629.105	406.63
629.448	381.09
629.792	483.23
630.135	439.82
630.478	353
630.821	416.84
631.164	373.43
631.507	383.65
631.85	406.63
632.193	388.75
632.536	411.73
632.879	353
633.221	393.86
633.564	355.56
633.907	360.66
634.249	434.71
634.592	404.07
634.935	439.82
635.277	416.84
635.619	373.43
635.962	347.9
636.304	368.32
636.646	421.95
636.989	401.52
637.331	393.86
637.673	462.8
638.015	452.59
638.357	398.97
638.699	368.32
639.041	434.71
639.383	475.57
639.725	388.75
640.067	381.09
640.408	396.41
640.75	358.11
641.092	368.32
641.433	360.66
641.775	444.93
642.116	396.41
642.458	396.41
642.799	416.84
643.141	414.29
643.482	414.29
643.823	462.8
644.164	391.31
644.506	549.61
644.847	409.18
645.188	404.07
645.529	383.65
645.87	409.18
646.211	375.98
646.552	411.73
646.893	398.97
647.233	353
647.574	411.73
647.915	386.2
648.255	393.86
648.596	386.2
648.937	409.18
649.277	429.61
649.618	411.73
649.958	419.39
650.298	345.34
650.639	335.13
650.979	375.98
651.319	347.9
651.659	442.37
651.999	396.41
652.339	355.56
652.679	381.09
653.019	396.41
653.359	424.5
653.699	447.48
654.039	411.73
654.379	383.65
654.719	355.56
655.058	332.58
655.398	401.52
655.737	465.35
656.077	388.75
656.416	370.88
656.756	429.61
657.095	296.83
657.435	373.43
657.774	401.52
658.113	419.39
658.452	432.16
658.792	340.24
659.131	337.68
659.47	363.22
659.809	360.66
660.148	393.86
660.487	444.93
660.826	498.55
661.164	398.97
661.503	388.75
661.842	363.22
662.181	322.36
662.519	330.02
662.858	391.31
663.196	427.05
663.535	450.03
663.873	393.86
664.212	358.11
664.55	373.43
664.888	411.73
665.226	345.34
665.565	383.65
665.903	626.22
666.241	414.29
666.579	455.14
666.917	391.31
667.255	353
667.593	327.47
667.931	455.14
668.268	450.03
668.606	378.54
668.944	409.18
669.282	416.84
669.619	378.54
669.957	406.63
670.294	330.02
670.632	335.13
670.969	386.2
671.307	401.52
671.644	473.01
671.981	378.54
672.318	452.59
672.656	401.52
672.993	353
673.33	404.07
673.667	396.41
674.004	393.86
674.341	424.5
674.678	393.86
675.015	368.32
675.351	411.73
675.688	409.18
676.025	414.29
676.362	388.75
676.698	360.66
677.035	434.71
677.371	411.73
677.708	358.11
678.044	442.37
678.38	332.58
678.717	332.58
679.053	419.39
679.389	370.88
679.725	404.07
680.062	434.71
680.398	388.75
680.734	340.24
681.07	358.11
681.406	465.35
681.742	424.5
682.077	406.63
682.413	368.32
682.749	442.37
683.085	460.25
683.42	511.31
683.756	406.63
684.091	416.84
684.427	414.29
684.762	457.69
685.098	375.98
685.433	442.37
685.768	370.88
686.104	368.32
686.439	386.2
686.774	421.95
687.109	404.07
687.444	409.18
687.779	437.27
688.114	401.52
688.449	429.61
688.784	378.54
689.119	350.45
689.454	391.31
689.789	419.39
690.123	442.37
690.458	401.52
690.792	434.71
691.127	409.18
691.461	381.09
691.796	388.75
692.13	373.43
692.465	312.15
692.799	421.95
693.133	368.32
693.467	483.23
693.802	398.97
694.136	455.14
694.47	358.11
694.804	360.66
695.138	409.18
695.472	462.8
695.806	424.5
696.139	452.59
696.473	414.29
696.807	427.05
697.141	363.22
697.474	393.86
697.808	404.07
698.141	398.97
698.475	365.77
698.808	373.43
699.142	398.97
699.475	337.68
699.808	421.95
700.142	335.13
700.475	358.11
700.808	391.31
701.141	447.48
701.474	450.03
701.807	386.2
702.14	416.84
702.473	358.11
702.806	447.48
703.139	411.73
703.472	375.98
703.804	391.31
704.137	416.84
704.47	350.45
704.802	383.65
705.135	416.84
705.467	439.82
705.8	284.06
706.132	363.22
706.464	434.71
706.797	401.52
707.129	370.88
707.461	350.45
707.793	342.79
708.125	342.79
708.457	393.86
708.789	363.22
709.121	419.39
709.453	332.58
709.785	383.65
710.117	393.86
710.449	409.18
710.781	360.66
711.112	358.11
711.444	368.32
711.775	409.18
712.107	360.66
712.438	363.22
712.77	406.63
713.101	396.41
713.433	396.41
713.764	439.82
714.095	388.75
714.426	421.95
714.757	289.17
715.089	309.6
715.42	370.88
715.751	330.02
716.082	383.65
716.412	368.32
716.743	414.29
717.074	373.43
717.405	470.46
717.736	378.54
718.066	370.88
718.397	388.75
718.727	434.71
719.058	416.84
719.388	416.84
719.719	429.61
720.049	309.6
720.38	378.54
720.71	416.84
721.04	401.52
721.37	432.16
721.7	388.75
722.031	365.77
722.361	386.2
722.691	424.5
723.021	414.29
723.35	391.31
723.68	324.92
724.01	391.31
724.34	424.5
724.67	414.29
724.999	398.97
725.329	381.09
725.658	434.71
725.988	398.97
726.317	409.18
726.647	421.95
726.976	398.97
727.306	419.39
727.635	411.73
727.964	432.16
728.293	393.86
728.622	406.63
728.952	319.81
729.281	368.32
729.61	419.39
729.939	450.03
730.267	437.27
730.596	398.97
730.925	304.49
731.254	360.66
731.583	401.52
731.911	416.84
732.24	365.77
732.568	381.09
732.897	393.86
733.225	414.29
733.554	365.77
733.882	350.45
734.21	373.43
734.539	393.86
734.867	414.29
735.195	345.34
735.523	358.11
735.851	347.9
736.179	393.86
736.507	347.9
736.835	421.95
737.163	406.63
737.491	411.73
737.819	353
738.147	360.66
738.474	388.75
738.802	488.33
739.13	404.07
739.457	409.18
739.785	404.07
740.112	406.63
740.44	406.63
740.767	388.75
741.094	421.95
741.422	373.43
741.749	396.41
742.076	360.66
742.403	345.34
742.73	409.18
743.057	398.97
743.384	365.77
743.711	414.29
744.038	386.2
744.365	488.33
744.692	386.2
745.018	319.81
745.345	388.75
745.672	365.77
745.998	345.34
746.325	391.31
746.651	342.79
746.978	396.41
747.304	345.34
747.631	340.24
747.957	378.54
748.283	307.04
748.61	355.56
748.936	370.88
749.262	404.07
749.588	427.05
749.914	360.66
750.24	437.27
750.566	455.14
750.892	409.18
751.218	401.52
751.543	373.43
751.869	396.41
752.195	398.97
752.521	432.16
752.846	434.71
753.172	409.18
753.497	437.27
753.823	386.2
754.148	414.29
754.473	358.11
754.799	350.45
755.124	391.31
755.449	421.95
755.774	368.32
756.1	416.84
756.425	368.32
756.75	424.5
757.075	383.65
757.4	529.19
757.724	427.05
758.049	396.41
758.374	429.61
758.699	424.5
759.024	370.88
759.348	386.2
759.673	411.73
759.997	447.48
760.322	444.93
760.646	419.39
760.971	375.98
761.295	409.18
761.619	391.31
761.944	409.18
762.268	524.08
762.592	518.97
762.916	508.76
763.24	470.46
763.564	457.69
763.888	470.46
764.212	488.33
764.536	513.87
764.86	559.83
765.184	733.46
765.508	901.98
765.831	825.38
766.155	1062.84
766.478	963.26
766.802	830.49
767.126	715.58
767.449	702.82
767.772	866.23
768.096	1037.31
768.419	1307.97
768.742	1427.98
769.066	1657.78
769.389	1673.1
769.712	1532.67
770.035	1300.31
770.358	1080.72
770.681	1006.67
771.004	1055.18
771.327	1279.88
771.65	1675.65
771.972	2168.46
772.295	2528.48
772.618	2855.31
772.941	2742.97
773.263	2301.23
773.586	1956.53
773.908	1563.31
774.231	1405
774.553	1369.25
774.875	1685.87
775.198	2206.76
775.52	2903.83
775.842	3263.86
776.164	3128.53
776.487	3046.82
776.809	2505.5
777.131	1997.38
777.453	1456.06
777.775	1267.11
778.096	1415.21
778.418	2125.05
778.74	3054.48
779.062	4132
779.384	5263.15
779.705	5669.14
780.027	4977.17
780.348	3986.46
780.67	3171.93
780.991	2451.88
781.313	1923.33
781.634	2022.91
781.955	2548.91
782.277	3401.74
782.598	4389.9
782.919	5669.14
783.24	6095.55
783.561	5888.73
783.882	5804.47
784.203	4762.69
784.524	3363.44
784.845	2428.9
785.166	2068.87
785.487	2421.24
785.807	3386.42
786.128	4244.35
786.449	5176.34
786.769	6746.66
787.09	7714.39
787.41	7441.18
787.731	5709.99
788.051	3940.5
788.372	2610.19
788.692	1961.63
789.012	2349.75
789.332	2960
789.653	4241.8
789.973	5679.35
790.293	7489.7
790.613	8373.16
790.933	9098.32
791.253	8406.36
791.573	6590.91
791.893	4433.3
792.212	2893.62
792.532	2224.63
792.852	2234.84
793.171	2967.66
793.491	3996.67
793.811	5408.69
794.13	6989.23
794.45	7270.11
794.769	7109.24
795.088	6414.72
795.408	4898.02
795.727	3549.83
796.046	2485.08
796.365	1969.29
796.684	2510.61
797.004	3651.97
797.323	5403.59
797.642	7660.77
797.96	9532.4
798.279	10528.22
798.598	10459.27
798.917	9113.64
799.236	6841.14
799.554	4668.21
799.873	2822.12
800.192	1902.9
800.51	1624.59
800.829	1948.87
