Data from 2025-12-03_xpw_interference_micrometer_637_FLMS141361__82__732.txt Node

Date: Wed Dec 03 15:56:13 MST 2025
User: james
Spectrometer: FLMS14136
Trigger mode: 0
Integration Time (sec): 1.000000E-1
Scans to average: 1
Electric dark correction enabled: true
Nonlinearity correction enabled: false
Boxcar width: 0
XAxis mode: Wavelengths
Number of Pixels in Spectrum: 2048
>>>>>Begin Spectral Data<<<<<
339.315	13.41
339.697	13.41
340.079	13.41
340.461	-88.73
340.843	-40.22
341.225	-91.28
341.607	-147.46
341.989	-98.94
342.371	-142.35
342.752	-60.64
343.134	-70.86
343.516	-37.66
343.897	-4.47
344.279	31.28
344.661	-30
345.042	77.24
345.423	61.92
345.805	110.43
346.186	138.52
346.567	102.77
346.949	161.5
347.33	112.99
347.711	227.89
348.092	268.74
348.473	255.98
348.854	222.78
349.235	301.94
349.616	317.26
349.997	368.32
350.378	393.86
350.758	365.77
351.139	391.31
351.52	393.86
351.9	424.5
352.281	421.95
352.661	416.84
353.042	393.86
353.422	396.41
353.803	427.05
354.183	388.75
354.563	447.48
354.943	396.41
355.324	386.2
355.704	421.95
356.084	475.57
356.464	421.95
356.844	437.27
357.224	391.31
357.603	388.75
357.983	427.05
358.363	439.82
358.743	406.63
359.122	388.75
359.502	363.22
359.882	427.05
360.261	373.43
360.641	447.48
361.02	373.43
361.399	386.2
361.779	401.52
362.158	447.48
362.537	401.52
362.916	396.41
363.296	437.27
363.675	337.68
364.054	360.66
364.433	414.29
364.812	401.52
365.19	370.88
365.569	337.68
365.948	363.22
366.327	375.98
366.705	373.43
367.084	337.68
367.463	327.47
367.841	391.31
368.22	375.98
368.598	401.52
368.977	342.79
369.355	363.22
369.733	414.29
370.111	381.09
370.49	383.65
370.868	401.52
371.246	421.95
371.624	427.05
372.002	383.65
372.38	432.16
372.758	393.86
373.136	332.58
373.513	386.2
373.891	360.66
374.269	388.75
374.646	411.73
375.024	432.16
375.402	421.95
375.779	388.75
376.157	409.18
376.534	460.25
376.911	414.29
377.289	409.18
377.666	424.5
378.043	368.32
378.42	398.97
378.797	416.84
379.175	337.68
379.552	355.56
379.929	404.07
380.305	419.39
380.682	427.05
381.059	424.5
381.436	406.63
381.813	401.52
382.189	347.9
382.566	401.52
382.943	442.37
383.319	375.98
383.696	424.5
384.072	383.65
384.448	373.43
384.825	393.86
385.201	493.44
385.577	375.98
385.953	370.88
386.329	381.09
386.706	427.05
387.082	455.14
387.458	447.48
387.834	450.03
388.209	455.14
388.585	457.69
388.961	427.05
389.337	375.98
389.713	388.75
390.088	421.95
390.464	370.88
390.839	442.37
391.215	406.63
391.59	388.75
391.966	470.46
392.341	388.75
392.716	383.65
393.092	386.2
393.467	358.11
393.842	383.65
394.217	429.61
394.592	386.2
394.967	386.2
395.342	409.18
395.717	381.09
396.092	409.18
396.467	396.41
396.841	427.05
397.216	470.46
397.591	414.29
397.965	429.61
398.34	401.52
398.714	370.88
399.089	404.07
399.463	350.45
399.838	363.22
400.212	444.93
400.586	490.89
400.961	391.31
401.335	419.39
401.709	406.63
402.083	437.27
402.457	439.82
402.831	368.32
403.205	404.07
403.579	406.63
403.953	330.02
404.326	337.68
404.7	439.82
405.074	370.88
405.447	488.33
405.821	434.71
406.195	398.97
406.568	363.22
406.942	419.39
407.315	401.52
407.688	437.27
408.062	398.97
408.435	365.77
408.808	373.43
409.181	409.18
409.554	432.16
409.927	378.54
410.3	411.73
410.673	386.2
411.046	388.75
411.419	495.99
411.792	439.82
412.165	455.14
412.537	401.52
412.91	409.18
413.283	355.56
413.655	429.61
414.028	432.16
414.4	465.35
414.773	434.71
415.145	340.24
415.517	393.86
415.889	485.78
416.262	437.27
416.634	421.95
417.006	414.29
417.378	406.63
417.75	421.95
418.122	462.8
418.494	485.78
418.866	360.66
419.238	386.2
419.609	470.46
419.981	409.18
420.353	452.59
420.725	327.47
421.096	386.2
421.468	383.65
421.839	424.5
422.211	414.29
422.582	404.07
422.953	370.88
423.325	427.05
423.696	396.41
424.067	427.05
424.438	421.95
424.809	439.82
425.18	396.41
425.551	427.05
425.922	365.77
426.293	358.11
426.664	495.99
427.035	406.63
427.406	452.59
427.776	452.59
428.147	383.65
428.518	370.88
428.888	447.48
429.259	470.46
429.629	429.61
429.999	473.01
430.37	444.93
430.74	375.98
431.11	419.39
431.481	434.71
431.851	383.65
432.221	432.16
432.591	473.01
432.961	398.97
433.331	457.69
433.701	442.37
434.071	388.75
434.441	429.61
434.81	342.79
435.18	375.98
435.55	444.93
435.919	450.03
436.289	424.5
436.658	437.27
437.028	432.16
437.397	421.95
437.767	444.93
438.136	432.16
438.505	421.95
438.875	450.03
439.244	485.78
439.613	488.33
439.982	414.29
440.351	404.07
440.72	470.46
441.089	452.59
441.458	442.37
441.827	427.05
442.196	437.27
442.564	521.53
442.933	439.82
443.302	388.75
443.67	421.95
444.039	421.95
444.407	506.21
444.776	455.14
445.144	424.5
445.513	450.03
445.881	475.57
446.249	416.84
446.617	437.27
446.986	421.95
447.354	429.61
447.722	442.37
448.09	381.09
448.458	406.63
448.826	552.17
449.194	460.25
449.561	409.18
449.929	419.39
450.297	421.95
450.665	404.07
451.032	398.97
451.4	419.39
451.767	424.5
452.135	424.5
452.502	473.01
452.87	439.82
453.237	460.25
453.604	421.95
453.971	386.2
454.339	383.65
454.706	388.75
455.073	409.18
455.44	388.75
455.807	462.8
456.174	447.48
456.541	409.18
456.908	404.07
457.274	444.93
457.641	388.75
458.008	478.12
458.374	424.5
458.741	401.52
459.108	518.97
459.474	434.71
459.841	447.48
460.207	421.95
460.573	393.86
460.94	401.52
461.306	381.09
461.672	447.48
462.038	480.67
462.404	411.73
462.771	444.93
463.137	450.03
463.503	411.73
463.868	424.5
464.234	409.18
464.6	375.98
464.966	388.75
465.332	404.07
465.697	467.91
466.063	434.71
466.429	386.2
466.794	444.93
467.16	437.27
467.525	467.91
467.89	462.8
468.256	421.95
468.621	375.98
468.986	442.37
469.351	406.63
469.717	424.5
470.082	465.35
470.447	457.69
470.812	363.22
471.177	386.2
471.542	478.12
471.906	416.84
472.271	396.41
472.636	493.44
473.001	473.01
473.365	503.65
473.73	457.69
474.094	473.01
474.459	373.43
474.823	455.14
475.188	424.5
475.552	467.91
475.917	470.46
476.281	503.65
476.645	467.91
477.009	406.63
477.373	432.16
477.737	434.71
478.101	480.67
478.465	457.69
478.829	437.27
479.193	404.07
479.557	406.63
479.921	332.58
480.284	467.91
480.648	391.31
481.012	452.59
481.375	421.95
481.739	391.31
482.102	447.48
482.466	419.39
482.829	424.5
483.193	429.61
483.556	404.07
483.919	401.52
484.282	439.82
484.645	427.05
485.009	470.46
485.372	437.27
485.735	424.5
486.098	409.18
486.46	462.8
486.823	393.86
487.186	381.09
487.549	396.41
487.912	424.5
488.274	373.43
488.637	401.52
488.999	450.03
489.362	452.59
489.724	386.2
490.087	411.73
490.449	393.86
490.811	450.03
491.174	460.25
491.536	452.59
491.898	480.67
492.26	406.63
492.622	353
492.984	465.35
493.346	460.25
493.708	455.14
494.07	427.05
494.432	360.66
494.794	375.98
495.155	404.07
495.517	483.23
495.879	365.77
496.24	429.61
496.602	473.01
496.963	442.37
497.325	429.61
497.686	411.73
498.048	434.71
498.409	388.75
498.77	450.03
499.131	455.14
499.492	398.97
499.854	427.05
500.215	439.82
500.576	409.18
500.937	473.01
501.298	439.82
501.658	457.69
502.019	383.65
502.38	455.14
502.741	414.29
503.101	444.93
503.462	427.05
503.823	437.27
504.183	452.59
504.543	406.63
504.904	452.59
505.264	447.48
505.625	447.48
505.985	419.39
506.345	396.41
506.705	475.57
507.065	447.48
507.426	365.77
507.786	460.25
508.146	452.59
508.505	437.27
508.865	493.44
509.225	457.69
509.585	521.53
509.945	388.75
510.304	432.16
510.664	465.35
511.024	457.69
511.383	404.07
511.743	434.71
512.102	460.25
512.462	478.12
512.821	432.16
513.18	370.88
513.539	416.84
513.899	434.71
514.258	457.69
514.617	363.22
514.976	429.61
515.335	427.05
515.694	524.08
516.053	483.23
516.412	457.69
516.771	465.35
517.129	462.8
517.488	429.61
517.847	363.22
518.205	452.59
518.564	421.95
518.922	450.03
519.281	398.97
519.639	386.2
519.998	388.75
520.356	414.29
520.714	450.03
521.073	455.14
521.431	467.91
521.789	470.46
522.147	473.01
522.505	424.5
522.863	411.73
523.221	396.41
523.579	429.61
523.937	455.14
524.295	406.63
524.652	450.03
525.01	396.41
525.368	552.17
525.725	467.91
526.083	498.55
526.44	475.57
526.798	452.59
527.155	455.14
527.513	493.44
527.87	467.91
528.227	432.16
528.584	470.46
528.942	401.52
529.299	465.35
529.656	467.91
530.013	480.67
530.37	414.29
530.727	444.93
531.083	442.37
531.44	513.87
531.797	368.32
532.154	406.63
532.511	488.33
532.867	465.35
533.224	470.46
533.58	378.54
533.937	447.48
534.293	462.8
534.65	411.73
535.006	414.29
535.362	450.03
535.718	462.8
536.075	501.1
536.431	465.35
536.787	421.95
537.143	460.25
537.499	450.03
537.855	434.71
538.211	437.27
538.567	506.21
538.923	455.14
539.278	409.18
539.634	370.88
539.99	421.95
540.345	381.09
540.701	452.59
541.056	368.32
541.412	439.82
541.767	383.65
542.123	424.5
542.478	444.93
542.833	383.65
543.188	414.29
543.544	355.56
543.899	452.59
544.254	462.8
544.609	457.69
544.964	447.48
545.319	421.95
545.674	450.03
546.029	470.46
546.383	370.88
546.738	437.27
547.093	368.32
547.447	450.03
547.802	450.03
548.157	434.71
548.511	457.69
548.866	404.07
549.22	495.99
549.574	450.03
549.929	401.52
550.283	442.37
550.637	427.05
550.991	447.48
551.345	475.57
551.699	450.03
552.053	429.61
552.407	406.63
552.761	503.65
553.115	467.91
553.469	470.46
553.823	439.82
554.176	447.48
554.53	419.39
554.884	416.84
555.237	638.98
555.591	460.25
555.944	493.44
556.298	450.03
556.651	442.37
557.005	467.91
557.358	480.67
557.711	511.31
558.064	460.25
558.417	439.82
558.771	524.08
559.124	460.25
559.477	531.74
559.83	378.54
560.182	475.57
560.535	404.07
560.888	511.31
561.241	470.46
561.594	414.29
561.946	498.55
562.299	386.2
562.651	388.75
563.004	393.86
563.356	457.69
563.709	513.87
564.061	442.37
564.413	455.14
564.766	381.09
565.118	416.84
565.47	455.14
565.822	398.97
566.174	467.91
566.526	424.5
566.878	437.27
567.23	447.48
567.582	393.86
567.934	401.52
568.286	421.95
568.638	375.98
568.989	473.01
569.341	447.48
569.693	429.61
570.044	429.61
570.396	452.59
570.747	383.65
571.098	406.63
571.45	485.78
571.801	409.18
572.152	444.93
572.504	416.84
572.855	442.37
573.206	447.48
573.557	424.5
573.908	416.84
574.259	416.84
574.61	450.03
574.961	467.91
575.311	478.12
575.662	503.65
576.013	370.88
576.364	455.14
576.714	447.48
577.065	452.59
577.415	368.32
577.766	414.29
578.116	452.59
578.467	432.16
578.817	398.97
579.167	511.31
579.518	473.01
579.868	444.93
580.218	465.35
580.568	434.71
580.918	404.07
581.268	506.21
581.618	483.23
581.968	508.76
582.318	452.59
582.668	416.84
583.017	437.27
583.367	506.21
583.717	401.52
584.066	414.29
584.416	391.31
584.765	488.33
585.115	391.31
585.464	444.93
585.814	447.48
586.163	506.21
586.512	442.37
586.862	424.5
587.211	427.05
587.56	462.8
587.909	483.23
588.258	450.03
588.607	437.27
588.956	498.55
589.305	358.11
589.654	434.71
590.002	419.39
590.351	411.73
590.7	488.33
591.048	439.82
591.397	411.73
591.746	373.43
592.094	460.25
592.443	432.16
592.791	450.03
593.139	490.89
593.488	508.76
593.836	460.25
594.184	388.75
594.532	455.14
594.88	536.85
595.228	427.05
595.576	398.97
595.924	470.46
596.272	493.44
596.62	432.16
596.968	355.56
597.316	414.29
597.664	450.03
598.011	424.5
598.359	353
598.706	427.05
599.054	437.27
599.402	434.71
599.749	416.84
600.096	488.33
600.444	360.66
600.791	457.69
601.138	391.31
601.485	406.63
601.833	437.27
602.18	455.14
602.527	370.88
602.874	439.82
603.221	462.8
603.568	462.8
603.914	411.73
604.261	455.14
604.608	490.89
604.955	460.25
605.301	495.99
605.648	475.57
605.995	467.91
606.341	450.03
606.688	455.14
607.034	437.27
607.38	478.12
607.727	416.84
608.073	409.18
608.419	457.69
608.765	411.73
609.112	421.95
609.458	467.91
609.804	439.82
610.15	432.16
610.496	470.46
610.842	501.1
611.187	427.05
611.533	434.71
611.879	398.97
612.225	414.29
612.57	444.93
612.916	437.27
613.261	391.31
613.607	460.25
613.952	442.37
614.298	478.12
614.643	437.27
614.989	409.18
615.334	465.35
615.679	409.18
616.024	427.05
616.369	421.95
616.714	393.86
617.059	488.33
617.404	393.86
617.749	406.63
618.094	460.25
618.439	447.48
618.784	401.52
619.129	401.52
619.473	427.05
619.818	434.71
620.163	518.97
620.507	409.18
620.852	419.39
621.196	432.16
621.54	370.88
621.885	462.8
622.229	511.31
622.573	383.65
622.918	455.14
623.262	501.1
623.606	429.61
623.95	398.97
624.294	432.16
624.638	457.69
624.982	450.03
625.326	444.93
625.67	480.67
626.013	455.14
626.357	442.37
626.701	404.07
627.044	457.69
627.388	470.46
627.731	442.37
628.075	429.61
628.418	432.16
628.762	421.95
629.105	444.93
629.448	465.35
629.792	465.35
630.135	429.61
630.478	480.67
630.821	396.41
631.164	411.73
631.507	421.95
631.85	485.78
632.193	480.67
632.536	478.12
632.879	439.82
633.221	439.82
633.564	442.37
633.907	388.75
634.249	462.8
634.592	485.78
634.935	444.93
635.277	460.25
635.619	439.82
635.962	506.21
636.304	416.84
636.646	401.52
636.989	419.39
637.331	429.61
637.673	411.73
638.015	432.16
638.357	465.35
638.699	495.99
639.041	393.86
639.383	383.65
639.725	455.14
640.067	411.73
640.408	473.01
640.75	416.84
641.092	401.52
641.433	467.91
641.775	424.5
642.116	398.97
642.458	452.59
642.799	444.93
643.141	401.52
643.482	457.69
643.823	470.46
644.164	465.35
644.506	452.59
644.847	398.97
645.188	457.69
645.529	414.29
645.87	411.73
646.211	439.82
646.552	450.03
646.893	447.48
647.233	416.84
647.574	378.54
647.915	450.03
648.255	414.29
648.596	437.27
648.937	421.95
649.277	455.14
649.618	444.93
649.958	411.73
650.298	437.27
650.639	455.14
650.979	432.16
651.319	391.31
651.659	439.82
651.999	411.73
652.339	396.41
652.679	465.35
653.019	409.18
653.359	414.29
653.699	409.18
654.039	401.52
654.379	401.52
654.719	409.18
655.058	416.84
655.398	429.61
655.737	516.42
656.077	429.61
656.416	393.86
656.756	447.48
657.095	414.29
657.435	539.4
657.774	424.5
658.113	457.69
658.452	375.98
658.792	452.59
659.131	442.37
659.47	457.69
659.809	473.01
660.148	421.95
660.487	404.07
660.826	444.93
661.164	411.73
661.503	434.71
661.842	419.39
662.181	375.98
662.519	503.65
662.858	475.57
663.196	391.31
663.535	409.18
663.873	473.01
664.212	475.57
664.55	391.31
664.888	434.71
665.226	424.5
665.565	455.14
665.903	692.6
666.241	429.61
666.579	473.01
666.917	396.41
667.255	386.2
667.593	488.33
667.931	424.5
668.268	480.67
668.606	447.48
668.944	488.33
669.282	452.59
669.619	421.95
669.957	439.82
670.294	483.23
670.632	411.73
670.969	404.07
671.307	439.82
671.644	419.39
671.981	444.93
672.318	460.25
672.656	427.05
672.993	429.61
673.33	424.5
673.667	411.73
674.004	460.25
674.341	427.05
674.678	460.25
675.015	421.95
675.351	383.65
675.688	409.18
676.025	467.91
676.362	444.93
676.698	424.5
677.035	503.65
677.371	439.82
677.708	406.63
678.044	416.84
678.38	421.95
678.717	444.93
679.053	434.71
679.389	427.05
679.725	427.05
680.062	429.61
680.398	432.16
680.734	442.37
681.07	452.59
681.406	386.2
681.742	424.5
682.077	383.65
682.413	455.14
682.749	404.07
683.085	427.05
683.42	381.09
683.756	457.69
684.091	411.73
684.427	432.16
684.762	432.16
685.098	455.14
685.433	442.37
685.768	475.57
686.104	485.78
686.439	373.43
686.774	421.95
687.109	424.5
687.444	483.23
687.779	462.8
688.114	473.01
688.449	414.29
688.784	452.59
689.119	388.75
689.454	388.75
689.789	373.43
690.123	386.2
690.458	465.35
690.792	409.18
691.127	383.65
691.461	401.52
691.796	447.48
692.13	421.95
692.465	419.39
692.799	467.91
693.133	439.82
693.467	457.69
693.802	501.1
694.136	409.18
694.47	375.98
694.804	439.82
695.138	406.63
695.472	419.39
695.806	429.61
696.139	518.97
696.473	404.07
696.807	370.88
697.141	409.18
697.474	398.97
697.808	442.37
698.141	411.73
698.475	383.65
698.808	419.39
699.142	419.39
699.475	460.25
699.808	434.71
700.142	365.77
700.475	393.86
700.808	409.18
701.141	470.46
701.474	427.05
701.807	406.63
702.14	406.63
702.473	480.67
702.806	439.82
703.139	396.41
703.472	478.12
703.804	432.16
704.137	465.35
704.47	490.89
704.802	462.8
705.135	416.84
705.467	404.07
705.8	370.88
706.132	393.86
706.464	434.71
706.797	421.95
707.129	432.16
707.461	450.03
707.793	462.8
708.125	401.52
708.457	398.97
708.789	404.07
709.121	439.82
709.453	460.25
709.785	409.18
710.117	460.25
710.449	427.05
710.781	378.54
711.112	455.14
711.444	414.29
711.775	470.46
712.107	447.48
712.438	404.07
712.77	462.8
713.101	447.48
713.433	434.71
713.764	375.98
714.095	375.98
714.426	480.67
714.757	381.09
715.089	488.33
715.42	416.84
715.751	457.69
716.082	409.18
716.412	383.65
716.743	416.84
717.074	442.37
717.405	416.84
717.736	388.75
718.066	345.34
718.397	411.73
718.727	363.22
719.058	406.63
719.388	363.22
719.719	355.56
720.049	444.93
720.38	437.27
720.71	447.48
721.04	401.52
721.37	386.2
721.7	411.73
722.031	483.23
722.361	396.41
722.691	429.61
723.021	401.52
723.35	429.61
723.68	465.35
724.01	498.55
724.34	383.65
724.67	475.57
724.999	460.25
725.329	462.8
725.658	503.65
725.988	401.52
726.317	457.69
726.647	419.39
726.976	404.07
727.306	444.93
727.635	404.07
727.964	437.27
728.293	429.61
728.622	396.41
728.952	401.52
729.281	437.27
729.61	375.98
729.939	455.14
730.267	488.33
730.596	521.53
730.925	442.37
731.254	421.95
731.583	473.01
731.911	457.69
732.24	419.39
732.568	398.97
732.897	388.75
733.225	444.93
733.554	350.45
733.882	363.22
734.21	409.18
734.539	404.07
734.867	391.31
735.195	383.65
735.523	391.31
735.851	393.86
736.179	411.73
736.507	460.25
736.835	406.63
737.163	450.03
737.491	447.48
737.819	388.75
738.147	460.25
738.474	411.73
738.802	414.29
739.13	411.73
739.457	444.93
739.785	414.29
740.112	358.11
740.44	411.73
740.767	424.5
741.094	421.95
741.422	360.66
741.749	409.18
742.076	419.39
742.403	432.16
742.73	480.67
743.057	388.75
743.384	398.97
743.711	383.65
744.038	404.07
744.365	495.99
744.692	378.54
745.018	460.25
745.345	457.69
745.672	421.95
745.998	432.16
746.325	444.93
746.651	378.54
746.978	427.05
747.304	455.14
747.631	388.75
747.957	396.41
748.283	465.35
748.61	447.48
748.936	370.88
749.262	404.07
749.588	375.98
749.914	406.63
750.24	437.27
750.566	424.5
750.892	421.95
751.218	381.09
751.543	391.31
751.869	401.52
752.195	432.16
752.521	373.43
752.846	434.71
753.172	455.14
753.497	424.5
753.823	404.07
754.148	432.16
754.473	375.98
754.799	355.56
755.124	386.2
755.449	386.2
755.774	470.46
756.1	452.59
756.425	427.05
756.75	437.27
757.075	442.37
757.4	526.63
757.724	444.93
758.049	462.8
758.374	442.37
758.699	409.18
759.024	457.69
759.348	427.05
759.673	409.18
759.997	511.31
760.322	460.25
760.646	529.19
760.971	508.76
761.295	439.82
761.619	414.29
761.944	455.14
762.268	473.01
762.592	529.19
762.916	562.38
763.24	513.87
763.564	437.27
763.888	460.25
764.212	559.83
764.536	577.7
764.86	577.7
765.184	692.6
765.508	807.51
765.831	850.91
766.155	1167.53
766.478	1024.54
766.802	866.23
767.126	736.01
767.449	684.94
767.772	817.72
768.096	1113.91
768.419	1223.71
768.742	1415.21
769.066	1486.7
769.389	1517.34
769.712	1466.28
770.035	1320.73
770.358	1080.72
770.681	947.94
771.004	1111.36
771.327	1341.16
771.65	1670.55
771.972	2127.6
772.295	2541.25
772.618	2771.05
772.941	2707.22
773.263	2280.8
773.586	1742.04
773.908	1473.94
774.231	1313.07
774.553	1364.14
774.875	1685.87
775.198	2255.27
775.52	2860.42
775.842	3026.39
776.164	3189.81
776.487	2855.31
776.809	2449.33
777.131	1828.86
777.453	1405
777.775	1210.94
778.096	1473.94
778.418	1964.19
778.74	2926.81
779.062	3955.82
779.384	5212.08
779.705	5464.87
780.027	4785.67
780.348	3874.11
780.67	3054.48
780.991	2283.36
781.313	1859.5
781.634	1846.73
781.955	2508.06
782.277	3294.5
782.598	4292.87
782.919	5449.55
783.24	5692.12
783.561	5712.54
783.882	5344.86
784.203	4428.2
784.524	3164.27
784.845	2303.79
785.166	1997.38
785.487	2431.45
785.807	3286.84
786.128	4216.27
786.449	5196.76
786.769	6488.77
787.09	7558.64
787.41	6922.85
787.731	5401.03
788.051	3654.52
788.372	2446.77
788.692	1982.06
789.012	2224.63
789.332	2965.11
789.653	4231.59
789.973	5666.58
790.293	7139.88
790.613	8107.61
790.933	8406.36
791.253	7783.33
791.573	6182.37
791.893	4239.25
792.212	2817.01
792.532	2227.18
792.852	2262.93
793.171	2804.25
793.491	4014.55
793.811	5191.66
794.13	6823.26
794.45	7157.76
794.769	6876.89
795.088	6179.81
795.408	4867.38
795.727	3585.58
796.046	2326.77
796.365	2033.13
796.684	2487.63
797.004	3777.08
797.323	5469.97
797.642	7704.18
797.96	9693.26
798.279	10548.64
798.598	10461.83
798.917	8842.99
799.236	6700.7
