Data from 2025-12-03_xpw_interference_micrometer_637_FLMS141361__53__703.txt Node

Date: Wed Dec 03 15:56:10 MST 2025
User: james
Spectrometer: FLMS14136
Trigger mode: 0
Integration Time (sec): 1.000000E-1
Scans to average: 1
Electric dark correction enabled: true
Nonlinearity correction enabled: false
Boxcar width: 0
XAxis mode: Wavelengths
Number of Pixels in Spectrum: 2048
>>>>>Begin Spectral Data<<<<<
339.315	-52.5
339.697	-52.5
340.079	-52.5
340.461	-72.93
340.843	-116.34
341.225	-75.48
341.607	-126.55
341.989	-98.46
342.371	-162.3
342.752	-67.82
343.134	-47.4
343.516	-78.04
343.897	39.42
344.279	-80.59
344.661	44.52
345.042	80.27
345.423	64.95
345.805	93.04
346.186	93.04
346.567	177.3
346.949	144.11
347.33	136.45
347.711	144.11
348.092	159.43
348.473	197.73
348.854	266.67
349.235	207.94
349.616	266.67
349.997	269.22
350.378	284.54
350.758	312.63
351.139	335.61
351.52	358.59
351.9	340.72
352.281	373.91
352.661	330.5
353.042	348.38
353.422	368.8
353.803	442.85
354.183	350.93
354.563	335.61
354.943	389.23
355.324	338.16
355.704	361.14
356.084	361.14
356.464	353.48
356.844	419.87
357.224	409.66
357.603	325.4
357.983	412.21
358.363	432.64
358.743	353.48
359.122	363.7
359.502	343.27
359.882	407.1
360.261	325.4
360.641	310.08
361.02	350.93
361.399	391.78
361.779	343.27
362.158	368.8
362.537	391.78
362.916	325.4
363.296	299.86
363.675	299.86
364.054	302.42
364.433	371.36
364.812	343.27
365.19	371.36
365.569	350.93
365.948	391.78
366.327	371.36
366.705	310.08
367.084	228.37
367.463	376.46
367.841	356.04
368.22	320.29
368.598	361.14
368.977	325.4
369.355	292.2
369.733	312.63
370.111	284.54
370.49	340.72
370.868	297.31
371.246	371.36
371.624	361.14
372.002	348.38
372.38	330.5
372.758	297.31
373.136	366.25
373.513	325.4
373.891	338.16
374.269	335.61
374.646	379.02
375.024	368.8
375.402	338.16
375.779	343.27
376.157	333.06
376.534	379.02
376.911	404.55
377.289	368.8
377.666	345.82
378.043	345.82
378.42	338.16
378.797	386.68
379.175	333.06
379.552	404.55
379.929	440.3
380.305	409.66
380.682	338.16
381.059	371.36
381.436	376.46
381.813	333.06
382.189	399.44
382.566	379.02
382.943	386.68
383.319	399.44
383.696	345.82
384.072	353.48
384.448	343.27
384.825	317.74
385.201	317.74
385.577	363.7
385.953	366.25
386.329	310.08
386.706	338.16
387.082	358.59
387.458	361.14
387.834	384.12
388.209	356.04
388.585	343.27
388.961	343.27
389.337	381.57
389.713	345.82
390.088	363.7
390.464	340.72
390.839	304.97
391.215	310.08
391.59	389.23
391.966	325.4
392.341	381.57
392.716	373.91
393.092	345.82
393.467	363.7
393.842	409.66
394.217	386.68
394.592	432.64
394.967	343.27
395.342	356.04
395.717	338.16
396.092	373.91
396.467	376.46
396.841	356.04
397.216	419.87
397.591	353.48
397.965	289.65
398.34	327.95
398.714	379.02
399.089	368.8
399.463	458.17
399.838	463.28
400.212	399.44
400.586	419.87
400.961	363.7
401.335	368.8
401.709	315.18
402.083	394.34
402.457	368.8
402.831	325.4
403.205	312.63
403.579	368.8
403.953	371.36
404.326	379.02
404.7	368.8
405.074	396.89
405.447	312.63
405.821	391.78
406.195	363.7
406.568	368.8
406.942	363.7
407.315	371.36
407.688	366.25
408.062	320.29
408.435	338.16
408.808	356.04
409.181	417.32
409.554	409.66
409.927	356.04
410.3	379.02
410.673	348.38
411.046	327.95
411.419	409.66
411.792	419.87
412.165	363.7
412.537	333.06
412.91	389.23
413.283	384.12
413.655	363.7
414.028	350.93
414.4	391.78
414.773	343.27
415.145	366.25
415.517	386.68
415.889	376.46
416.262	335.61
416.634	310.08
417.006	368.8
417.378	312.63
417.75	348.38
418.122	317.74
418.494	396.89
418.866	379.02
419.238	356.04
419.609	348.38
419.981	430.08
420.353	394.34
420.725	394.34
421.096	419.87
421.468	368.8
421.839	409.66
422.211	402
422.582	386.68
422.953	368.8
423.325	322.84
423.696	353.48
424.067	442.85
424.438	419.87
424.809	343.27
425.18	407.1
425.551	381.57
425.922	371.36
426.293	379.02
426.664	371.36
427.035	440.3
427.406	376.46
427.776	386.68
428.147	409.66
428.518	330.5
428.888	353.48
429.259	419.87
429.629	424.98
429.999	384.12
430.37	402
430.74	335.61
431.11	379.02
431.481	396.89
431.851	422.42
432.221	361.14
432.591	353.48
432.961	368.8
433.331	343.27
433.701	402
434.071	315.18
434.441	325.4
434.81	379.02
435.18	391.78
435.55	386.68
435.919	424.98
436.289	379.02
436.658	363.7
437.028	432.64
437.397	399.44
437.767	304.97
438.136	430.08
438.505	289.65
438.875	320.29
439.244	486.26
439.613	404.55
439.982	414.76
440.351	340.72
440.72	361.14
441.089	442.85
441.458	386.68
441.827	376.46
442.196	407.1
442.564	412.21
442.933	391.78
443.302	394.34
443.67	470.94
444.039	445.4
444.407	371.36
444.776	422.42
445.144	386.68
445.513	399.44
445.881	330.5
446.249	381.57
446.617	320.29
446.986	384.12
447.354	414.76
447.722	427.53
448.09	325.4
448.458	447.96
448.826	437.74
449.194	396.89
449.561	363.7
449.929	404.55
450.297	363.7
450.665	404.55
451.032	496.47
451.4	412.21
451.767	442.85
452.135	407.1
452.502	427.53
452.87	381.57
453.237	432.64
453.604	412.21
453.971	368.8
454.339	322.84
454.706	442.85
455.073	386.68
455.44	407.1
455.807	384.12
456.174	402
456.541	402
456.908	368.8
457.274	409.66
457.641	402
458.008	422.42
458.374	412.21
458.741	450.51
459.108	419.87
459.474	447.96
459.841	499.03
460.207	432.64
460.573	404.55
460.94	389.23
461.306	414.76
461.672	404.55
462.038	361.14
462.404	437.74
462.771	399.44
463.137	376.46
463.503	371.36
463.868	376.46
464.234	343.27
464.6	435.19
464.966	445.4
465.332	391.78
465.697	481.15
466.063	381.57
466.429	391.78
466.794	422.42
467.16	453.07
467.525	353.48
467.89	417.32
468.256	381.57
468.621	371.36
468.986	396.89
469.351	427.53
469.717	368.8
470.082	402
470.447	402
470.812	333.06
471.177	363.7
471.542	384.12
471.906	417.32
472.271	412.21
472.636	325.4
473.001	412.21
473.365	407.1
473.73	414.76
474.094	356.04
474.459	481.15
474.823	371.36
475.188	358.59
475.552	407.1
475.917	384.12
476.281	430.08
476.645	427.53
477.009	358.59
477.373	343.27
477.737	391.78
478.101	353.48
478.465	435.19
478.829	353.48
479.193	407.1
479.557	386.68
479.921	371.36
480.284	366.25
480.648	422.42
481.012	384.12
481.375	445.4
481.739	361.14
482.102	394.34
482.466	386.68
482.829	407.1
483.193	325.4
483.556	366.25
483.919	356.04
484.282	368.8
484.645	409.66
485.009	384.12
485.372	445.4
485.735	353.48
486.098	394.34
486.46	379.02
486.823	345.82
487.186	371.36
487.549	350.93
487.912	356.04
488.274	317.74
488.637	333.06
488.999	356.04
489.362	402
489.724	338.16
490.087	379.02
490.449	361.14
490.811	363.7
491.174	381.57
491.536	368.8
491.898	440.3
492.26	407.1
492.622	427.53
492.984	432.64
493.346	333.06
493.708	404.55
494.07	338.16
494.432	333.06
494.794	381.57
495.155	396.89
495.517	310.08
495.879	460.73
496.24	330.5
496.602	356.04
496.963	379.02
497.325	391.78
497.686	414.76
498.048	386.68
498.409	409.66
498.77	373.91
499.131	391.78
499.492	391.78
499.854	445.4
500.215	414.76
500.576	417.32
500.937	402
501.298	381.57
501.658	412.21
502.019	524.56
502.38	419.87
502.741	376.46
503.101	325.4
503.462	366.25
503.823	432.64
504.183	445.4
504.543	384.12
504.904	419.87
505.264	317.74
505.625	350.93
505.985	294.76
506.345	371.36
506.705	419.87
507.065	404.55
507.426	402
507.786	358.59
508.146	427.53
508.505	455.62
508.865	447.96
509.225	407.1
509.585	424.98
509.945	419.87
510.304	371.36
510.664	435.19
511.024	424.98
511.383	417.32
511.743	424.98
512.102	432.64
512.462	432.64
512.821	330.5
513.18	373.91
513.539	437.74
513.899	417.32
514.258	391.78
514.617	371.36
514.976	402
515.335	440.3
515.694	348.38
516.053	320.29
516.412	325.4
516.771	376.46
517.129	379.02
517.488	409.66
517.847	427.53
518.205	394.34
518.564	430.08
518.922	353.48
519.281	394.34
519.639	409.66
519.998	417.32
520.356	424.98
520.714	427.53
521.073	447.96
521.431	424.98
521.789	455.62
522.147	386.68
522.505	404.55
522.863	394.34
523.221	442.85
523.579	412.21
523.937	450.51
524.295	356.04
524.652	386.68
525.01	412.21
525.368	315.18
525.725	419.87
526.083	424.98
526.44	379.02
526.798	391.78
527.155	440.3
527.513	409.66
527.87	402
528.227	409.66
528.584	396.89
528.942	430.08
529.299	399.44
529.656	402
530.013	368.8
530.37	430.08
530.727	327.95
531.083	343.27
531.44	417.32
531.797	394.34
532.154	373.91
532.511	302.42
532.867	361.14
533.224	409.66
533.58	356.04
533.937	335.61
534.293	437.74
534.65	381.57
535.006	322.84
535.362	348.38
535.718	440.3
536.075	409.66
536.431	396.89
536.787	340.72
537.143	358.59
537.499	363.7
537.855	368.8
538.211	379.02
538.567	371.36
538.923	384.12
539.278	335.61
539.634	404.55
539.99	338.16
540.345	340.72
540.701	417.32
541.056	333.06
541.412	371.36
541.767	394.34
542.123	386.68
542.478	414.76
542.833	330.5
543.188	386.68
543.544	350.93
543.899	353.48
544.254	396.89
544.609	422.42
544.964	348.38
545.319	381.57
545.674	402
546.029	430.08
546.383	407.1
546.738	414.76
547.093	356.04
547.447	376.46
547.802	384.12
548.157	445.4
548.511	442.85
548.866	476.05
549.22	419.87
549.574	340.72
549.929	402
550.283	386.68
550.637	407.1
550.991	317.74
551.345	356.04
551.699	335.61
552.053	338.16
552.407	379.02
552.761	384.12
553.115	414.76
553.469	399.44
553.823	368.8
554.176	363.7
554.53	417.32
554.884	458.17
555.237	654.78
555.591	399.44
555.944	402
556.298	435.19
556.651	450.51
557.005	445.4
557.358	409.66
557.711	437.74
558.064	417.32
558.417	404.55
558.771	442.85
559.124	399.44
559.477	399.44
559.83	379.02
560.182	437.74
560.535	412.21
560.888	281.99
561.241	379.02
561.594	353.48
561.946	368.8
562.299	417.32
562.651	356.04
563.004	435.19
563.356	386.68
563.709	363.7
564.061	394.34
564.413	440.3
564.766	366.25
565.118	424.98
565.47	396.89
565.822	402
566.174	414.76
566.526	455.62
566.878	386.68
567.23	414.76
567.582	442.85
567.934	376.46
568.286	402
568.638	343.27
568.989	447.96
569.341	376.46
569.693	333.06
570.044	437.74
570.396	391.78
570.747	424.98
571.098	430.08
571.45	412.21
571.801	338.16
572.152	366.25
572.504	361.14
572.855	389.23
573.206	386.68
573.557	363.7
573.908	379.02
574.259	361.14
574.61	394.34
574.961	368.8
575.311	396.89
575.662	399.44
576.013	417.32
576.364	447.96
576.714	419.87
577.065	414.76
577.415	430.08
577.766	470.94
578.116	404.55
578.467	368.8
578.817	427.53
579.167	348.38
579.518	384.12
579.868	376.46
580.218	409.66
580.568	379.02
580.918	409.66
581.268	407.1
581.618	379.02
581.968	424.98
582.318	440.3
582.668	409.66
583.017	465.83
583.367	404.55
583.717	386.68
584.066	409.66
584.416	368.8
584.765	361.14
585.115	376.46
585.464	389.23
585.814	389.23
586.163	379.02
586.512	315.18
586.862	404.55
587.211	384.12
587.56	368.8
587.909	348.38
588.258	394.34
588.607	427.53
588.956	458.17
589.305	379.02
589.654	424.98
590.002	417.32
590.351	399.44
590.7	368.8
591.048	292.2
591.397	396.89
591.746	404.55
592.094	424.98
592.443	363.7
592.791	345.82
593.139	419.87
593.488	391.78
593.836	447.96
594.184	386.68
594.532	343.27
594.88	455.62
595.228	407.1
595.576	353.48
595.924	419.87
596.272	376.46
596.62	386.68
596.968	384.12
597.316	442.85
597.664	409.66
598.011	338.16
598.359	404.55
598.706	391.78
599.054	345.82
599.402	404.55
599.749	399.44
600.096	361.14
600.444	299.86
600.791	373.91
601.138	396.89
601.485	358.59
601.833	447.96
602.18	427.53
602.527	371.36
602.874	450.51
603.221	430.08
603.568	414.76
603.914	419.87
604.261	422.42
604.608	353.48
604.955	435.19
605.301	325.4
605.648	384.12
605.995	345.82
606.341	350.93
606.688	356.04
607.034	409.66
607.38	422.42
607.727	363.7
608.073	366.25
608.419	363.7
608.765	384.12
609.112	381.57
609.458	310.08
609.804	409.66
610.15	371.36
610.496	335.61
610.842	417.32
611.187	417.32
611.533	430.08
611.879	442.85
612.225	419.87
612.57	414.76
612.916	435.19
613.261	460.73
613.607	442.85
613.952	445.4
614.298	381.57
614.643	386.68
614.989	399.44
615.334	422.42
615.679	396.89
616.024	304.97
616.369	368.8
616.714	373.91
617.059	376.46
617.404	394.34
617.749	430.08
618.094	424.98
618.439	427.53
618.784	384.12
619.129	366.25
619.473	424.98
619.818	407.1
620.163	476.05
620.507	345.82
620.852	409.66
621.196	386.68
621.54	460.73
621.885	442.85
622.229	414.76
622.573	353.48
622.918	358.59
623.262	358.59
623.606	366.25
623.95	350.93
624.294	371.36
624.638	368.8
624.982	404.55
625.326	343.27
625.67	412.21
626.013	371.36
626.357	404.55
626.701	371.36
627.044	340.72
627.388	381.57
627.731	350.93
628.075	453.07
628.418	386.68
628.762	391.78
629.105	427.53
629.448	402
629.792	442.85
630.135	414.76
630.478	350.93
630.821	394.34
631.164	361.14
631.507	402
631.85	371.36
632.193	427.53
632.536	396.89
632.879	376.46
633.221	453.07
633.564	458.17
633.907	430.08
634.249	440.3
634.592	409.66
634.935	417.32
635.277	481.15
635.619	399.44
635.962	414.76
636.304	419.87
636.646	384.12
636.989	363.7
637.331	409.66
637.673	453.07
638.015	430.08
638.357	366.25
638.699	345.82
639.041	368.8
639.383	407.1
639.725	414.76
640.067	394.34
640.408	363.7
640.75	353.48
641.092	399.44
641.433	386.68
641.775	381.57
642.116	386.68
642.458	468.39
642.799	409.66
643.141	317.74
643.482	289.65
643.823	338.16
644.164	322.84
644.506	460.73
644.847	379.02
645.188	345.82
645.529	373.91
645.87	366.25
646.211	435.19
646.552	399.44
646.893	307.52
647.233	412.21
647.574	424.98
647.915	412.21
648.255	389.23
648.596	404.55
648.937	381.57
649.277	386.68
649.618	396.89
649.958	419.87
650.298	350.93
650.639	427.53
650.979	394.34
651.319	419.87
651.659	435.19
651.999	361.14
652.339	358.59
652.679	340.72
653.019	384.12
653.359	396.89
653.699	442.85
654.039	363.7
654.379	427.53
654.719	407.1
655.058	404.55
655.398	371.36
655.737	442.85
656.077	368.8
656.416	358.59
656.756	335.61
657.095	402
657.435	442.85
657.774	394.34
658.113	409.66
658.452	384.12
658.792	371.36
659.131	350.93
659.47	427.53
659.809	379.02
660.148	325.4
660.487	325.4
660.826	407.1
661.164	409.66
661.503	368.8
661.842	389.23
662.181	363.7
662.519	327.95
662.858	394.34
663.196	343.27
663.535	353.48
663.873	371.36
664.212	353.48
664.55	402
664.888	412.21
665.226	402
665.565	330.5
665.903	550.09
666.241	366.25
666.579	412.21
666.917	422.42
667.255	524.56
667.593	404.55
667.931	389.23
668.268	345.82
668.606	345.82
668.944	458.17
669.282	386.68
669.619	465.83
669.957	430.08
670.294	373.91
670.632	379.02
670.969	353.48
671.307	396.89
671.644	368.8
671.981	396.89
672.318	419.87
672.656	396.89
672.993	409.66
673.33	455.62
673.667	384.12
674.004	348.38
674.341	384.12
674.678	333.06
675.015	396.89
675.351	391.78
675.688	353.48
676.025	320.29
676.362	366.25
676.698	368.8
677.035	402
677.371	356.04
677.708	310.08
678.044	424.98
678.38	363.7
678.717	391.78
679.053	399.44
679.389	371.36
679.725	386.68
680.062	396.89
680.398	366.25
680.734	363.7
681.07	381.57
681.406	368.8
681.742	338.16
682.077	338.16
682.413	386.68
682.749	396.89
683.085	338.16
683.42	373.91
683.756	404.55
684.091	404.55
684.427	430.08
684.762	368.8
685.098	310.08
685.433	396.89
685.768	463.28
686.104	338.16
686.439	312.63
686.774	356.04
687.109	322.84
687.444	345.82
687.779	414.76
688.114	381.57
688.449	312.63
688.784	386.68
689.119	445.4
689.454	381.57
689.789	335.61
690.123	386.68
690.458	358.59
690.792	412.21
691.127	340.72
691.461	373.91
691.796	404.55
692.13	465.83
692.465	325.4
692.799	407.1
693.133	361.14
693.467	361.14
693.802	391.78
694.136	424.98
694.47	414.76
694.804	432.64
695.138	483.71
695.472	407.1
695.806	453.07
696.139	422.42
696.473	407.1
696.807	407.1
697.141	450.51
697.474	381.57
697.808	412.21
698.141	322.84
698.475	424.98
698.808	384.12
699.142	356.04
699.475	396.89
699.808	412.21
700.142	391.78
700.475	396.89
700.808	435.19
701.141	322.84
701.474	356.04
701.807	376.46
702.14	368.8
702.473	417.32
702.806	422.42
703.139	399.44
703.472	379.02
703.804	379.02
704.137	373.91
704.47	381.57
704.802	414.76
705.135	353.48
705.467	394.34
705.8	386.68
706.132	458.17
706.464	391.78
706.797	371.36
707.129	407.1
707.461	404.55
707.793	379.02
708.125	376.46
708.457	427.53
708.789	358.59
709.121	340.72
709.453	404.55
709.785	430.08
710.117	424.98
710.449	399.44
710.781	376.46
711.112	330.5
711.444	373.91
711.775	402
712.107	384.12
712.438	450.51
712.77	366.25
713.101	381.57
713.433	350.93
713.764	304.97
714.095	363.7
714.426	317.74
714.757	376.46
715.089	350.93
715.42	368.8
715.751	381.57
716.082	368.8
716.412	363.7
716.743	371.36
717.074	358.59
717.405	315.18
717.736	373.91
718.066	407.1
718.397	325.4
718.727	394.34
719.058	333.06
719.388	396.89
719.719	394.34
720.049	414.76
720.38	386.68
720.71	391.78
721.04	450.51
721.37	376.46
721.7	330.5
722.031	348.38
722.361	427.53
722.691	338.16
723.021	373.91
723.35	350.93
723.68	424.98
724.01	440.3
724.34	419.87
724.67	422.42
724.999	345.82
725.329	366.25
725.658	419.87
725.988	379.02
726.317	350.93
726.647	348.38
726.976	368.8
727.306	379.02
727.635	338.16
727.964	417.32
728.293	445.4
728.622	419.87
728.952	399.44
729.281	460.73
729.61	399.44
729.939	402
730.267	404.55
730.596	363.7
730.925	455.62
731.254	394.34
731.583	340.72
731.911	366.25
732.24	304.97
732.568	366.25
732.897	412.21
733.225	304.97
733.554	404.55
733.882	348.38
734.21	379.02
734.539	381.57
734.867	419.87
735.195	386.68
735.523	384.12
735.851	409.66
736.179	386.68
736.507	394.34
736.835	379.02
737.163	340.72
737.491	343.27
737.819	333.06
738.147	437.74
738.474	409.66
738.802	458.17
739.13	453.07
739.457	412.21
739.785	384.12
740.112	312.63
740.44	368.8
740.767	402
741.094	361.14
741.422	356.04
741.749	345.82
742.076	368.8
742.403	407.1
742.73	396.89
743.057	399.44
743.384	399.44
743.711	419.87
744.038	440.3
744.365	404.55
744.692	338.16
745.018	414.76
745.345	435.19
745.672	394.34
745.998	340.72
746.325	404.55
746.651	432.64
746.978	381.57
747.304	366.25
747.631	442.85
747.957	325.4
748.283	396.89
748.61	345.82
748.936	312.63
749.262	340.72
749.588	389.23
749.914	379.02
750.24	389.23
750.566	437.74
750.892	417.32
751.218	358.59
751.543	343.27
751.869	338.16
752.195	394.34
752.521	389.23
752.846	414.76
753.172	386.68
753.497	368.8
753.823	376.46
754.148	389.23
754.473	412.21
754.799	368.8
755.124	435.19
755.449	399.44
755.774	333.06
756.1	361.14
756.425	384.12
756.75	386.68
757.075	343.27
757.4	493.92
757.724	417.32
758.049	407.1
758.374	389.23
758.699	391.78
759.024	366.25
759.348	394.34
759.673	404.55
759.997	435.19
760.322	381.57
760.646	399.44
760.971	320.29
761.295	417.32
761.619	381.57
761.944	437.74
762.268	465.83
762.592	565.41
762.916	537.33
763.24	478.6
763.564	424.98
763.888	442.85
764.212	509.24
764.536	468.39
764.86	542.43
765.184	749.26
765.508	739.04
765.831	802.88
766.155	1093.96
766.478	864.16
766.802	774.79
767.126	759.47
767.449	652.23
767.772	905.01
768.096	1070.98
768.419	1364.62
768.742	1515.27
769.066	1609.75
769.389	1576.55
769.712	1502.5
770.035	1321.21
770.358	1025.02
770.681	917.78
771.004	1050.56
771.327	1390.15
771.65	1739.97
771.972	2066.8
772.295	2620.88
772.618	2682.16
772.941	2682.16
773.263	2189.36
773.586	1704.22
773.908	1382.49
774.231	1300.79
774.553	1453.99
774.875	1729.75
775.198	2406.4
775.52	2853.24
775.842	3134.11
776.164	3047.3
776.487	2899.2
776.809	2403.85
777.131	1898.28
777.453	1390.15
777.775	1295.68
778.096	1609.75
778.418	2271.07
778.74	3039.64
779.062	4193.76
779.384	5184.47
779.705	5503.65
780.027	4788.7
780.348	3971.62
780.67	3026.87
780.991	2194.47
781.313	1900.83
781.634	1844.66
781.955	2646.42
782.277	3552.87
782.598	4525.7
782.919	5746.22
783.24	6300.3
783.561	5878.99
783.882	5347.89
784.203	4428.67
784.524	3123.9
784.845	2253.2
785.166	2179.15
785.487	2781.75
785.807	3649.89
786.128	4607.41
786.449	5442.37
786.769	6683.31
787.09	7633.16
787.41	7204.2
787.731	5541.95
788.051	3677.98
788.372	2470.23
788.692	2143.4
789.012	2439.59
789.332	3256.67
789.653	4551.24
789.973	6073.05
790.293	7671.46
790.613	8330.24
790.933	8999.22
791.253	7949.78
791.573	6111.35
791.893	4229.51
792.212	2715.36
792.532	2212.34
792.852	2490.66
793.171	3077.94
793.491	4357.18
793.811	5884.1
794.13	7020.35
794.45	7349.74
794.769	7107.17
795.088	6090.92
795.408	4847.43
795.727	3302.63
796.046	2296.6
796.365	2227.66
796.684	2873.67
797.004	4201.42
797.323	6147.1
797.642	8192.35
797.96	10168.67
798.279	11075.12
798.598	10538.91
798.917	8958.37
799.236	6706.29
799.554	4421.01
799.873	2643.86
800.192	1803.8
800.51	1655.71
800.829	2082.12
801.147	3095.81
801.466	4260.15
801.784	5891.76
802.102	6752.25
802.421	6690.97
