Data from 2025-12-03_xpw_interference_micrometer_637_FLMS141361__0__650.txt Node

Date: Wed Dec 03 15:56:05 MST 2025
User: james
Spectrometer: FLMS14136
Trigger mode: 0
Integration Time (sec): 1.000000E-1
Scans to average: 1
Electric dark correction enabled: true
Nonlinearity correction enabled: false
Boxcar width: 0
XAxis mode: Wavelengths
Number of Pixels in Spectrum: 2048
>>>>>Begin Spectral Data<<<<<
339.315	-81.87
339.697	-81.87
340.079	-81.87
340.461	-53.78
340.843	-99.74
341.225	-107.4
341.607	-89.53
341.989	-63.99
342.371	-102.29
342.752	7.5
343.134	-53.78
343.516	-69.1
343.897	-10.37
344.279	-41.01
344.661	15.16
345.042	-41.01
345.423	53.46
345.805	107.08
346.186	158.15
346.567	150.49
346.949	86.66
347.33	114.74
347.711	176.02
348.092	201.56
348.473	204.11
348.854	273.05
349.235	303.69
349.616	334.33
349.997	270.5
350.378	393.06
350.758	321.57
351.139	331.78
351.52	367.53
351.9	349.65
352.281	375.19
352.661	313.91
353.042	395.61
353.422	418.59
353.803	390.51
354.183	479.88
354.563	352.21
354.943	341.99
355.324	347.1
355.704	364.97
356.084	393.06
356.464	421.15
356.844	421.15
357.224	382.85
357.603	377.74
357.983	405.83
358.363	472.22
358.743	451.79
359.122	339.44
359.502	326.67
359.882	382.85
360.261	375.19
360.641	319.01
361.02	344.55
361.399	403.27
361.779	303.69
362.158	341.99
362.537	364.97
362.916	362.42
363.296	344.55
363.675	357.31
364.054	390.51
364.433	296.03
364.812	319.01
365.19	311.35
365.569	398.17
365.948	329.23
366.327	311.35
366.705	364.97
367.084	339.44
367.463	403.27
367.841	380.29
368.22	303.69
368.598	341.99
368.977	359.87
369.355	329.23
369.733	319.01
370.111	382.85
370.49	380.29
370.868	370.08
371.246	359.87
371.624	329.23
372.002	262.84
372.38	364.97
372.758	344.55
373.136	349.65
373.513	354.76
373.891	326.67
374.269	326.67
374.646	336.89
375.024	324.12
375.402	387.95
375.779	387.95
376.157	362.42
376.534	352.21
376.911	387.95
377.289	428.81
377.666	352.21
378.043	364.97
378.42	375.19
378.797	408.38
379.175	387.95
379.552	395.61
379.929	357.31
380.305	372.63
380.682	423.7
381.059	331.78
381.436	321.57
381.813	377.74
382.189	354.76
382.566	380.29
382.943	385.4
383.319	344.55
383.696	347.1
384.072	347.1
384.448	380.29
384.825	382.85
385.201	306.25
385.577	372.63
385.953	377.74
386.329	385.4
386.706	446.68
387.082	403.27
387.458	395.61
387.834	377.74
388.209	449.23
388.585	382.85
388.961	329.23
389.337	372.63
389.713	347.1
390.088	393.06
390.464	349.65
390.839	375.19
391.215	344.55
391.59	296.03
391.966	390.51
392.341	364.97
392.716	393.06
393.092	393.06
393.467	439.02
393.842	395.61
394.217	382.85
394.592	385.4
394.967	421.15
395.342	393.06
395.717	357.31
396.092	344.55
396.467	362.42
396.841	390.51
397.216	359.87
397.591	352.21
397.965	372.63
398.34	334.33
398.714	405.83
399.089	344.55
399.463	370.08
399.838	441.57
400.212	352.21
400.586	377.74
400.961	280.71
401.335	354.76
401.709	477.32
402.083	410.93
402.457	428.81
402.831	426.25
403.205	341.99
403.579	408.38
403.953	426.25
404.326	341.99
404.7	357.31
405.074	319.01
405.447	372.63
405.821	347.1
406.195	436.47
406.568	433.91
406.942	482.43
407.315	390.51
407.688	393.06
408.062	393.06
408.435	390.51
408.808	400.72
409.181	405.83
409.554	390.51
409.927	426.25
410.3	456.9
410.673	324.12
411.046	326.67
411.419	364.97
411.792	418.59
412.165	428.81
412.537	449.23
412.91	367.53
413.283	403.27
413.655	408.38
414.028	490.09
414.4	393.06
414.773	367.53
415.145	380.29
415.517	372.63
415.889	398.17
416.262	446.68
416.634	357.31
417.006	354.76
417.378	410.93
417.75	398.17
418.122	454.34
418.494	439.02
418.866	362.42
419.238	405.83
419.609	387.95
419.981	385.4
420.353	387.95
420.725	364.97
421.096	387.95
421.468	433.91
421.839	428.81
422.211	439.02
422.582	387.95
422.953	428.81
423.325	451.79
423.696	439.02
424.067	408.38
424.438	454.34
424.809	464.56
425.18	344.55
425.551	393.06
425.922	449.23
426.293	451.79
426.664	400.72
427.035	464.56
427.406	390.51
427.776	428.81
428.147	441.57
428.518	405.83
428.888	375.19
429.259	344.55
429.629	413.49
429.999	446.68
430.37	418.59
430.74	311.35
431.11	347.1
431.481	400.72
431.851	398.17
432.221	377.74
432.591	426.25
432.961	433.91
433.331	385.4
433.701	418.59
434.071	362.42
434.441	393.06
434.81	385.4
435.18	362.42
435.55	449.23
435.919	400.72
436.289	364.97
436.658	454.34
437.028	416.04
437.397	362.42
437.767	319.01
438.136	439.02
438.505	436.47
438.875	428.81
439.244	405.83
439.613	400.72
439.982	372.63
440.351	367.53
440.72	423.7
441.089	372.63
441.458	334.33
441.827	416.04
442.196	398.17
442.564	441.57
442.933	436.47
443.302	387.95
443.67	393.06
444.039	433.91
444.407	400.72
444.776	362.42
445.144	403.27
445.513	349.65
445.881	426.25
446.249	456.9
446.617	380.29
446.986	339.44
447.354	436.47
447.722	484.98
448.09	403.27
448.458	364.97
448.826	538.6
449.194	418.59
449.561	405.83
449.929	441.57
450.297	362.42
450.665	464.56
451.032	459.45
451.4	336.89
451.767	364.97
452.135	390.51
452.502	431.36
452.87	418.59
453.237	357.31
453.604	418.59
453.971	410.93
454.339	400.72
454.706	326.67
455.073	423.7
455.44	449.23
455.807	436.47
456.174	416.04
456.541	398.17
456.908	370.08
457.274	413.49
457.641	469.66
458.008	393.06
458.374	413.49
458.741	410.93
459.108	462
459.474	372.63
459.841	390.51
460.207	400.72
460.573	380.29
460.94	405.83
461.306	421.15
461.672	441.57
462.038	380.29
462.404	441.57
462.771	449.23
463.137	416.04
463.503	441.57
463.868	416.04
464.234	370.08
464.6	428.81
464.966	403.27
465.332	410.93
465.697	357.31
466.063	446.68
466.429	398.17
466.794	380.29
467.16	426.25
467.525	418.59
467.89	459.45
468.256	439.02
468.621	375.19
468.986	474.77
469.351	439.02
469.717	387.95
470.082	464.56
470.447	428.81
470.812	339.44
471.177	352.21
471.542	428.81
471.906	385.4
472.271	444.13
472.636	421.15
473.001	359.87
473.365	387.95
473.73	408.38
474.094	380.29
474.459	400.72
474.823	410.93
475.188	408.38
475.552	439.02
475.917	380.29
476.281	456.9
476.645	416.04
477.009	474.77
477.373	347.1
477.737	405.83
478.101	398.17
478.465	459.45
478.829	370.08
479.193	418.59
479.557	357.31
479.921	393.06
480.284	418.59
480.648	462
481.012	423.7
481.375	382.85
481.739	370.08
482.102	367.53
482.466	421.15
482.829	462
483.193	380.29
483.556	472.22
483.919	418.59
484.282	426.25
484.645	416.04
485.009	354.76
485.372	364.97
485.735	490.09
486.098	433.91
486.46	439.02
486.823	433.91
487.186	510.52
487.549	449.23
487.912	416.04
488.274	387.95
488.637	410.93
488.999	428.81
489.362	393.06
489.724	387.95
490.087	372.63
490.449	436.47
490.811	418.59
491.174	349.65
491.536	377.74
491.898	359.87
492.26	403.27
492.622	382.85
492.984	354.76
493.346	367.53
493.708	395.61
494.07	431.36
494.432	436.47
494.794	393.06
495.155	372.63
495.517	449.23
495.879	421.15
496.24	428.81
496.602	390.51
496.963	446.68
497.325	413.49
497.686	421.15
498.048	444.13
498.409	421.15
498.77	398.17
499.131	446.68
499.492	405.83
499.854	410.93
500.215	477.32
500.576	474.77
500.937	403.27
501.298	454.34
501.658	482.43
502.019	413.49
502.38	405.83
502.741	410.93
503.101	364.97
503.462	426.25
503.823	426.25
504.183	403.27
504.543	421.15
504.904	372.63
505.264	393.06
505.625	398.17
505.985	380.29
506.345	354.76
506.705	380.29
507.065	421.15
507.426	403.27
507.786	349.65
508.146	387.95
508.505	431.36
508.865	385.4
509.225	349.65
509.585	426.25
509.945	408.38
510.304	410.93
510.664	377.74
511.024	431.36
511.383	418.59
511.743	413.49
512.102	441.57
512.462	341.99
512.821	380.29
513.18	428.81
513.539	421.15
513.899	395.61
514.258	390.51
514.617	431.36
514.976	469.66
515.335	390.51
515.694	357.31
516.053	421.15
516.412	446.68
516.771	423.7
517.129	390.51
517.488	423.7
517.847	385.4
518.205	459.45
518.564	497.75
518.922	441.57
519.281	359.87
519.639	382.85
519.998	439.02
520.356	393.06
520.714	436.47
521.073	359.87
521.431	375.19
521.789	321.57
522.147	339.44
522.505	469.66
522.863	446.68
523.221	469.66
523.579	441.57
523.937	380.29
524.295	382.85
524.652	393.06
525.01	398.17
525.368	410.93
525.725	410.93
526.083	431.36
526.44	421.15
526.798	301.14
527.155	431.36
527.513	390.51
527.87	400.72
528.227	395.61
528.584	431.36
528.942	441.57
529.299	380.29
529.656	380.29
530.013	469.66
530.37	416.04
530.727	410.93
531.083	329.23
531.44	400.72
531.797	382.85
532.154	362.42
532.511	354.76
532.867	359.87
533.224	436.47
533.58	416.04
533.937	390.51
534.293	408.38
534.65	334.33
535.006	408.38
535.362	357.31
535.718	426.25
536.075	382.85
536.431	418.59
536.787	408.38
537.143	484.98
537.499	398.17
537.855	421.15
538.211	433.91
538.567	408.38
538.923	400.72
539.278	433.91
539.634	426.25
539.99	405.83
540.345	433.91
540.701	436.47
541.056	390.51
541.412	367.53
541.767	387.95
542.123	436.47
542.478	408.38
542.833	400.72
543.188	398.17
543.544	408.38
543.899	423.7
544.254	439.02
544.609	467.11
544.964	367.53
545.319	387.95
545.674	441.57
546.029	398.17
546.383	469.66
546.738	459.45
547.093	459.45
547.447	426.25
547.802	403.27
548.157	367.53
548.511	347.1
548.866	433.91
549.22	423.7
549.574	456.9
549.929	423.7
550.283	387.95
550.637	390.51
550.991	416.04
551.345	408.38
551.699	405.83
552.053	449.23
552.407	405.83
552.761	321.57
553.115	398.17
553.469	433.91
553.823	418.59
554.176	469.66
554.53	410.93
554.884	377.74
555.237	630.52
555.591	464.56
555.944	387.95
556.298	385.4
556.651	357.31
557.005	362.42
557.358	436.47
557.711	439.02
558.064	454.34
558.417	403.27
558.771	462
559.124	469.66
559.477	464.56
559.83	416.04
560.182	477.32
560.535	472.22
560.888	377.74
561.241	390.51
561.594	352.21
561.946	428.81
562.299	385.4
562.651	398.17
563.004	446.68
563.356	364.97
563.709	439.02
564.061	449.23
564.413	474.77
564.766	382.85
565.118	418.59
565.47	418.59
565.822	479.88
566.174	410.93
566.526	492.64
566.878	403.27
567.23	398.17
567.582	433.91
567.934	426.25
568.286	426.25
568.638	364.97
568.989	444.13
569.341	436.47
569.693	428.81
570.044	454.34
570.396	423.7
570.747	364.97
571.098	428.81
571.45	387.95
571.801	456.9
572.152	400.72
572.504	403.27
572.855	439.02
573.206	464.56
573.557	423.7
573.908	349.65
574.259	339.44
574.61	341.99
574.961	390.51
575.311	426.25
575.662	410.93
576.013	385.4
576.364	339.44
576.714	400.72
577.065	398.17
577.415	385.4
577.766	377.74
578.116	390.51
578.467	405.83
578.817	372.63
579.167	444.13
579.518	428.81
579.868	421.15
580.218	393.06
580.568	467.11
580.918	405.83
581.268	449.23
581.618	441.57
581.968	354.76
582.318	367.53
582.668	387.95
583.017	423.7
583.367	364.97
583.717	382.85
584.066	403.27
584.416	336.89
584.765	354.76
585.115	444.13
585.464	349.65
585.814	421.15
586.163	418.59
586.512	362.42
586.862	344.55
587.211	456.9
587.56	375.19
587.909	387.95
588.258	446.68
588.607	444.13
588.956	362.42
589.305	423.7
589.654	449.23
590.002	367.53
590.351	410.93
590.7	462
591.048	324.12
591.397	372.63
591.746	377.74
592.094	426.25
592.443	370.08
592.791	398.17
593.139	380.29
593.488	413.49
593.836	382.85
594.184	436.47
594.532	403.27
594.88	405.83
595.228	431.36
595.576	426.25
595.924	459.45
596.272	421.15
596.62	393.06
596.968	400.72
597.316	382.85
597.664	433.91
598.011	405.83
598.359	390.51
598.706	375.19
599.054	446.68
599.402	441.57
599.749	347.1
600.096	426.25
600.444	418.59
600.791	341.99
601.138	426.25
601.485	423.7
601.833	290.93
602.18	357.31
602.527	359.87
602.874	372.63
603.221	400.72
603.568	467.11
603.914	408.38
604.261	349.65
604.608	421.15
604.955	405.83
605.301	387.95
605.648	423.7
605.995	364.97
606.341	421.15
606.688	439.02
607.034	398.17
607.38	385.4
607.727	449.23
608.073	380.29
608.419	393.06
608.765	418.59
609.112	433.91
609.458	418.59
609.804	395.61
610.15	334.33
610.496	398.17
610.842	329.23
611.187	413.49
611.533	444.13
611.879	428.81
612.225	301.14
612.57	385.4
612.916	390.51
613.261	416.04
613.607	367.53
613.952	410.93
614.298	413.49
614.643	364.97
614.989	362.42
615.334	387.95
615.679	400.72
616.024	339.44
616.369	428.81
616.714	344.55
617.059	413.49
617.404	416.04
617.749	410.93
618.094	367.53
618.439	433.91
618.784	390.51
619.129	423.7
619.473	431.36
619.818	387.95
620.163	370.08
620.507	380.29
620.852	410.93
621.196	375.19
621.54	459.45
621.885	441.57
622.229	364.97
622.573	395.61
622.918	433.91
623.262	413.49
623.606	405.83
623.95	398.17
624.294	454.34
624.638	395.61
624.982	446.68
625.326	423.7
625.67	372.63
626.013	400.72
626.357	357.31
626.701	444.13
627.044	344.55
627.388	370.08
627.731	426.25
628.075	418.59
628.418	441.57
628.762	454.34
629.105	390.51
629.448	306.25
629.792	439.02
630.135	395.61
630.478	375.19
630.821	390.51
631.164	408.38
631.507	372.63
631.85	387.95
632.193	387.95
632.536	405.83
632.879	357.31
633.221	370.08
633.564	403.27
633.907	403.27
634.249	387.95
634.592	474.77
634.935	359.87
635.277	390.51
635.619	395.61
635.962	377.74
636.304	410.93
636.646	359.87
636.989	410.93
637.331	372.63
637.673	372.63
638.015	334.33
638.357	359.87
638.699	364.97
639.041	431.36
639.383	431.36
639.725	377.74
640.067	349.65
640.408	418.59
640.75	400.72
641.092	462
641.433	433.91
641.775	370.08
642.116	398.17
642.458	446.68
642.799	390.51
643.141	421.15
643.482	390.51
643.823	347.1
644.164	393.06
644.506	451.79
644.847	436.47
645.188	395.61
645.529	423.7
645.87	395.61
646.211	400.72
646.552	413.49
646.893	418.59
647.233	416.04
647.574	469.66
647.915	370.08
648.255	421.15
648.596	398.17
648.937	403.27
649.277	428.81
649.618	441.57
649.958	441.57
650.298	439.02
650.639	390.51
650.979	372.63
651.319	421.15
651.659	364.97
651.999	398.17
652.339	405.83
652.679	421.15
653.019	405.83
653.359	418.59
653.699	413.49
654.039	367.53
654.379	405.83
654.719	372.63
655.058	382.85
655.398	390.51
655.737	413.49
656.077	398.17
656.416	375.19
656.756	349.65
657.095	349.65
657.435	456.9
657.774	418.59
658.113	418.59
658.452	456.9
658.792	462
659.131	362.42
659.47	393.06
659.809	413.49
660.148	341.99
660.487	375.19
660.826	375.19
661.164	364.97
661.503	364.97
661.842	416.04
662.181	408.38
662.519	433.91
662.858	403.27
663.196	387.95
663.535	393.06
663.873	444.13
664.212	436.47
664.55	431.36
664.888	387.95
665.226	370.08
665.565	359.87
665.903	622.86
666.241	410.93
666.579	352.21
666.917	451.79
667.255	426.25
667.593	408.38
667.931	441.57
668.268	421.15
668.606	380.29
668.944	387.95
669.282	357.31
669.619	364.97
669.957	359.87
670.294	359.87
670.632	439.02
670.969	408.38
671.307	408.38
671.644	385.4
671.981	395.61
672.318	382.85
672.656	413.49
672.993	367.53
673.33	469.66
673.667	408.38
674.004	405.83
674.341	441.57
674.678	454.34
675.015	403.27
675.351	398.17
675.688	454.34
676.025	400.72
676.362	380.29
676.698	380.29
677.035	413.49
677.371	390.51
677.708	370.08
678.044	375.19
678.38	462
678.717	380.29
679.053	313.91
679.389	395.61
679.725	362.42
680.062	410.93
680.398	385.4
680.734	372.63
681.07	423.7
681.406	405.83
681.742	431.36
682.077	413.49
682.413	441.57
682.749	431.36
683.085	408.38
683.42	375.19
683.756	370.08
684.091	375.19
684.427	385.4
684.762	408.38
685.098	316.46
685.433	370.08
685.768	439.02
686.104	367.53
686.439	398.17
686.774	433.91
687.109	385.4
687.444	393.06
687.779	367.53
688.114	347.1
688.449	395.61
688.784	428.81
689.119	334.33
689.454	347.1
689.789	393.06
690.123	439.02
690.458	393.06
690.792	413.49
691.127	387.95
691.461	426.25
691.796	408.38
692.13	451.79
692.465	436.47
692.799	382.85
693.133	387.95
693.467	377.74
693.802	390.51
694.136	382.85
694.47	395.61
694.804	362.42
695.138	454.34
695.472	436.47
695.806	410.93
696.139	398.17
696.473	487.54
696.807	405.83
697.141	393.06
697.474	436.47
697.808	423.7
698.141	387.95
698.475	418.59
698.808	441.57
699.142	382.85
699.475	380.29
699.808	387.95
700.142	341.99
700.475	349.65
700.808	364.97
701.141	436.47
701.474	403.27
701.807	416.04
702.14	385.4
702.473	408.38
702.806	479.88
703.139	405.83
703.472	352.21
703.804	418.59
704.137	413.49
704.47	413.49
704.802	377.74
705.135	380.29
705.467	382.85
705.8	354.76
706.132	375.19
706.464	423.7
706.797	410.93
707.129	370.08
707.461	439.02
707.793	398.17
708.125	446.68
708.457	472.22
708.789	354.76
709.121	408.38
709.453	367.53
709.785	393.06
710.117	446.68
710.449	459.45
710.781	423.7
711.112	398.17
711.444	370.08
711.775	398.17
712.107	367.53
712.438	416.04
712.77	377.74
713.101	405.83
713.433	403.27
713.764	377.74
714.095	311.35
714.426	393.06
714.757	372.63
715.089	431.36
715.42	413.49
715.751	390.51
716.082	375.19
716.412	416.04
716.743	370.08
717.074	410.93
717.405	385.4
717.736	387.95
718.066	316.46
718.397	375.19
718.727	431.36
719.058	403.27
719.388	367.53
719.719	423.7
720.049	367.53
720.38	364.97
720.71	400.72
721.04	387.95
721.37	390.51
721.7	398.17
722.031	413.49
722.361	436.47
722.691	367.53
723.021	416.04
723.35	372.63
723.68	390.51
724.01	357.31
724.34	372.63
724.67	459.45
724.999	400.72
725.329	339.44
725.658	326.67
725.988	410.93
726.317	393.06
726.647	405.83
726.976	405.83
727.306	372.63
727.635	395.61
727.964	354.76
728.293	428.81
728.622	393.06
728.952	431.36
729.281	454.34
729.61	444.13
729.939	408.38
730.267	421.15
730.596	390.51
730.925	370.08
731.254	385.4
731.583	500.3
731.911	380.29
732.24	380.29
732.568	395.61
732.897	347.1
733.225	296.03
733.554	385.4
733.882	364.97
734.21	331.78
734.539	316.46
734.867	398.17
735.195	347.1
735.523	403.27
735.851	492.64
736.179	393.06
736.507	393.06
736.835	418.59
737.163	380.29
737.491	405.83
737.819	426.25
738.147	451.79
738.474	423.7
738.802	451.79
739.13	449.23
739.457	413.49
739.785	405.83
740.112	410.93
740.44	390.51
740.767	428.81
741.094	436.47
741.422	403.27
741.749	426.25
742.076	456.9
742.403	382.85
742.73	454.34
743.057	380.29
743.384	484.98
743.711	408.38
744.038	380.29
744.365	395.61
744.692	390.51
745.018	426.25
745.345	367.53
745.672	421.15
745.998	372.63
746.325	431.36
746.651	357.31
746.978	413.49
747.304	421.15
747.631	426.25
747.957	364.97
748.283	423.7
748.61	446.68
748.936	416.04
749.262	387.95
749.588	387.95
749.914	410.93
750.24	423.7
750.566	367.53
750.892	331.78
751.218	336.89
751.543	410.93
751.869	329.23
752.195	403.27
752.521	385.4
752.846	357.31
753.172	359.87
753.497	410.93
753.823	359.87
754.148	377.74
754.473	357.31
754.799	344.55
755.124	431.36
755.449	426.25
755.774	428.81
756.1	449.23
756.425	372.63
756.75	436.47
757.075	423.7
757.4	556.48
757.724	449.23
758.049	446.68
758.374	372.63
758.699	410.93
759.024	405.83
759.348	382.85
759.673	423.7
759.997	390.51
760.322	395.61
760.646	403.27
760.971	380.29
761.295	410.93
761.619	410.93
761.944	403.27
762.268	441.57
762.592	528.39
762.916	497.75
763.24	502.86
763.564	441.57
763.888	477.32
764.212	484.98
764.536	592.22
764.86	610.1
765.184	727.55
765.508	786.28
765.831	799.05
766.155	1256.1
766.478	1010.98
766.802	885.86
767.126	770.96
767.449	696.91
767.772	827.13
768.096	1051.83
768.419	1332.7
768.742	1478.25
769.066	1631.45
769.389	1634
769.712	1588.04
770.035	1432.29
770.358	1133.54
770.681	1056.94
771.004	1113.11
771.327	1376.11
771.65	1779.54
771.972	2195.75
772.295	2703.87
772.618	2880.05
772.941	2793.24
773.263	2463.85
773.586	1919.98
773.908	1659.54
774.231	1393.98
774.553	1371
774.875	1713.16
775.198	2323.41
775.52	2959.21
775.842	3224.76
776.164	3224.76
776.487	3099.64
776.809	2637.48
777.131	2098.72
777.453	1542.08
777.775	1388.88
778.096	1616.13
778.418	2152.34
778.74	3122.62
779.062	4412.08
779.384	5484.5
779.705	5701.53
780.027	5285.33
780.348	4274.2
780.67	3339.66
780.991	2594.07
781.313	2039.99
781.634	2075.74
781.955	2443.42
782.277	3441.79
782.598	4427.4
782.919	5729.62
783.24	6365.41
783.561	6212.21
783.882	6081.99
784.203	5211.28
784.524	3630.74
784.845	2423
785.166	2182.98
785.487	2591.52
785.807	3551.59
786.128	4363.56
786.449	5349.17
786.769	6980.78
787.09	8410.67
787.41	7920.42
787.731	6242.85
788.051	4294.62
788.372	2841.75
788.692	2147.23
789.012	2269.79
789.332	3051.13
789.653	4286.96
789.973	5681.11
790.293	7805.52
790.613	8852.4
790.933	9626.08
791.253	8722.18
791.573	6993.54
791.893	4746.57
792.212	3171.14
792.532	2433.21
792.852	2394.91
793.171	2926.01
793.491	4075.03
793.811	5813.88
794.13	7146.75
794.45	7907.65
794.769	7473.58
795.088	6750.97
795.408	5359.38
795.727	3942.26
796.046	2693.65
796.365	2149.78
796.684	2558.33
797.004	3686.92
797.323	5540.67
797.642	7659.97
797.96	9883.97
798.279	11053.41
798.598	10907.87
798.917	9643.95
799.236	7276.97
799.554	4978.93
