Data from 2025-12-03_xpw_interference_micrometer_637_FLMS141361__68__718.txt Node

Date: Wed Dec 03 15:56:12 MST 2025
User: james
Spectrometer: FLMS14136
Trigger mode: 0
Integration Time (sec): 1.000000E-1
Scans to average: 1
Electric dark correction enabled: true
Nonlinearity correction enabled: false
Boxcar width: 0
XAxis mode: Wavelengths
Number of Pixels in Spectrum: 2048
>>>>>Begin Spectral Data<<<<<
339.315	-56.65
339.697	-56.65
340.079	-56.65
340.461	-61.76
340.843	-174.11
341.225	-128.15
341.607	-133.25
341.989	-61.76
342.371	-94.95
342.752	-38.78
343.134	-15.8
343.516	12.29
343.897	-54.1
344.279	-8.14
344.661	60.8
345.042	14.84
345.423	96.55
345.805	53.14
346.186	106.76
346.567	73.57
346.949	116.98
347.33	132.3
347.711	259.97
348.092	259.97
348.473	208.9
348.854	203.79
349.235	231.88
349.616	280.39
349.997	311.03
350.378	311.03
350.758	385.08
351.139	415.72
351.52	295.71
351.9	316.14
352.281	305.93
352.661	359.55
353.042	323.8
353.422	385.08
353.803	441.26
354.183	374.87
354.563	351.89
354.943	390.19
355.324	410.62
355.704	346.78
356.084	379.97
356.464	454.02
356.844	428.49
357.224	356.99
357.603	344.23
357.983	341.67
358.363	377.42
358.743	425.94
359.122	354.44
359.502	374.87
359.882	387.63
360.261	339.12
360.641	349.33
361.02	415.72
361.399	420.83
361.779	339.12
362.158	331.46
362.537	331.46
362.916	374.87
363.296	402.95
363.675	377.42
364.054	387.63
364.433	392.74
364.812	349.33
365.19	423.38
365.569	415.72
365.948	374.87
366.327	336.57
366.705	351.89
367.084	300.82
367.463	334.01
367.841	410.62
368.22	339.12
368.598	367.21
368.977	428.49
369.355	369.76
369.733	300.82
370.111	362.1
370.49	405.51
370.868	328.91
371.246	316.14
371.624	413.17
372.002	367.21
372.38	379.97
372.758	372.31
373.136	415.72
373.513	346.78
373.891	374.87
374.269	367.21
374.646	336.57
375.024	405.51
375.402	385.08
375.779	410.62
376.157	379.97
376.534	349.33
376.911	328.91
377.289	344.23
377.666	341.67
378.043	367.21
378.42	367.21
378.797	336.57
379.175	339.12
379.552	316.14
379.929	303.37
380.305	354.44
380.682	374.87
381.059	392.74
381.436	369.76
381.813	415.72
382.189	395.29
382.566	400.4
382.943	351.89
383.319	300.82
383.696	390.19
384.072	385.08
384.448	408.06
384.825	326.35
385.201	392.74
385.577	275.29
385.953	359.55
386.329	354.44
386.706	400.4
387.082	367.21
387.458	334.01
387.834	311.03
388.209	318.69
388.585	346.78
388.961	318.69
389.337	323.8
389.713	387.63
390.088	372.31
390.464	344.23
390.839	351.89
391.215	364.65
391.59	334.01
391.966	341.67
392.341	354.44
392.716	316.14
393.092	385.08
393.467	354.44
393.842	382.53
394.217	385.08
394.592	374.87
394.967	385.08
395.342	354.44
395.717	402.95
396.092	369.76
396.467	436.15
396.841	318.69
397.216	379.97
397.591	387.63
397.965	392.74
398.34	328.91
398.714	311.03
399.089	377.42
399.463	354.44
399.838	362.1
400.212	362.1
400.586	341.67
400.961	328.91
401.335	374.87
401.709	341.67
402.083	356.99
402.457	382.53
402.831	341.67
403.205	395.29
403.579	372.31
403.953	374.87
404.326	367.21
404.7	443.81
405.074	441.26
405.447	372.31
405.821	390.19
406.195	369.76
406.568	362.1
406.942	418.28
407.315	408.06
407.688	346.78
408.062	392.74
408.435	377.42
408.808	303.37
409.181	390.19
409.554	344.23
409.927	372.31
410.3	354.44
410.673	395.29
411.046	413.17
411.419	359.55
411.792	351.89
412.165	385.08
412.537	369.76
412.91	362.1
413.283	346.78
413.655	387.63
414.028	349.33
414.4	362.1
414.773	321.25
415.145	436.15
415.517	374.87
415.889	387.63
416.262	428.49
416.634	351.89
417.006	349.33
417.378	369.76
417.75	369.76
418.122	374.87
418.494	326.35
418.866	392.74
419.238	300.82
419.609	367.21
419.981	395.29
420.353	364.65
420.725	392.74
421.096	413.17
421.468	420.83
421.839	487.22
422.211	420.83
422.582	387.63
422.953	397.85
423.325	387.63
423.696	436.15
424.067	438.7
424.438	359.55
424.809	405.51
425.18	415.72
425.551	425.94
425.922	359.55
426.293	346.78
426.664	395.29
427.035	369.76
427.406	405.51
427.776	413.17
428.147	436.15
428.518	374.87
428.888	356.99
429.259	425.94
429.629	438.7
429.999	334.01
430.37	431.04
430.74	344.23
431.11	339.12
431.481	405.51
431.851	420.83
432.221	443.81
432.591	395.29
432.961	413.17
433.331	400.4
433.701	367.21
434.071	316.14
434.441	349.33
434.81	321.25
435.18	362.1
435.55	369.76
435.919	364.65
436.289	377.42
436.658	413.17
437.028	428.49
437.397	402.95
437.767	318.69
438.136	359.55
438.505	408.06
438.875	359.55
439.244	397.85
439.613	408.06
439.982	387.63
440.351	420.83
440.72	443.81
441.089	339.12
441.458	390.19
441.827	349.33
442.196	397.85
442.564	413.17
442.933	316.14
443.302	428.49
443.67	382.53
444.039	425.94
444.407	356.99
444.776	379.97
445.144	410.62
445.513	397.85
445.881	431.04
446.249	405.51
446.617	387.63
446.986	362.1
447.354	456.58
447.722	382.53
448.09	354.44
448.458	425.94
448.826	561.26
449.194	385.08
449.561	392.74
449.929	410.62
450.297	354.44
450.665	359.55
451.032	385.08
451.4	362.1
451.767	413.17
452.135	379.97
452.502	362.1
452.87	400.4
453.237	428.49
453.604	341.67
453.971	362.1
454.339	428.49
454.706	351.89
455.073	339.12
455.44	413.17
455.807	377.42
456.174	415.72
456.541	443.81
456.908	428.49
457.274	443.81
457.641	405.51
458.008	395.29
458.374	515.3
458.741	441.26
459.108	397.85
459.474	395.29
459.841	379.97
460.207	367.21
460.573	443.81
460.94	420.83
461.306	354.44
461.672	413.17
462.038	410.62
462.404	433.6
462.771	443.81
463.137	441.26
463.503	356.99
463.868	397.85
464.234	367.21
464.6	402.95
464.966	443.81
465.332	405.51
465.697	385.08
466.063	390.19
466.429	454.02
466.794	418.28
467.16	420.83
467.525	395.29
467.89	423.38
468.256	423.38
468.621	395.29
468.986	423.38
469.351	441.26
469.717	382.53
470.082	413.17
470.447	446.36
470.812	392.74
471.177	382.53
471.542	377.42
471.906	367.21
472.271	385.08
472.636	397.85
473.001	346.78
473.365	451.47
473.73	415.72
474.094	400.4
474.459	374.87
474.823	400.4
475.188	392.74
475.552	354.44
475.917	346.78
476.281	349.33
476.645	382.53
477.009	402.95
477.373	400.4
477.737	374.87
478.101	351.89
478.465	346.78
478.829	392.74
479.193	423.38
479.557	461.68
479.921	397.85
480.284	436.15
480.648	372.31
481.012	454.02
481.375	408.06
481.739	390.19
482.102	456.58
482.466	397.85
482.829	438.7
483.193	410.62
483.556	454.02
483.919	415.72
484.282	369.76
484.645	374.87
485.009	428.49
485.372	351.89
485.735	354.44
486.098	351.89
486.46	415.72
486.823	507.64
487.186	423.38
487.549	405.51
487.912	408.06
488.274	456.58
488.637	431.04
488.999	367.21
489.362	410.62
489.724	461.68
490.087	456.58
490.449	382.53
490.811	374.87
491.174	387.63
491.536	397.85
491.898	369.76
492.26	392.74
492.622	405.51
492.984	451.47
493.346	451.47
493.708	423.38
494.07	377.42
494.432	385.08
494.794	413.17
495.155	443.81
495.517	413.17
495.879	431.04
496.24	395.29
496.602	489.77
496.963	413.17
497.325	397.85
497.686	423.38
498.048	369.76
498.409	400.4
498.77	387.63
499.131	400.4
499.492	408.06
499.854	408.06
500.215	469.34
500.576	410.62
500.937	454.02
501.298	431.04
501.658	395.29
502.019	456.58
502.38	428.49
502.741	413.17
503.101	418.28
503.462	354.44
503.823	369.76
504.183	405.51
504.543	397.85
504.904	369.76
505.264	379.97
505.625	397.85
505.985	339.12
506.345	374.87
506.705	316.14
507.065	392.74
507.426	425.94
507.786	454.02
508.146	446.36
508.505	446.36
508.865	408.06
509.225	395.29
509.585	489.77
509.945	446.36
510.304	385.08
510.664	405.51
511.024	471.9
511.383	328.91
511.743	390.19
512.102	410.62
512.462	359.55
512.821	423.38
513.18	387.63
513.539	494.88
513.899	464.24
514.258	479.56
514.617	362.1
514.976	410.62
515.335	423.38
515.694	438.7
516.053	405.51
516.412	443.81
516.771	397.85
517.129	382.53
517.488	400.4
517.847	390.19
518.205	392.74
518.564	420.83
518.922	397.85
519.281	448.92
519.639	438.7
519.998	505.09
520.356	423.38
520.714	431.04
521.073	354.44
521.431	359.55
521.789	392.74
522.147	433.6
522.505	413.17
522.863	420.83
523.221	387.63
523.579	367.21
523.937	418.28
524.295	433.6
524.652	454.02
525.01	446.36
525.368	461.68
525.725	405.51
526.083	423.38
526.44	402.95
526.798	436.15
527.155	408.06
527.513	364.65
527.87	418.28
528.227	438.7
528.584	446.36
528.942	446.36
529.299	379.97
529.656	359.55
530.013	374.87
530.37	390.19
530.727	420.83
531.083	418.28
531.44	418.28
531.797	385.08
532.154	428.49
532.511	438.7
532.867	400.4
533.224	339.12
533.58	436.15
533.937	415.72
534.293	369.76
534.65	341.67
535.006	367.21
535.362	354.44
535.718	400.4
536.075	402.95
536.431	382.53
536.787	349.33
537.143	425.94
537.499	367.21
537.855	280.39
538.211	392.74
538.567	372.31
538.923	471.9
539.278	446.36
539.634	448.92
539.99	413.17
540.345	413.17
540.701	387.63
541.056	385.08
541.412	420.83
541.767	418.28
542.123	423.38
542.478	395.29
542.833	451.47
543.188	448.92
543.544	441.26
543.899	397.85
544.254	364.65
544.609	392.74
544.964	405.51
545.319	397.85
545.674	369.76
546.029	425.94
546.383	428.49
546.738	379.97
547.093	354.44
547.447	346.78
547.802	431.04
548.157	425.94
548.511	351.89
548.866	385.08
549.22	400.4
549.574	402.95
549.929	364.65
550.283	377.42
550.637	405.51
550.991	438.7
551.345	408.06
551.699	436.15
552.053	461.68
552.407	349.33
552.761	410.62
553.115	400.4
553.469	420.83
553.823	362.1
554.176	382.53
554.53	392.74
554.884	402.95
555.237	688.93
555.591	413.17
555.944	392.74
556.298	367.21
556.651	397.85
557.005	438.7
557.358	351.89
557.711	382.53
558.064	415.72
558.417	415.72
558.771	471.9
559.124	402.95
559.477	341.67
559.83	334.01
560.182	425.94
560.535	438.7
560.888	392.74
561.241	423.38
561.594	400.4
561.946	482.11
562.299	441.26
562.651	454.02
563.004	382.53
563.356	454.02
563.709	464.24
564.061	418.28
564.413	459.13
564.766	408.06
565.118	387.63
565.47	387.63
565.822	431.04
566.174	456.58
566.526	400.4
566.878	415.72
567.23	446.36
567.582	428.49
567.934	385.08
568.286	397.85
568.638	395.29
568.989	497.43
569.341	415.72
569.693	441.26
570.044	451.47
570.396	379.97
570.747	420.83
571.098	410.62
571.45	341.67
571.801	408.06
572.152	387.63
572.504	438.7
572.855	362.1
573.206	413.17
573.557	385.08
573.908	369.76
574.259	405.51
574.61	397.85
574.961	413.17
575.311	497.43
575.662	474.45
576.013	379.97
576.364	369.76
576.714	443.81
577.065	390.19
577.415	367.21
577.766	397.85
578.116	418.28
578.467	372.31
578.817	372.31
579.167	420.83
579.518	477
579.868	405.51
580.218	356.99
580.568	418.28
580.918	469.34
581.268	328.91
581.618	369.76
581.968	405.51
582.318	441.26
582.668	390.19
583.017	423.38
583.367	418.28
583.717	400.4
584.066	387.63
584.416	433.6
584.765	413.17
585.115	466.79
585.464	397.85
585.814	425.94
586.163	356.99
586.512	387.63
586.862	364.65
587.211	446.36
587.56	466.79
587.909	385.08
588.258	400.4
588.607	410.62
588.956	405.51
589.305	374.87
589.654	349.33
590.002	382.53
590.351	382.53
590.7	415.72
591.048	385.08
591.397	433.6
591.746	438.7
592.094	459.13
592.443	328.91
592.791	400.4
593.139	438.7
593.488	415.72
593.836	400.4
594.184	454.02
594.532	464.24
594.88	390.19
595.228	461.68
595.576	341.67
595.924	428.49
596.272	408.06
596.62	413.17
596.968	428.49
597.316	454.02
597.664	436.15
598.011	395.29
598.359	459.13
598.706	364.65
599.054	351.89
599.402	359.55
599.749	318.69
600.096	451.47
600.444	385.08
600.791	341.67
601.138	408.06
601.485	423.38
601.833	387.63
602.18	436.15
602.527	402.95
602.874	431.04
603.221	474.45
603.568	415.72
603.914	385.08
604.261	484.66
604.608	362.1
604.955	418.28
605.301	385.08
605.648	400.4
605.995	448.92
606.341	423.38
606.688	395.29
607.034	446.36
607.38	346.78
607.727	369.76
608.073	418.28
608.419	400.4
608.765	415.72
609.112	334.01
609.458	387.63
609.804	349.33
610.15	433.6
610.496	374.87
610.842	415.72
611.187	374.87
611.533	336.57
611.879	474.45
612.225	425.94
612.57	451.47
612.916	395.29
613.261	400.4
613.607	423.38
613.952	374.87
614.298	397.85
614.643	410.62
614.989	428.49
615.334	438.7
615.679	400.4
616.024	344.23
616.369	397.85
616.714	359.55
617.059	354.44
617.404	356.99
617.749	354.44
618.094	369.76
618.439	397.85
618.784	436.15
619.129	451.47
619.473	405.51
619.818	402.95
620.163	385.08
620.507	334.01
620.852	428.49
621.196	451.47
621.54	392.74
621.885	415.72
622.229	390.19
622.573	369.76
622.918	392.74
623.262	423.38
623.606	349.33
623.95	413.17
624.294	413.17
624.638	402.95
624.982	402.95
625.326	448.92
625.67	367.21
626.013	423.38
626.357	413.17
626.701	311.03
627.044	369.76
627.388	456.58
627.731	377.42
628.075	392.74
628.418	418.28
628.762	428.49
629.105	415.72
629.448	359.55
629.792	423.38
630.135	400.4
630.478	405.51
630.821	420.83
631.164	402.95
631.507	392.74
631.85	372.31
632.193	420.83
632.536	433.6
632.879	387.63
633.221	346.78
633.564	372.31
633.907	397.85
634.249	418.28
634.592	400.4
634.935	374.87
635.277	387.63
635.619	400.4
635.962	410.62
636.304	382.53
636.646	405.51
636.989	334.01
637.331	428.49
637.673	428.49
638.015	438.7
638.357	431.04
638.699	369.76
639.041	395.29
639.383	390.19
639.725	369.76
640.067	382.53
640.408	408.06
640.75	364.65
641.092	402.95
641.433	392.74
641.775	372.31
642.116	369.76
642.458	410.62
642.799	382.53
643.141	351.89
643.482	428.49
643.823	469.34
644.164	428.49
644.506	469.34
644.847	459.13
645.188	441.26
645.529	431.04
645.87	456.58
646.211	415.72
646.552	410.62
646.893	382.53
647.233	423.38
647.574	405.51
647.915	405.51
648.255	397.85
648.596	402.95
648.937	377.42
649.277	395.29
649.618	420.83
649.958	400.4
650.298	423.38
650.639	390.19
650.979	436.15
651.319	346.78
651.659	397.85
651.999	423.38
652.339	392.74
652.679	385.08
653.019	364.65
653.359	431.04
653.699	428.49
654.039	392.74
654.379	415.72
654.719	354.44
655.058	397.85
655.398	436.15
655.737	469.34
656.077	425.94
656.416	359.55
656.756	349.33
657.095	410.62
657.435	395.29
657.774	405.51
658.113	433.6
658.452	377.42
658.792	418.28
659.131	323.8
659.47	303.37
659.809	387.63
660.148	441.26
660.487	415.72
660.826	410.62
661.164	379.97
661.503	354.44
661.842	377.42
662.181	400.4
662.519	367.21
662.858	382.53
663.196	379.97
663.535	369.76
663.873	408.06
664.212	364.65
664.55	367.21
664.888	428.49
665.226	428.49
665.565	420.83
665.903	614.89
666.241	369.76
666.579	364.65
666.917	441.26
667.255	402.95
667.593	408.06
667.931	454.02
668.268	395.29
668.606	413.17
668.944	382.53
669.282	374.87
669.619	433.6
669.957	390.19
670.294	336.57
670.632	402.95
670.969	395.29
671.307	418.28
671.644	448.92
671.981	385.08
672.318	351.89
672.656	420.83
672.993	334.01
673.33	354.44
673.667	395.29
674.004	377.42
674.341	372.31
674.678	400.4
675.015	451.47
675.351	379.97
675.688	405.51
676.025	367.21
676.362	413.17
676.698	454.02
677.035	413.17
677.371	318.69
677.708	390.19
678.044	382.53
678.38	428.49
678.717	351.89
679.053	428.49
679.389	413.17
679.725	377.42
680.062	425.94
680.398	423.38
680.734	477
681.07	438.7
681.406	441.26
681.742	415.72
682.077	367.21
682.413	395.29
682.749	390.19
683.085	397.85
683.42	364.65
683.756	298.27
684.091	354.44
684.427	346.78
684.762	420.83
685.098	359.55
685.433	362.1
685.768	405.51
686.104	410.62
686.439	397.85
686.774	387.63
687.109	448.92
687.444	400.4
687.779	382.53
688.114	400.4
688.449	390.19
688.784	420.83
689.119	402.95
689.454	464.24
689.789	428.49
690.123	408.06
690.458	300.82
690.792	351.89
691.127	413.17
691.461	400.4
691.796	359.55
692.13	392.74
692.465	336.57
692.799	397.85
693.133	377.42
693.467	433.6
693.802	469.34
694.136	379.97
694.47	405.51
694.804	456.58
695.138	489.77
695.472	334.01
695.806	423.38
696.139	328.91
696.473	390.19
696.807	339.12
697.141	364.65
697.474	367.21
697.808	423.38
698.141	397.85
698.475	367.21
698.808	390.19
699.142	359.55
699.475	413.17
699.808	405.51
700.142	395.29
700.475	448.92
700.808	377.42
701.141	372.31
701.474	395.29
701.807	405.51
702.14	400.4
702.473	395.29
702.806	413.17
703.139	344.23
703.472	374.87
703.804	397.85
704.137	400.4
704.47	346.78
704.802	374.87
705.135	379.97
705.467	400.4
705.8	382.53
706.132	339.12
706.464	313.59
706.797	377.42
707.129	438.7
707.461	438.7
707.793	397.85
708.125	461.68
708.457	385.08
708.789	349.33
709.121	420.83
709.453	431.04
709.785	351.89
710.117	385.08
710.449	377.42
710.781	372.31
711.112	336.57
711.444	377.42
711.775	410.62
712.107	369.76
712.438	454.02
712.77	364.65
713.101	395.29
713.433	433.6
713.764	408.06
714.095	418.28
714.426	415.72
714.757	349.33
715.089	331.46
715.42	374.87
715.751	461.68
716.082	415.72
716.412	423.38
716.743	448.92
717.074	400.4
717.405	448.92
717.736	425.94
718.066	331.46
718.397	379.97
718.727	474.45
719.058	420.83
719.388	425.94
719.719	418.28
720.049	367.21
720.38	346.78
720.71	372.31
721.04	400.4
721.37	420.83
721.7	425.94
722.031	374.87
722.361	448.92
722.691	382.53
723.021	372.31
723.35	364.65
723.68	405.51
724.01	405.51
724.34	479.56
724.67	448.92
724.999	420.83
725.329	400.4
725.658	395.29
725.988	425.94
726.317	441.26
726.647	428.49
726.976	367.21
727.306	313.59
727.635	369.76
727.964	459.13
728.293	364.65
728.622	477
728.952	364.65
729.281	387.63
729.61	395.29
729.939	415.72
730.267	374.87
730.596	471.9
730.925	374.87
731.254	334.01
731.583	379.97
731.911	400.4
732.24	377.42
732.568	395.29
732.897	349.33
733.225	428.49
733.554	382.53
733.882	379.97
734.21	298.27
734.539	326.35
734.867	385.08
735.195	382.53
735.523	413.17
735.851	448.92
736.179	461.68
736.507	379.97
736.835	362.1
737.163	402.95
737.491	400.4
737.819	367.21
738.147	392.74
738.474	433.6
738.802	433.6
739.13	408.06
739.457	451.47
739.785	397.85
740.112	341.67
740.44	413.17
740.767	395.29
741.094	351.89
741.422	415.72
741.749	408.06
742.076	418.28
742.403	451.47
742.73	377.42
743.057	349.33
743.384	379.97
743.711	359.55
744.038	448.92
744.365	461.68
744.692	423.38
745.018	356.99
745.345	413.17
745.672	400.4
745.998	387.63
746.325	448.92
746.651	420.83
746.978	397.85
747.304	336.57
747.631	410.62
747.957	431.04
748.283	392.74
748.61	395.29
748.936	400.4
749.262	418.28
749.588	499.98
749.914	372.31
750.24	385.08
750.566	402.95
750.892	374.87
751.218	405.51
751.543	443.81
751.869	431.04
752.195	351.89
752.521	339.12
752.846	400.4
753.172	433.6
753.497	408.06
753.823	423.38
754.148	413.17
754.473	402.95
754.799	505.09
755.124	436.15
755.449	408.06
755.774	428.49
756.1	443.81
756.425	367.21
756.75	390.19
757.075	420.83
757.4	522.96
757.724	377.42
758.049	405.51
758.374	423.38
758.699	392.74
759.024	510.2
759.348	364.65
759.673	400.4
759.997	423.38
760.322	341.67
760.646	364.65
760.971	410.62
761.295	413.17
761.619	438.7
761.944	423.38
762.268	497.43
762.592	499.98
762.916	479.56
763.24	436.15
763.564	413.17
763.888	436.15
764.212	461.68
764.536	548.5
764.86	630.21
765.184	683.83
765.508	757.87
765.831	796.18
766.155	1084.71
766.478	854.9
766.802	778.3
767.126	673.61
767.449	681.27
767.772	928.95
768.096	1115.35
768.419	1393.67
768.742	1585.17
769.066	1513.67
769.389	1498.35
769.712	1526.44
770.035	1266
770.358	1005.55
770.681	959.59
771.004	1125.56
771.327	1480.48
771.65	1794.55
771.972	2159.68
772.295	2703.55
772.618	2767.38
772.941	2504.39
773.263	2090.74
773.586	1756.25
773.908	1375.79
774.231	1263.44
774.553	1332.38
774.875	1774.12
775.198	2499.28
775.52	2999.74
775.842	3163.16
776.164	3058.47
776.487	2775.04
776.809	2269.47
777.131	1866.04
777.453	1365.58
777.775	1296.64
778.096	1569.85
778.418	2246.49
778.74	3198.9
779.062	4393.88
779.384	5476.52
779.705	5415.24
780.027	4761.57
780.348	3783.63
780.67	2925.69
780.991	2266.92
781.313	1894.13
781.634	1940.09
781.955	2660.14
782.277	3589.57
782.598	4593.05
782.919	5765.05
783.24	6165.93
783.561	5805.9
783.882	5279.91
784.203	4317.28
784.524	3007.4
784.845	2264.37
785.166	2139.25
785.487	2769.94
785.807	3704.47
786.128	4677.31
786.449	5542.9
786.769	6633.2
787.09	7613.69
787.41	7100.47
787.731	5323.31
788.051	3479.78
788.372	2312.88
788.692	1991.16
789.012	2348.63
789.332	3262.74
789.653	4649.22
789.973	6142.95
790.293	7554.97
790.613	8402.69
790.933	8721.86
791.253	7664.76
791.573	5765.05
791.893	3975.13
792.212	2591.2
792.532	2259.26
792.852	2384.38
793.171	3298.49
793.491	4278.98
793.811	5931.02
794.13	7240.9
794.45	7434.96
794.769	6875.77
795.088	6094.43
795.408	4628.8
795.727	3285.72
796.046	2320.54
796.365	2108.61
796.684	2744.4
797.004	4299.41
797.323	6155.72
797.642	8343.96
797.96	10131.33
798.279	10905
798.598	10343.26
798.917	8964.43
799.236	6523.4
799.554	4210.04
799.873	2514.6
800.192	1666.88
