Data from 2025-12-03_xpw_interference_micrometer_637_FLMS141361__51__701.txt Node

Date: Wed Dec 03 15:56:10 MST 2025
User: james
Spectrometer: FLMS14136
Trigger mode: 0
Integration Time (sec): 1.000000E-1
Scans to average: 1
Electric dark correction enabled: true
Nonlinearity correction enabled: false
Boxcar width: 0
XAxis mode: Wavelengths
Number of Pixels in Spectrum: 2048
>>>>>Begin Spectral Data<<<<<
339.315	-41.01
339.697	-41.01
340.079	-41.01
340.461	-58.89
340.843	-150.81
341.225	-109.95
341.607	-79.31
341.989	-74.21
342.371	-38.46
342.752	7.5
343.134	-104.85
343.516	-74.21
343.897	-71.65
344.279	-2.71
344.661	50.91
345.042	50.91
345.423	45.8
345.805	38.14
346.186	50.91
346.567	150.49
346.949	160.7
347.33	199
347.711	209.22
348.092	257.73
348.473	265.39
348.854	193.9
349.235	224.54
349.616	296.03
349.997	288.37
350.378	324.12
350.758	339.44
351.139	334.33
351.52	349.65
351.9	293.48
352.281	321.57
352.661	380.29
353.042	382.85
353.422	339.44
353.803	357.31
354.183	382.85
354.563	400.72
354.943	367.53
355.324	400.72
355.704	375.19
356.084	357.31
356.464	344.55
356.844	426.25
357.224	405.83
357.603	408.38
357.983	410.93
358.363	418.59
358.743	393.06
359.122	367.53
359.502	446.68
359.882	426.25
360.261	385.4
360.641	336.89
361.02	339.44
361.399	357.31
361.779	352.21
362.158	296.03
362.537	359.87
362.916	359.87
363.296	288.37
363.675	331.78
364.054	426.25
364.433	319.01
364.812	385.4
365.19	349.65
365.569	372.63
365.948	311.35
366.327	375.19
366.705	423.7
367.084	313.91
367.463	326.67
367.841	362.42
368.22	326.67
368.598	331.78
368.977	403.27
369.355	405.83
369.733	382.85
370.111	385.4
370.49	367.53
370.868	398.17
371.246	372.63
371.624	336.89
372.002	464.56
372.38	344.55
372.758	390.51
373.136	367.53
373.513	385.4
373.891	403.27
374.269	326.67
374.646	426.25
375.024	390.51
375.402	336.89
375.779	403.27
376.157	421.15
376.534	362.42
376.911	313.91
377.289	308.8
377.666	321.57
378.043	380.29
378.42	387.95
378.797	372.63
379.175	426.25
379.552	418.59
379.929	390.51
380.305	324.12
380.682	418.59
381.059	367.53
381.436	405.83
381.813	370.08
382.189	393.06
382.566	319.01
382.943	370.08
383.319	341.99
383.696	390.51
384.072	367.53
384.448	359.87
384.825	364.97
385.201	367.53
385.577	400.72
385.953	359.87
386.329	324.12
386.706	387.95
387.082	359.87
387.458	395.61
387.834	339.44
388.209	301.14
388.585	319.01
388.961	339.44
389.337	377.74
389.713	390.51
390.088	377.74
390.464	364.97
390.839	354.76
391.215	298.59
391.59	400.72
391.966	421.15
392.341	367.53
392.716	403.27
393.092	375.19
393.467	451.79
393.842	451.79
394.217	334.33
394.592	433.91
394.967	398.17
395.342	410.93
395.717	441.57
396.092	347.1
396.467	372.63
396.841	354.76
397.216	410.93
397.591	456.9
397.965	390.51
398.34	449.23
398.714	372.63
399.089	426.25
399.463	387.95
399.838	344.55
400.212	436.47
400.586	357.31
400.961	536.05
401.335	416.04
401.709	377.74
402.083	444.13
402.457	370.08
402.831	393.06
403.205	398.17
403.579	354.76
403.953	423.7
404.326	410.93
404.7	433.91
405.074	385.4
405.447	367.53
405.821	500.3
406.195	405.83
406.568	398.17
406.942	367.53
407.315	405.83
407.688	339.44
408.062	418.59
408.435	400.72
408.808	441.57
409.181	357.31
409.554	451.79
409.927	410.93
410.3	370.08
410.673	303.69
411.046	405.83
411.419	324.12
411.792	385.4
412.165	359.87
412.537	347.1
412.91	418.59
413.283	347.1
413.655	408.38
414.028	446.68
414.4	390.51
414.773	359.87
415.145	380.29
415.517	400.72
415.889	449.23
416.262	349.65
416.634	405.83
417.006	380.29
417.378	431.36
417.75	400.72
418.122	380.29
418.494	367.53
418.866	416.04
419.238	426.25
419.609	405.83
419.981	329.23
420.353	385.4
420.725	321.57
421.096	444.13
421.468	418.59
421.839	421.15
422.211	403.27
422.582	439.02
422.953	418.59
423.325	405.83
423.696	410.93
424.067	316.46
424.438	319.01
424.809	364.97
425.18	398.17
425.551	400.72
425.922	416.04
426.293	370.08
426.664	418.59
427.035	416.04
427.406	395.61
427.776	372.63
428.147	385.4
428.518	451.79
428.888	439.02
429.259	464.56
429.629	423.7
429.999	382.85
430.37	431.36
430.74	421.15
431.11	428.81
431.481	387.95
431.851	347.1
432.221	451.79
432.591	385.4
432.961	354.76
433.331	441.57
433.701	462
434.071	492.64
434.441	367.53
434.81	428.81
435.18	421.15
435.55	416.04
435.919	354.76
436.289	400.72
436.658	416.04
437.028	446.68
437.397	387.95
437.767	423.7
438.136	436.47
438.505	484.98
438.875	423.7
439.244	313.91
439.613	275.61
439.982	428.81
440.351	428.81
440.72	464.56
441.089	403.27
441.458	410.93
441.827	446.68
442.196	436.47
442.564	530.94
442.933	439.02
443.302	431.36
443.67	362.42
444.039	403.27
444.407	349.65
444.776	410.93
445.144	410.93
445.513	408.38
445.881	367.53
446.249	410.93
446.617	405.83
446.986	441.57
447.354	370.08
447.722	395.61
448.09	446.68
448.458	403.27
448.826	467.11
449.194	456.9
449.561	408.38
449.929	439.02
450.297	367.53
450.665	398.17
451.032	362.42
451.4	364.97
451.767	426.25
452.135	426.25
452.502	492.64
452.87	454.34
453.237	464.56
453.604	428.81
453.971	439.02
454.339	380.29
454.706	423.7
455.073	428.81
455.44	359.87
455.807	380.29
456.174	364.97
456.541	403.27
456.908	400.72
457.274	462
457.641	405.83
458.008	372.63
458.374	372.63
458.741	380.29
459.108	405.83
459.474	433.91
459.841	474.77
460.207	387.95
460.573	467.11
460.94	459.45
461.306	418.59
461.672	408.38
462.038	426.25
462.404	433.91
462.771	354.76
463.137	421.15
463.503	451.79
463.868	423.7
464.234	372.63
464.6	413.49
464.966	482.43
465.332	436.47
465.697	387.95
466.063	444.13
466.429	403.27
466.794	385.4
467.16	418.59
467.525	502.86
467.89	382.85
468.256	474.77
468.621	449.23
468.986	456.9
469.351	390.51
469.717	362.42
470.082	444.13
470.447	477.32
470.812	382.85
471.177	446.68
471.542	423.7
471.906	449.23
472.271	413.49
472.636	403.27
473.001	413.49
473.365	428.81
473.73	446.68
474.094	403.27
474.459	439.02
474.823	474.77
475.188	416.04
475.552	352.21
475.917	459.45
476.281	467.11
476.645	398.17
477.009	439.02
477.373	505.41
477.737	467.11
478.101	490.09
478.465	446.68
478.829	492.64
479.193	408.38
479.557	367.53
479.921	385.4
480.284	449.23
480.648	462
481.012	416.04
481.375	456.9
481.739	459.45
482.102	492.64
482.466	431.36
482.829	449.23
483.193	449.23
483.556	426.25
483.919	375.19
484.282	349.65
484.645	416.04
485.009	441.57
485.372	408.38
485.735	454.34
486.098	421.15
486.46	459.45
486.823	456.9
487.186	400.72
487.549	444.13
487.912	405.83
488.274	462
488.637	387.95
488.999	431.36
489.362	444.13
489.724	439.02
490.087	487.54
490.449	487.54
490.811	421.15
491.174	398.17
491.536	446.68
491.898	382.85
492.26	377.74
492.622	380.29
492.984	446.68
493.346	428.81
493.708	449.23
494.07	441.57
494.432	462
494.794	469.66
495.155	359.87
495.517	426.25
495.879	462
496.24	431.36
496.602	467.11
496.963	477.32
497.325	433.91
497.686	441.57
498.048	416.04
498.409	449.23
498.77	439.02
499.131	505.41
499.492	492.64
499.854	433.91
500.215	472.22
500.576	436.47
500.937	439.02
501.298	472.22
501.658	490.09
502.019	446.68
502.38	418.59
502.741	441.57
503.101	359.87
503.462	405.83
503.823	398.17
504.183	349.65
504.543	359.87
504.904	416.04
505.264	372.63
505.625	405.83
505.985	400.72
506.345	446.68
506.705	459.45
507.065	459.45
507.426	449.23
507.786	446.68
508.146	484.98
508.505	426.25
508.865	518.18
509.225	380.29
509.585	546.26
509.945	352.21
510.304	449.23
510.664	387.95
511.024	385.4
511.383	484.98
511.743	428.81
512.102	421.15
512.462	467.11
512.821	444.13
513.18	413.49
513.539	426.25
513.899	467.11
514.258	479.88
514.617	515.62
514.976	479.88
515.335	321.57
515.694	454.34
516.053	436.47
516.412	413.49
516.771	359.87
517.129	403.27
517.488	428.81
517.847	387.95
518.205	490.09
518.564	456.9
518.922	418.59
519.281	467.11
519.639	431.36
519.998	405.83
520.356	449.23
520.714	385.4
521.073	382.85
521.431	390.51
521.789	530.94
522.147	446.68
522.505	449.23
522.863	413.49
523.221	405.83
523.579	410.93
523.937	372.63
524.295	441.57
524.652	393.06
525.01	408.38
525.368	375.19
525.725	439.02
526.083	477.32
526.44	403.27
526.798	451.79
527.155	454.34
527.513	416.04
527.87	444.13
528.227	474.77
528.584	446.68
528.942	418.59
529.299	469.66
529.656	382.85
530.013	418.59
530.37	387.95
530.727	436.47
531.083	400.72
531.44	387.95
531.797	451.79
532.154	456.9
532.511	495.2
532.867	426.25
533.224	426.25
533.58	436.47
533.937	382.85
534.293	459.45
534.65	418.59
535.006	418.59
535.362	479.88
535.718	444.13
536.075	441.57
536.431	462
536.787	426.25
537.143	446.68
537.499	469.66
537.855	390.51
538.211	380.29
538.567	408.38
538.923	479.88
539.278	410.93
539.634	467.11
539.99	477.32
540.345	416.04
540.701	405.83
541.056	472.22
541.412	439.02
541.767	428.81
542.123	403.27
542.478	444.13
542.833	446.68
543.188	410.93
543.544	395.61
543.899	479.88
544.254	490.09
544.609	479.88
544.964	354.76
545.319	398.17
545.674	456.9
546.029	436.47
546.383	400.72
546.738	510.52
547.093	441.57
547.447	413.49
547.802	444.13
548.157	426.25
548.511	359.87
548.866	395.61
549.22	474.77
549.574	403.27
549.929	413.49
550.283	436.47
550.637	413.49
550.991	372.63
551.345	347.1
551.699	413.49
552.053	408.38
552.407	393.06
552.761	423.7
553.115	472.22
553.469	444.13
553.823	431.36
554.176	479.88
554.53	403.27
554.884	426.25
555.237	668.83
555.591	456.9
555.944	477.32
556.298	413.49
556.651	377.74
557.005	469.66
557.358	382.85
557.711	479.88
558.064	418.59
558.417	472.22
558.771	523.28
559.124	464.56
559.477	431.36
559.83	416.04
560.182	375.19
560.535	380.29
560.888	418.59
561.241	410.93
561.594	433.91
561.946	418.59
562.299	462
562.651	405.83
563.004	364.97
563.356	418.59
563.709	462
564.061	390.51
564.413	413.49
564.766	433.91
565.118	441.57
565.47	451.79
565.822	462
566.174	433.91
566.526	387.95
566.878	416.04
567.23	370.08
567.582	344.55
567.934	387.95
568.286	451.79
568.638	454.34
568.989	375.19
569.341	372.63
569.693	441.57
570.044	451.79
570.396	439.02
570.747	433.91
571.098	418.59
571.45	426.25
571.801	426.25
572.152	405.83
572.504	444.13
572.855	410.93
573.206	423.7
573.557	362.42
573.908	403.27
574.259	367.53
574.61	395.61
574.961	444.13
575.311	444.13
575.662	403.27
576.013	462
576.364	398.17
576.714	423.7
577.065	423.7
577.415	423.7
577.766	446.68
578.116	436.47
578.467	362.42
578.817	357.31
579.167	403.27
579.518	439.02
579.868	444.13
580.218	469.66
580.568	446.68
580.918	459.45
581.268	451.79
581.618	403.27
581.968	395.61
582.318	439.02
582.668	421.15
583.017	436.47
583.367	439.02
583.717	423.7
584.066	426.25
584.416	410.93
584.765	454.34
585.115	405.83
585.464	469.66
585.814	387.95
586.163	451.79
586.512	403.27
586.862	408.38
587.211	426.25
587.56	416.04
587.909	405.83
588.258	433.91
588.607	405.83
588.956	490.09
589.305	408.38
589.654	403.27
590.002	398.17
590.351	433.91
590.7	370.08
591.048	421.15
591.397	464.56
591.746	359.87
592.094	428.81
592.443	441.57
592.791	523.28
593.139	408.38
593.488	405.83
593.836	405.83
594.184	405.83
594.532	380.29
594.88	467.11
595.228	449.23
595.576	382.85
595.924	439.02
596.272	441.57
596.62	454.34
596.968	436.47
597.316	428.81
597.664	390.51
598.011	426.25
598.359	393.06
598.706	428.81
599.054	431.36
599.402	380.29
599.749	428.81
600.096	454.34
600.444	441.57
600.791	451.79
601.138	436.47
601.485	436.47
601.833	454.34
602.18	385.4
602.527	421.15
602.874	433.91
603.221	382.85
603.568	403.27
603.914	439.02
604.261	410.93
604.608	382.85
604.955	500.3
605.301	423.7
605.648	319.01
605.995	375.19
606.341	387.95
606.688	426.25
607.034	444.13
607.38	431.36
607.727	454.34
608.073	502.86
608.419	387.95
608.765	398.17
609.112	385.4
609.458	382.85
609.804	492.64
610.15	487.54
610.496	400.72
610.842	408.38
611.187	464.56
611.533	426.25
611.879	423.7
612.225	421.15
612.57	441.57
612.916	464.56
613.261	444.13
613.607	423.7
613.952	426.25
614.298	426.25
614.643	408.38
614.989	367.53
615.334	469.66
615.679	413.49
616.024	418.59
616.369	467.11
616.714	436.47
617.059	426.25
617.404	439.02
617.749	441.57
618.094	474.77
618.439	408.38
618.784	428.81
619.129	395.61
619.473	395.61
619.818	403.27
620.163	385.4
620.507	441.57
620.852	403.27
621.196	413.49
621.54	459.45
621.885	459.45
622.229	405.83
622.573	464.56
622.918	372.63
623.262	436.47
623.606	410.93
623.95	433.91
624.294	428.81
624.638	423.7
624.982	382.85
625.326	375.19
625.67	367.53
626.013	472.22
626.357	449.23
626.701	387.95
627.044	352.21
627.388	405.83
627.731	441.57
628.075	405.83
628.418	441.57
628.762	408.38
629.105	408.38
629.448	446.68
629.792	469.66
630.135	385.4
630.478	344.55
630.821	400.72
631.164	362.42
631.507	400.72
631.85	382.85
632.193	362.42
632.536	390.51
632.879	413.49
633.221	375.19
633.564	444.13
633.907	372.63
634.249	451.79
634.592	474.77
634.935	474.77
635.277	439.02
635.619	398.17
635.962	405.83
636.304	398.17
636.646	382.85
636.989	375.19
637.331	390.51
637.673	393.06
638.015	441.57
638.357	398.17
638.699	387.95
639.041	426.25
639.383	382.85
639.725	349.65
640.067	410.93
640.408	431.36
640.75	449.23
641.092	403.27
641.433	451.79
641.775	487.54
642.116	410.93
642.458	462
642.799	428.81
643.141	364.97
643.482	398.17
643.823	421.15
644.164	354.76
644.506	472.22
644.847	469.66
645.188	421.15
645.529	446.68
645.87	398.17
646.211	477.32
646.552	395.61
646.893	405.83
647.233	479.88
647.574	416.04
647.915	444.13
648.255	439.02
648.596	393.06
648.937	390.51
649.277	505.41
649.618	464.56
649.958	441.57
650.298	311.35
650.639	416.04
650.979	408.38
651.319	449.23
651.659	400.72
651.999	428.81
652.339	398.17
652.679	426.25
653.019	395.61
653.359	462
653.699	436.47
654.039	451.79
654.379	372.63
654.719	362.42
655.058	359.87
655.398	377.74
655.737	492.64
656.077	377.74
656.416	413.49
656.756	446.68
657.095	380.29
657.435	410.93
657.774	462
658.113	449.23
658.452	347.1
658.792	364.97
659.131	344.55
659.47	400.72
659.809	441.57
660.148	375.19
660.487	341.99
660.826	398.17
661.164	400.72
661.503	395.61
661.842	403.27
662.181	398.17
662.519	400.72
662.858	405.83
663.196	484.98
663.535	387.95
663.873	344.55
664.212	426.25
664.55	398.17
664.888	413.49
665.226	456.9
665.565	408.38
665.903	622.86
666.241	364.97
666.579	423.7
666.917	408.38
667.255	426.25
667.593	431.36
667.931	433.91
668.268	418.59
668.606	395.61
668.944	408.38
669.282	385.4
669.619	387.95
669.957	334.33
670.294	408.38
670.632	426.25
670.969	408.38
671.307	370.08
671.644	418.59
671.981	421.15
672.318	408.38
672.656	451.79
672.993	380.29
673.33	436.47
673.667	441.57
674.004	416.04
674.341	400.72
674.678	410.93
675.015	433.91
675.351	395.61
675.688	403.27
676.025	426.25
676.362	416.04
676.698	393.06
677.035	413.49
677.371	413.49
677.708	433.91
678.044	382.85
678.38	444.13
678.717	398.17
679.053	372.63
679.389	439.02
679.725	428.81
680.062	428.81
680.398	472.22
680.734	474.77
681.07	451.79
681.406	416.04
681.742	416.04
682.077	390.51
682.413	418.59
682.749	395.61
683.085	382.85
683.42	418.59
683.756	431.36
684.091	410.93
684.427	428.81
684.762	439.02
685.098	421.15
685.433	390.51
685.768	390.51
686.104	344.55
686.439	370.08
686.774	405.83
687.109	400.72
687.444	426.25
687.779	439.02
688.114	477.32
688.449	449.23
688.784	467.11
689.119	357.31
689.454	390.51
689.789	423.7
690.123	380.29
690.458	423.7
690.792	380.29
691.127	385.4
691.461	382.85
691.796	410.93
692.13	428.81
692.465	390.51
692.799	469.66
693.133	377.74
693.467	364.97
693.802	482.43
694.136	467.11
694.47	477.32
694.804	477.32
695.138	454.34
695.472	497.75
695.806	444.13
696.139	372.63
696.473	382.85
696.807	418.59
697.141	439.02
697.474	459.45
697.808	433.91
698.141	413.49
698.475	426.25
698.808	390.51
699.142	370.08
699.475	444.13
699.808	362.42
700.142	439.02
700.475	462
700.808	395.61
701.141	398.17
701.474	444.13
701.807	400.72
702.14	364.97
702.473	398.17
702.806	410.93
703.139	449.23
703.472	410.93
703.804	377.74
704.137	426.25
704.47	375.19
704.802	405.83
705.135	426.25
705.467	405.83
705.8	403.27
706.132	393.06
706.464	413.49
706.797	408.38
707.129	444.13
707.461	449.23
707.793	423.7
708.125	408.38
708.457	451.79
708.789	423.7
709.121	436.47
709.453	403.27
709.785	375.19
710.117	380.29
710.449	454.34
710.781	418.59
711.112	418.59
711.444	433.91
711.775	467.11
712.107	423.7
712.438	421.15
712.77	431.36
713.101	428.81
713.433	449.23
713.764	408.38
714.095	446.68
714.426	390.51
714.757	446.68
715.089	364.97
715.42	405.83
715.751	408.38
716.082	349.65
716.412	372.63
716.743	362.42
717.074	428.81
717.405	416.04
717.736	482.43
718.066	433.91
718.397	367.53
718.727	400.72
719.058	423.7
719.388	375.19
719.719	423.7
720.049	446.68
720.38	405.83
720.71	347.1
721.04	377.74
721.37	382.85
721.7	479.88
722.031	382.85
722.361	339.44
722.691	364.97
723.021	372.63
723.35	436.47
723.68	326.67
724.01	375.19
724.34	418.59
724.67	377.74
724.999	474.77
725.329	405.83
725.658	433.91
725.988	400.72
726.317	400.72
726.647	454.34
726.976	403.27
727.306	357.31
727.635	410.93
727.964	375.19
728.293	403.27
728.622	439.02
728.952	400.72
729.281	354.76
729.61	372.63
729.939	423.7
730.267	421.15
730.596	446.68
730.925	382.85
731.254	439.02
731.583	444.13
731.911	451.79
732.24	449.23
732.568	484.98
732.897	446.68
733.225	341.99
733.554	467.11
733.882	410.93
734.21	464.56
734.539	418.59
734.867	362.42
735.195	357.31
735.523	405.83
735.851	428.81
736.179	354.76
736.507	377.74
736.835	456.9
737.163	433.91
737.491	416.04
737.819	398.17
738.147	421.15
738.474	439.02
738.802	408.38
739.13	423.7
739.457	400.72
739.785	400.72
740.112	405.83
740.44	395.61
740.767	449.23
741.094	395.61
741.422	441.57
741.749	372.63
742.076	321.57
742.403	395.61
742.73	464.56
743.057	467.11
743.384	454.34
743.711	413.49
744.038	444.13
744.365	418.59
744.692	352.21
745.018	393.06
745.345	341.99
745.672	382.85
745.998	421.15
746.325	341.99
746.651	387.95
746.978	398.17
747.304	408.38
747.631	405.83
747.957	398.17
748.283	400.72
748.61	426.25
748.936	405.83
749.262	439.02
749.588	467.11
749.914	370.08
750.24	418.59
750.566	367.53
750.892	400.72
751.218	367.53
751.543	395.61
751.869	441.57
752.195	431.36
752.521	405.83
752.846	421.15
753.172	423.7
753.497	451.79
753.823	456.9
754.148	408.38
754.473	446.68
754.799	393.06
755.124	492.64
755.449	387.95
755.774	380.29
756.1	444.13
756.425	490.09
756.75	410.93
757.075	436.47
757.4	604.99
757.724	433.91
758.049	431.36
758.374	359.87
758.699	413.49
759.024	441.57
759.348	428.81
759.673	441.57
759.997	462
760.322	433.91
760.646	426.25
760.971	426.25
761.295	426.25
761.619	436.47
761.944	490.09
762.268	510.52
762.592	474.77
762.916	484.98
763.24	505.41
763.564	502.86
763.888	421.15
764.212	439.02
764.536	582.01
764.86	668.83
765.184	742.87
765.508	809.26
765.831	860.33
766.155	1136.09
766.478	888.42
766.802	832.24
767.126	696.91
767.449	712.23
767.772	875.65
768.096	1130.99
768.419	1358.24
768.742	1483.35
769.066	1659.54
769.389	1485.91
769.712	1511.44
770.035	1365.9
770.358	1090.13
770.681	1026.3
771.004	1128.43
771.327	1437.39
771.65	1715.71
771.972	2108.93
772.295	2670.67
772.618	2818.77
772.941	2670.67
773.263	2295.33
773.586	1766.78
773.908	1485.91
774.231	1228.02
774.553	1332.7
774.875	1695.28
775.198	2458.74
775.52	2895.37
775.842	3255.4
776.164	3145.6
776.487	2867.28
776.809	2328.52
777.131	1899.55
777.453	1470.59
777.775	1325.04
778.096	1603.36
778.418	2198.3
778.74	3091.98
779.062	4200.15
779.384	5341.51
779.705	5435.98
780.027	4782.32
780.348	3870.76
780.67	3178.8
780.991	2371.93
781.313	1897
781.634	1988.92
781.955	2509.81
782.277	3561.8
782.598	4537.19
782.919	5632.59
783.24	6184.12
783.561	5944.1
783.882	5591.74
784.203	4588.26
784.524	3242.63
784.845	2292.77
785.166	2055.31
785.487	2594.07
785.807	3536.27
786.128	4442.72
786.449	5290.44
786.769	6615.64
787.09	7621.67
787.41	7151.85
787.731	5507.48
788.051	3842.67
788.372	2599.18
788.692	2050.2
789.012	2285.11
789.332	3260.5
789.653	4338.03
789.973	5872.61
790.293	7619.12
790.613	8344.28
790.933	8898.36
791.253	7940.85
791.573	6227.53
791.893	4302.28
792.212	2882.6
792.532	2295.33
792.852	2364.27
793.171	3104.75
793.491	4220.57
793.811	5665.79
794.13	7067.59
794.45	7343.36
794.769	7105.89
795.088	6242.85
795.408	4703.16
795.727	3408.6
796.046	2264.69
796.365	2027.22
796.684	2668.12
797.004	3947.36
797.323	5535.56
797.642	7746.79
797.96	9866.09
798.279	10854.25
798.598	10514.65
798.917	9102.63
799.236	6653.94
799.554	4445.27
799.873	2721.74
800.192	1838.27
