Data from 2025-12-03_xpw_interference_micrometer_637_FLMS141361__55__705.txt Node

Date: Wed Dec 03 15:56:10 MST 2025
User: james
Spectrometer: FLMS14136
Trigger mode: 0
Integration Time (sec): 1.000000E-1
Scans to average: 1
Electric dark correction enabled: true
Nonlinearity correction enabled: false
Boxcar width: 0
XAxis mode: Wavelengths
Number of Pixels in Spectrum: 2048
>>>>>Begin Spectral Data<<<<<
339.315	-69.42
339.697	-69.42
340.079	-69.42
340.461	-158.79
340.843	-77.08
341.225	-169
341.607	-66.87
341.989	-107.72
342.371	-59.21
342.752	-23.46
343.134	-54.1
343.516	-84.74
343.897	-38.78
344.279	-31.12
344.661	53.14
345.042	37.82
345.423	63.36
345.805	96.55
346.186	147.62
346.567	111.87
346.949	124.64
347.33	198.68
347.711	124.64
348.092	160.38
348.473	188.47
348.854	203.79
349.235	298.27
349.616	295.71
349.997	272.73
350.378	303.37
350.758	265.07
351.139	321.25
351.52	321.25
351.9	349.33
352.281	298.27
352.661	326.35
353.042	349.33
353.422	308.48
353.803	382.53
354.183	418.28
354.563	311.03
354.943	382.53
355.324	377.42
355.704	364.65
356.084	423.38
356.464	369.76
356.844	385.08
357.224	372.31
357.603	328.91
357.983	359.55
358.363	346.78
358.743	339.12
359.122	344.23
359.502	351.89
359.882	382.53
360.261	382.53
360.641	397.85
361.02	369.76
361.399	415.72
361.779	364.65
362.158	308.48
362.537	321.25
362.916	336.57
363.296	303.37
363.675	344.23
364.054	311.03
364.433	364.65
364.812	362.1
365.19	272.73
365.569	293.16
365.948	323.8
366.327	318.69
366.705	349.33
367.084	344.23
367.463	349.33
367.841	328.91
368.22	346.78
368.598	382.53
368.977	410.62
369.355	367.21
369.733	311.03
370.111	285.5
370.49	344.23
370.868	351.89
371.246	346.78
371.624	318.69
372.002	402.95
372.38	400.4
372.758	395.29
373.136	392.74
373.513	382.53
373.891	395.29
374.269	290.61
374.646	298.27
375.024	318.69
375.402	334.01
375.779	354.44
376.157	374.87
376.534	387.63
376.911	295.71
377.289	323.8
377.666	374.87
378.043	385.08
378.42	351.89
378.797	346.78
379.175	374.87
379.552	395.29
379.929	339.12
380.305	334.01
380.682	423.38
381.059	339.12
381.436	374.87
381.813	285.5
382.189	313.59
382.566	385.08
382.943	336.57
383.319	339.12
383.696	362.1
384.072	359.55
384.448	359.55
384.825	336.57
385.201	326.35
385.577	395.29
385.953	397.85
386.329	326.35
386.706	311.03
387.082	387.63
387.458	374.87
387.834	402.95
388.209	362.1
388.585	395.29
388.961	311.03
389.337	364.65
389.713	415.72
390.088	379.97
390.464	369.76
390.839	405.51
391.215	425.94
391.59	420.83
391.966	423.38
392.341	372.31
392.716	405.51
393.092	390.19
393.467	402.95
393.842	339.12
394.217	385.08
394.592	364.65
394.967	341.67
395.342	303.37
395.717	346.78
396.092	344.23
396.467	420.83
396.841	374.87
397.216	374.87
397.591	372.31
397.965	374.87
398.34	336.57
398.714	369.76
399.089	364.65
399.463	379.97
399.838	364.65
400.212	300.82
400.586	392.74
400.961	359.55
401.335	367.21
401.709	456.58
402.083	400.4
402.457	318.69
402.831	321.25
403.205	387.63
403.579	354.44
403.953	469.34
404.326	413.17
404.7	390.19
405.074	346.78
405.447	344.23
405.821	367.21
406.195	405.51
406.568	377.42
406.942	428.49
407.315	415.72
407.688	402.95
408.062	390.19
408.435	382.53
408.808	387.63
409.181	461.68
409.554	359.55
409.927	372.31
410.3	364.65
410.673	413.17
411.046	402.95
411.419	433.6
411.792	410.62
412.165	431.04
412.537	400.4
412.91	390.19
413.283	395.29
413.655	351.89
414.028	362.1
414.4	387.63
414.773	408.06
415.145	344.23
415.517	415.72
415.889	420.83
416.262	392.74
416.634	331.46
417.006	379.97
417.378	385.08
417.75	377.42
418.122	390.19
418.494	359.55
418.866	428.49
419.238	446.36
419.609	443.81
419.981	397.85
420.353	428.49
420.725	418.28
421.096	334.01
421.468	349.33
421.839	387.63
422.211	367.21
422.582	387.63
422.953	441.26
423.325	423.38
423.696	346.78
424.067	372.31
424.438	433.6
424.809	392.74
425.18	395.29
425.551	423.38
425.922	379.97
426.293	395.29
426.664	379.97
427.035	446.36
427.406	379.97
427.776	448.92
428.147	456.58
428.518	408.06
428.888	328.91
429.259	397.85
429.629	341.67
429.999	395.29
430.37	479.56
430.74	443.81
431.11	402.95
431.481	390.19
431.851	425.94
432.221	448.92
432.591	374.87
432.961	369.76
433.331	372.31
433.701	364.65
434.071	387.63
434.441	415.72
434.81	418.28
435.18	441.26
435.55	420.83
435.919	433.6
436.289	395.29
436.658	372.31
437.028	392.74
437.397	418.28
437.767	369.76
438.136	369.76
438.505	405.51
438.875	425.94
439.244	413.17
439.613	392.74
439.982	382.53
440.351	349.33
440.72	441.26
441.089	349.33
441.458	359.55
441.827	354.44
442.196	423.38
442.564	454.02
442.933	387.63
443.302	351.89
443.67	390.19
444.039	410.62
444.407	390.19
444.776	326.35
445.144	446.36
445.513	418.28
445.881	428.49
446.249	408.06
446.617	377.42
446.986	471.9
447.354	377.42
447.722	454.02
448.09	392.74
448.458	397.85
448.826	459.13
449.194	356.99
449.561	405.51
449.929	410.62
450.297	356.99
450.665	469.34
451.032	428.49
451.4	313.59
451.767	438.7
452.135	351.89
452.502	438.7
452.87	464.24
453.237	379.97
453.604	423.38
453.971	405.51
454.339	428.49
454.706	374.87
455.073	433.6
455.44	405.51
455.807	369.76
456.174	367.21
456.541	405.51
456.908	328.91
457.274	379.97
457.641	387.63
458.008	413.17
458.374	354.44
458.741	438.7
459.108	413.17
459.474	428.49
459.841	364.65
460.207	390.19
460.573	336.57
460.94	390.19
461.306	397.85
461.672	451.47
462.038	413.17
462.404	402.95
462.771	392.74
463.137	413.17
463.503	305.93
463.868	390.19
464.234	400.4
464.6	344.23
464.966	446.36
465.332	392.74
465.697	438.7
466.063	459.13
466.429	461.68
466.794	374.87
467.16	354.44
467.525	448.92
467.89	408.06
468.256	377.42
468.621	405.51
468.986	461.68
469.351	402.95
469.717	423.38
470.082	428.49
470.447	298.27
470.812	418.28
471.177	334.01
471.542	410.62
471.906	459.13
472.271	387.63
472.636	499.98
473.001	461.68
473.365	428.49
473.73	408.06
474.094	448.92
474.459	428.49
474.823	448.92
475.188	408.06
475.552	382.53
475.917	397.85
476.281	428.49
476.645	418.28
477.009	423.38
477.373	349.33
477.737	362.1
478.101	351.89
478.465	397.85
478.829	379.97
479.193	428.49
479.557	385.08
479.921	364.65
480.284	377.42
480.648	443.81
481.012	372.31
481.375	466.79
481.739	364.65
482.102	402.95
482.466	405.51
482.829	456.58
483.193	344.23
483.556	359.55
483.919	374.87
484.282	405.51
484.645	379.97
485.009	420.83
485.372	433.6
485.735	369.76
486.098	415.72
486.46	351.89
486.823	346.78
487.186	349.33
487.549	438.7
487.912	492.32
488.274	313.59
488.637	382.53
488.999	423.38
489.362	367.21
489.724	402.95
490.087	354.44
490.449	364.65
490.811	466.79
491.174	433.6
491.536	410.62
491.898	395.29
492.26	364.65
492.622	344.23
492.984	431.04
493.346	392.74
493.708	466.79
494.07	410.62
494.432	395.29
494.794	402.95
495.155	379.97
495.517	349.33
495.879	413.17
496.24	390.19
496.602	390.19
496.963	397.85
497.325	377.42
497.686	415.72
498.048	443.81
498.409	428.49
498.77	454.02
499.131	413.17
499.492	369.76
499.854	477
500.215	433.6
500.576	400.4
500.937	441.26
501.298	382.53
501.658	415.72
502.019	405.51
502.38	433.6
502.741	433.6
503.101	415.72
503.462	369.76
503.823	364.65
504.183	344.23
504.543	364.65
504.904	379.97
505.264	433.6
505.625	400.4
505.985	431.04
506.345	456.58
506.705	484.66
507.065	425.94
507.426	454.02
507.786	413.17
508.146	344.23
508.505	436.15
508.865	390.19
509.225	446.36
509.585	492.32
509.945	461.68
510.304	456.58
510.664	443.81
511.024	385.08
511.383	367.21
511.743	402.95
512.102	425.94
512.462	431.04
512.821	431.04
513.18	413.17
513.539	410.62
513.899	374.87
514.258	351.89
514.617	428.49
514.976	390.19
515.335	484.66
515.694	395.29
516.053	395.29
516.412	382.53
516.771	397.85
517.129	405.51
517.488	400.4
517.847	415.72
518.205	395.29
518.564	418.28
518.922	379.97
519.281	397.85
519.639	446.36
519.998	415.72
520.356	351.89
520.714	408.06
521.073	433.6
521.431	354.44
521.789	379.97
522.147	446.36
522.505	413.17
522.863	390.19
523.221	405.51
523.579	387.63
523.937	410.62
524.295	385.08
524.652	367.21
525.01	395.29
525.368	438.7
525.725	387.63
526.083	374.87
526.44	382.53
526.798	379.97
527.155	418.28
527.513	346.78
527.87	379.97
528.227	431.04
528.584	397.85
528.942	413.17
529.299	382.53
529.656	413.17
530.013	423.38
530.37	413.17
530.727	415.72
531.083	446.36
531.44	390.19
531.797	415.72
532.154	425.94
532.511	425.94
532.867	390.19
533.224	438.7
533.58	466.79
533.937	415.72
534.293	400.4
534.65	413.17
535.006	387.63
535.362	379.97
535.718	436.15
536.075	443.81
536.431	436.15
536.787	397.85
537.143	387.63
537.499	410.62
537.855	446.36
538.211	446.36
538.567	454.02
538.923	484.66
539.278	418.28
539.634	385.08
539.99	425.94
540.345	431.04
540.701	410.62
541.056	428.49
541.412	415.72
541.767	410.62
542.123	392.74
542.478	382.53
542.833	397.85
543.188	436.15
543.544	402.95
543.899	522.96
544.254	441.26
544.609	397.85
544.964	471.9
545.319	369.76
545.674	469.34
546.029	397.85
546.383	448.92
546.738	362.1
547.093	418.28
547.447	464.24
547.802	433.6
548.157	423.38
548.511	441.26
548.866	397.85
549.22	308.48
549.574	446.36
549.929	492.32
550.283	392.74
550.637	402.95
550.991	402.95
551.345	425.94
551.699	362.1
552.053	400.4
552.407	410.62
552.761	446.36
553.115	466.79
553.469	507.64
553.823	423.38
554.176	402.95
554.53	369.76
554.884	425.94
555.237	614.89
555.591	436.15
555.944	451.47
556.298	336.57
556.651	431.04
557.005	418.28
557.358	431.04
557.711	382.53
558.064	438.7
558.417	392.74
558.771	469.34
559.124	382.53
559.477	466.79
559.83	499.98
560.182	410.62
560.535	464.24
560.888	410.62
561.241	420.83
561.594	372.31
561.946	382.53
562.299	441.26
562.651	433.6
563.004	418.28
563.356	420.83
563.709	441.26
564.061	382.53
564.413	420.83
564.766	392.74
565.118	372.31
565.47	397.85
565.822	425.94
566.174	418.28
566.526	400.4
566.878	441.26
567.23	402.95
567.582	456.58
567.934	367.21
568.286	433.6
568.638	464.24
568.989	405.51
569.341	477
569.693	428.49
570.044	395.29
570.396	436.15
570.747	390.19
571.098	385.08
571.45	428.49
571.801	471.9
572.152	456.58
572.504	408.06
572.855	374.87
573.206	413.17
573.557	413.17
573.908	359.55
574.259	372.31
574.61	400.4
574.961	400.4
575.311	410.62
575.662	413.17
576.013	415.72
576.364	423.38
576.714	316.14
577.065	433.6
577.415	410.62
577.766	425.94
578.116	405.51
578.467	443.81
578.817	374.87
579.167	408.06
579.518	334.01
579.868	415.72
580.218	344.23
580.568	482.11
580.918	423.38
581.268	379.97
581.618	410.62
581.968	405.51
582.318	459.13
582.668	517.86
583.017	448.92
583.367	408.06
583.717	410.62
584.066	367.21
584.416	420.83
584.765	402.95
585.115	459.13
585.464	448.92
585.814	443.81
586.163	397.85
586.512	374.87
586.862	428.49
587.211	454.02
587.56	456.58
587.909	356.99
588.258	379.97
588.607	300.82
588.956	410.62
589.305	425.94
589.654	484.66
590.002	413.17
590.351	379.97
590.7	459.13
591.048	385.08
591.397	390.19
591.746	446.36
592.094	402.95
592.443	397.85
592.791	405.51
593.139	362.1
593.488	415.72
593.836	374.87
594.184	438.7
594.532	451.47
594.88	451.47
595.228	405.51
595.576	405.51
595.924	408.06
596.272	382.53
596.62	484.66
596.968	451.47
597.316	395.29
597.664	428.49
598.011	359.55
598.359	359.55
598.706	372.31
599.054	395.29
599.402	408.06
599.749	443.81
600.096	372.31
600.444	364.65
600.791	415.72
601.138	428.49
601.485	374.87
601.833	451.47
602.18	410.62
602.527	420.83
602.874	377.42
603.221	400.4
603.568	402.95
603.914	423.38
604.261	392.74
604.608	341.67
604.955	464.24
605.301	451.47
605.648	446.36
605.995	420.83
606.341	379.97
606.688	379.97
607.034	372.31
607.38	364.65
607.727	372.31
608.073	408.06
608.419	464.24
608.765	431.04
609.112	364.65
609.458	431.04
609.804	464.24
610.15	349.33
610.496	392.74
610.842	374.87
611.187	459.13
611.533	420.83
611.879	418.28
612.225	436.15
612.57	385.08
612.916	448.92
613.261	433.6
613.607	408.06
613.952	415.72
614.298	349.33
614.643	397.85
614.989	349.33
615.334	387.63
615.679	410.62
616.024	372.31
616.369	408.06
616.714	377.42
617.059	408.06
617.404	418.28
617.749	431.04
618.094	336.57
618.439	392.74
618.784	402.95
619.129	438.7
619.473	387.63
619.818	316.14
620.163	400.4
620.507	405.51
620.852	443.81
621.196	397.85
621.54	387.63
621.885	356.99
622.229	354.44
622.573	369.76
622.918	402.95
623.262	382.53
623.606	448.92
623.95	374.87
624.294	372.31
624.638	400.4
624.982	425.94
625.326	443.81
625.67	374.87
626.013	390.19
626.357	367.21
626.701	405.51
627.044	410.62
627.388	379.97
627.731	402.95
628.075	448.92
628.418	400.4
628.762	372.31
629.105	479.56
629.448	379.97
629.792	408.06
630.135	433.6
630.478	390.19
630.821	433.6
631.164	443.81
631.507	362.1
631.85	313.59
632.193	402.95
632.536	395.29
632.879	364.65
633.221	339.12
633.564	379.97
633.907	420.83
634.249	415.72
634.592	395.29
634.935	454.02
635.277	423.38
635.619	402.95
635.962	385.08
636.304	385.08
636.646	415.72
636.989	405.51
637.331	369.76
637.673	339.12
638.015	415.72
638.357	420.83
638.699	405.51
639.041	397.85
639.383	402.95
639.725	405.51
640.067	413.17
640.408	425.94
640.75	418.28
641.092	379.97
641.433	441.26
641.775	379.97
642.116	420.83
642.458	448.92
642.799	423.38
643.141	351.89
643.482	382.53
643.823	392.74
644.164	341.67
644.506	456.58
644.847	441.26
645.188	410.62
645.529	385.08
645.87	374.87
646.211	431.04
646.552	397.85
646.893	428.49
647.233	415.72
647.574	410.62
647.915	433.6
648.255	326.35
648.596	336.57
648.937	379.97
649.277	382.53
649.618	364.65
649.958	454.02
650.298	346.78
650.639	397.85
650.979	451.47
651.319	456.58
651.659	405.51
651.999	362.1
652.339	408.06
652.679	387.63
653.019	354.44
653.359	379.97
653.699	456.58
654.039	418.28
654.379	448.92
654.719	400.4
655.058	413.17
655.398	461.68
655.737	499.98
656.077	423.38
656.416	418.28
656.756	359.55
657.095	377.42
657.435	356.99
657.774	400.4
658.113	387.63
658.452	367.21
658.792	367.21
659.131	356.99
659.47	377.42
659.809	469.34
660.148	408.06
660.487	454.02
660.826	413.17
661.164	387.63
661.503	408.06
661.842	392.74
662.181	441.26
662.519	431.04
662.858	372.31
663.196	423.38
663.535	405.51
663.873	392.74
664.212	433.6
664.55	359.55
664.888	364.65
665.226	446.36
665.565	425.94
665.903	640.42
666.241	423.38
666.579	456.58
666.917	374.87
667.255	344.23
667.593	436.15
667.931	390.19
668.268	400.4
668.606	374.87
668.944	431.04
669.282	385.08
669.619	433.6
669.957	341.67
670.294	405.51
670.632	356.99
670.969	461.68
671.307	395.29
671.644	446.36
671.981	451.47
672.318	372.31
672.656	382.53
672.993	410.62
673.33	415.72
673.667	331.46
674.004	385.08
674.341	364.65
674.678	433.6
675.015	415.72
675.351	451.47
675.688	400.4
676.025	466.79
676.362	323.8
676.698	369.76
677.035	413.17
677.371	367.21
677.708	415.72
678.044	390.19
678.38	356.99
678.717	364.65
679.053	479.56
679.389	385.08
679.725	362.1
680.062	443.81
680.398	395.29
680.734	372.31
681.07	374.87
681.406	420.83
681.742	405.51
682.077	385.08
682.413	456.58
682.749	451.47
683.085	438.7
683.42	425.94
683.756	379.97
684.091	364.65
684.427	474.45
684.762	356.99
685.098	410.62
685.433	397.85
685.768	405.51
686.104	405.51
686.439	423.38
686.774	418.28
687.109	402.95
687.444	420.83
687.779	405.51
688.114	374.87
688.449	382.53
688.784	441.26
689.119	433.6
689.454	405.51
689.789	410.62
690.123	390.19
690.458	469.34
690.792	395.29
691.127	374.87
691.461	428.49
691.796	351.89
692.13	382.53
692.465	420.83
692.799	400.4
693.133	428.49
693.467	461.68
693.802	431.04
694.136	387.63
694.47	402.95
694.804	387.63
695.138	336.57
695.472	362.1
695.806	377.42
696.139	410.62
696.473	392.74
696.807	392.74
697.141	374.87
697.474	397.85
697.808	336.57
698.141	379.97
698.475	410.62
698.808	425.94
699.142	351.89
699.475	362.1
699.808	402.95
700.142	387.63
700.475	390.19
700.808	425.94
701.141	374.87
701.474	425.94
701.807	489.77
702.14	382.53
702.473	313.59
702.806	405.51
703.139	395.29
703.472	423.38
703.804	374.87
704.137	420.83
704.47	339.12
704.802	339.12
705.135	400.4
705.467	390.19
705.8	443.81
706.132	448.92
706.464	356.99
706.797	408.06
707.129	341.67
707.461	359.55
707.793	367.21
708.125	382.53
708.457	356.99
708.789	379.97
709.121	367.21
709.453	433.6
709.785	395.29
710.117	459.13
710.449	351.89
710.781	413.17
711.112	374.87
711.444	441.26
711.775	438.7
712.107	410.62
712.438	436.15
712.77	415.72
713.101	377.42
713.433	392.74
713.764	402.95
714.095	410.62
714.426	369.76
714.757	413.17
715.089	374.87
715.42	436.15
715.751	392.74
716.082	392.74
716.412	400.4
716.743	390.19
717.074	328.91
717.405	425.94
717.736	405.51
718.066	382.53
718.397	387.63
718.727	428.49
719.058	431.04
719.388	420.83
719.719	420.83
720.049	428.49
720.38	433.6
720.71	331.46
721.04	423.38
721.37	351.89
721.7	377.42
722.031	395.29
722.361	400.4
722.691	379.97
723.021	374.87
723.35	443.81
723.68	369.76
724.01	408.06
724.34	418.28
724.67	492.32
724.999	431.04
725.329	377.42
725.658	489.77
725.988	448.92
726.317	408.06
726.647	392.74
726.976	433.6
727.306	392.74
727.635	428.49
727.964	387.63
728.293	451.47
728.622	446.36
728.952	400.4
729.281	392.74
729.61	428.49
729.939	423.38
730.267	415.72
730.596	377.42
730.925	334.01
731.254	408.06
731.583	390.19
731.911	364.65
732.24	362.1
732.568	364.65
732.897	382.53
733.225	443.81
733.554	303.37
733.882	410.62
734.21	369.76
734.539	369.76
734.867	461.68
735.195	451.47
735.523	397.85
735.851	305.93
736.179	331.46
736.507	336.57
736.835	387.63
737.163	397.85
737.491	341.67
737.819	466.79
738.147	413.17
738.474	387.63
738.802	423.38
739.13	385.08
739.457	420.83
739.785	420.83
740.112	464.24
740.44	395.29
740.767	364.65
741.094	367.21
741.422	428.49
741.749	420.83
742.076	374.87
742.403	385.08
742.73	382.53
743.057	402.95
743.384	367.21
743.711	436.15
744.038	415.72
744.365	492.32
744.692	369.76
745.018	377.42
745.345	369.76
745.672	379.97
745.998	474.45
746.325	464.24
746.651	362.1
746.978	387.63
747.304	464.24
747.631	359.55
747.957	390.19
748.283	369.76
748.61	408.06
748.936	349.33
749.262	408.06
749.588	387.63
749.914	346.78
750.24	392.74
750.566	438.7
750.892	372.31
751.218	402.95
751.543	423.38
751.869	431.04
752.195	387.63
752.521	425.94
752.846	425.94
753.172	420.83
753.497	356.99
753.823	438.7
754.148	420.83
754.473	354.44
754.799	418.28
755.124	392.74
755.449	397.85
755.774	392.74
756.1	344.23
756.425	423.38
756.75	323.8
757.075	433.6
757.4	574.03
757.724	385.08
758.049	379.97
758.374	436.15
758.699	390.19
759.024	438.7
759.348	400.4
759.673	433.6
759.997	400.4
760.322	392.74
760.646	377.42
760.971	397.85
761.295	385.08
761.619	438.7
761.944	538.28
762.268	499.98
762.592	448.92
762.916	400.4
763.24	484.66
763.564	451.47
763.888	474.45
764.212	494.88
764.536	561.26
764.86	558.71
765.184	683.83
765.508	737.45
765.831	798.73
766.155	1117.9
766.478	829.37
766.802	775.75
767.126	668.51
767.449	724.68
767.772	839.58
768.096	1158.75
768.419	1301.74
768.742	1539.21
769.066	1511.12
769.389	1582.62
769.712	1498.35
770.035	1391.11
770.358	1064.28
770.681	964.7
771.004	1071.94
771.327	1375.79
771.65	1649
771.972	2180.11
772.295	2616.73
772.618	2905.27
772.941	2626.95
773.263	2177.55
773.586	1814.97
773.908	1434.52
774.231	1314.51
774.553	1342.6
774.875	1740.93
775.198	2407.36
775.52	2933.35
775.842	3096.77
776.164	3137.62
776.487	2821
776.809	2366.5
777.131	1822.63
777.453	1373.24
777.775	1179.18
778.096	1567.3
778.418	2106.06
778.74	3071.23
779.062	4179.4
779.384	5282.46
779.705	5277.35
780.027	4759.02
780.348	3724.9
780.67	2966.55
780.991	2277.13
781.313	1871.15
781.634	1873.7
781.955	2632.05
782.277	3551.27
782.598	4442.4
782.919	5565.89
783.24	6028.05
783.561	5818.67
783.882	5548.01
784.203	4401.54
784.524	3186.14
784.845	2220.96
785.166	2121.38
785.487	2583.54
785.807	3579.36
786.128	4524.11
786.449	5359.06
786.769	6625.54
787.09	7511.56
787.41	7131.11
787.731	5458.64
788.051	3653.41
788.372	2483.96
788.692	2009.03
789.012	2358.84
789.332	3137.62
789.653	4455.17
789.973	6015.28
790.293	7621.35
790.613	8405.24
790.933	8931.24
791.253	7879.25
791.573	5984.64
791.893	4105.35
792.212	2767.38
792.532	2223.51
792.852	2458.42
793.171	3073.79
793.491	4248.34
793.811	5703.77
794.13	7131.11
794.45	7202.6
794.769	6929.39
795.088	6173.59
795.408	4613.48
795.727	3334.23
796.046	2338.42
796.365	2070.31
796.684	2708.66
797.004	4031.31
797.323	5900.38
797.642	7950.74
797.96	10276.87
798.279	10795.2
798.598	10414.75
798.917	9194.24
799.236	6783.85
799.554	4309.62
