Data from 2025-12-03_xpw_interference_micrometer_637_FLMS141361__41__691.txt Node

Date: Wed Dec 03 15:56:09 MST 2025
User: james
Spectrometer: FLMS14136
Trigger mode: 0
Integration Time (sec): 1.000000E-1
Scans to average: 1
Electric dark correction enabled: true
Nonlinearity correction enabled: false
Boxcar width: 0
XAxis mode: Wavelengths
Number of Pixels in Spectrum: 2048
>>>>>Begin Spectral Data<<<<<
339.315	-51.71
339.697	-51.71
340.079	-51.71
340.461	-105.33
340.843	-125.75
341.225	-77.24
341.607	-141.07
341.989	-120.65
342.371	-44.05
342.752	-54.26
343.134	7.02
343.516	-26.17
343.897	-21.07
344.279	-38.94
344.661	-8.3
345.042	27.45
345.423	17.24
345.805	86.18
346.186	116.82
346.567	121.92
346.949	155.12
347.33	150.01
347.711	201.08
348.092	109.16
348.473	208.74
348.854	234.27
349.235	262.36
349.616	282.79
349.997	338.96
350.378	359.39
350.758	341.51
351.139	338.96
351.52	420.67
351.9	361.94
352.281	367.05
352.661	308.32
353.042	336.41
353.422	387.48
353.803	379.81
354.183	326.19
354.563	331.3
354.943	418.12
355.324	387.48
355.704	392.58
356.084	346.62
356.464	328.75
356.844	433.44
357.224	407.9
357.603	405.35
357.983	413.01
358.363	484.5
358.743	410.46
359.122	361.94
359.502	344.07
359.882	323.64
360.261	374.71
360.641	331.3
361.02	384.92
361.399	338.96
361.779	374.71
362.158	374.71
362.537	354.28
362.916	349.17
363.296	423.22
363.675	323.64
364.054	415.56
364.433	395.14
364.812	402.8
365.19	384.92
365.569	384.92
365.948	349.17
366.327	303.21
366.705	298.11
367.084	328.75
367.463	313.43
367.841	331.3
368.22	338.96
368.598	464.08
368.977	249.59
369.355	293
369.733	328.75
370.111	321.09
370.49	354.28
370.868	328.75
371.246	349.17
371.624	361.94
372.002	364.49
372.38	369.6
372.758	361.94
373.136	413.01
373.513	395.14
373.891	364.49
374.269	367.05
374.646	354.28
375.024	441.1
375.402	313.43
375.779	435.99
376.157	397.69
376.534	374.71
376.911	341.51
377.289	313.43
377.666	359.39
378.043	387.48
378.42	344.07
378.797	333.85
379.175	333.85
379.552	367.05
379.929	361.94
380.305	410.46
380.682	384.92
381.059	415.56
381.436	372.15
381.813	390.03
382.189	382.37
382.566	338.96
382.943	323.64
383.319	338.96
383.696	285.34
384.072	405.35
384.448	382.37
384.825	364.49
385.201	392.58
385.577	407.9
385.953	328.75
386.329	359.39
386.706	395.14
387.082	379.81
387.458	377.26
387.834	367.05
388.209	413.01
388.585	359.39
388.961	315.98
389.337	392.58
389.713	397.69
390.088	420.67
390.464	351.73
390.839	336.41
391.215	359.39
391.59	387.48
391.966	382.37
392.341	364.49
392.716	336.41
393.092	336.41
393.467	372.15
393.842	298.11
394.217	359.39
394.592	356.83
394.967	346.62
395.342	446.2
395.717	372.15
396.092	377.26
396.467	356.83
396.841	392.58
397.216	333.85
397.591	344.07
397.965	402.8
398.34	310.87
398.714	333.85
399.089	344.07
399.463	344.07
399.838	379.81
400.212	379.81
400.586	369.6
400.961	344.07
401.335	318.53
401.709	331.3
402.083	382.37
402.457	392.58
402.831	441.1
403.205	351.73
403.579	379.81
403.953	379.81
404.326	435.99
404.7	346.62
405.074	344.07
405.447	367.05
405.821	397.69
406.195	384.92
406.568	351.73
406.942	425.78
407.315	413.01
407.688	392.58
408.062	379.81
408.435	390.03
408.808	379.81
409.181	400.24
409.554	374.71
409.927	407.9
410.3	402.8
410.673	346.62
411.046	418.12
411.419	333.85
411.792	387.48
412.165	354.28
412.537	361.94
412.91	413.01
413.283	420.67
413.655	438.54
414.028	374.71
414.4	395.14
414.773	369.6
415.145	377.26
415.517	382.37
415.889	415.56
416.262	420.67
416.634	428.33
417.006	346.62
417.378	384.92
417.75	349.17
418.122	351.73
418.494	387.48
418.866	336.41
419.238	344.07
419.609	474.29
419.981	354.28
420.353	397.69
420.725	300.66
421.096	349.17
421.468	359.39
421.839	400.24
422.211	402.8
422.582	441.1
422.953	372.15
423.325	438.54
423.696	402.8
424.067	410.46
424.438	433.44
424.809	410.46
425.18	367.05
425.551	338.96
425.922	341.51
426.293	318.53
426.664	418.12
427.035	392.58
427.406	382.37
427.776	390.03
428.147	428.33
428.518	356.83
428.888	384.92
429.259	349.17
429.629	392.58
429.999	367.05
430.37	315.98
430.74	323.64
431.11	418.12
431.481	369.6
431.851	458.97
432.221	346.62
432.591	430.88
432.961	377.26
433.331	453.86
433.701	448.76
434.071	407.9
434.441	392.58
434.81	372.15
435.18	476.84
435.55	428.33
435.919	372.15
436.289	328.75
436.658	369.6
437.028	420.67
437.397	413.01
437.767	369.6
438.136	428.33
438.505	443.65
438.875	382.37
439.244	517.7
439.613	464.08
439.982	407.9
440.351	374.71
440.72	405.35
441.089	405.35
441.458	390.03
441.827	392.58
442.196	415.56
442.564	456.42
442.933	481.95
443.302	418.12
443.67	369.6
444.039	384.92
444.407	359.39
444.776	372.15
445.144	469.18
445.513	510.04
445.881	456.42
446.249	413.01
446.617	384.92
446.986	479.4
447.354	438.54
447.722	395.14
448.09	410.46
448.458	466.63
448.826	453.86
449.194	346.62
449.561	400.24
449.929	433.44
450.297	446.2
450.665	400.24
451.032	428.33
451.4	377.26
451.767	441.1
452.135	430.88
452.502	453.86
452.87	418.12
453.237	458.97
453.604	433.44
453.971	402.8
454.339	420.67
454.706	458.97
455.073	418.12
455.44	420.67
455.807	323.64
456.174	402.8
456.541	387.48
456.908	372.15
457.274	402.8
457.641	400.24
458.008	435.99
458.374	407.9
458.741	415.56
459.108	441.1
459.474	407.9
459.841	435.99
460.207	413.01
460.573	369.6
460.94	402.8
461.306	453.86
461.672	456.42
462.038	471.74
462.404	392.58
462.771	420.67
463.137	400.24
463.503	405.35
463.868	448.76
464.234	451.31
464.6	402.8
464.966	402.8
465.332	446.2
465.697	433.44
466.063	402.8
466.429	369.6
466.794	430.88
467.16	420.67
467.525	405.35
467.89	435.99
468.256	387.48
468.621	453.86
468.986	453.86
469.351	364.49
469.717	400.24
470.082	397.69
470.447	374.71
470.812	318.53
471.177	344.07
471.542	443.65
471.906	413.01
472.271	395.14
472.636	392.58
473.001	369.6
473.365	471.74
473.73	405.35
474.094	425.78
474.459	359.39
474.823	367.05
475.188	377.26
475.552	430.88
475.917	379.81
476.281	402.8
476.645	402.8
477.009	453.86
477.373	397.69
477.737	397.69
478.101	400.24
478.465	425.78
478.829	374.71
479.193	367.05
479.557	402.8
479.921	407.9
480.284	405.35
480.648	384.92
481.012	448.76
481.375	420.67
481.739	423.22
482.102	420.67
482.466	415.56
482.829	397.69
483.193	418.12
483.556	405.35
483.919	433.44
484.282	410.46
484.645	356.83
485.009	428.33
485.372	481.95
485.735	410.46
486.098	489.61
486.46	367.05
486.823	346.62
487.186	351.73
487.549	351.73
487.912	377.26
488.274	438.54
488.637	382.37
488.999	374.71
489.362	400.24
489.724	372.15
490.087	433.44
490.449	379.81
490.811	400.24
491.174	372.15
491.536	374.71
491.898	420.67
492.26	361.94
492.622	428.33
492.984	430.88
493.346	395.14
493.708	392.58
494.07	405.35
494.432	341.51
494.794	382.37
495.155	420.67
495.517	349.17
495.879	364.49
496.24	318.53
496.602	456.42
496.963	428.33
497.325	382.37
497.686	415.56
498.048	433.44
498.409	364.49
498.77	458.97
499.131	415.56
499.492	400.24
499.854	425.78
500.215	384.92
500.576	438.54
500.937	405.35
501.298	443.65
501.658	410.46
502.019	359.39
502.38	443.65
502.741	405.35
503.101	400.24
503.462	407.9
503.823	453.86
504.183	415.56
504.543	379.81
504.904	418.12
505.264	418.12
505.625	364.49
505.985	379.81
506.345	361.94
506.705	438.54
507.065	443.65
507.426	420.67
507.786	407.9
508.146	395.14
508.505	474.29
508.865	425.78
509.225	331.3
509.585	453.86
509.945	441.1
510.304	446.2
510.664	410.46
511.024	446.2
511.383	410.46
511.743	453.86
512.102	390.03
512.462	453.86
512.821	349.17
513.18	428.33
513.539	451.31
513.899	351.73
514.258	379.81
514.617	387.48
514.976	418.12
515.335	418.12
515.694	354.28
516.053	443.65
516.412	418.12
516.771	479.4
517.129	453.86
517.488	456.42
517.847	461.52
518.205	515.14
518.564	458.97
518.922	400.24
519.281	430.88
519.639	428.33
519.998	451.31
520.356	438.54
520.714	397.69
521.073	402.8
521.431	510.04
521.789	438.54
522.147	361.94
522.505	453.86
522.863	420.67
523.221	310.87
523.579	377.26
523.937	379.81
524.295	415.56
524.652	377.26
525.01	395.14
525.368	428.33
525.725	453.86
526.083	435.99
526.44	428.33
526.798	384.92
527.155	428.33
527.513	354.28
527.87	374.71
528.227	372.15
528.584	405.35
528.942	407.9
529.299	435.99
529.656	405.35
530.013	395.14
530.37	430.88
530.727	413.01
531.083	354.28
531.44	359.39
531.797	395.14
532.154	361.94
532.511	435.99
532.867	441.1
533.224	367.05
533.58	400.24
533.937	374.71
534.293	405.35
534.65	464.08
535.006	407.9
535.362	387.48
535.718	384.92
536.075	400.24
536.431	425.78
536.787	428.33
537.143	453.86
537.499	384.92
537.855	448.76
538.211	379.81
538.567	382.37
538.923	446.2
539.278	446.2
539.634	423.22
539.99	464.08
540.345	430.88
540.701	379.81
541.056	400.24
541.412	441.1
541.767	400.24
542.123	367.05
542.478	458.97
542.833	458.97
543.188	469.18
543.544	413.01
543.899	433.44
544.254	397.69
544.609	418.12
544.964	407.9
545.319	487.06
545.674	435.99
546.029	356.83
546.383	331.3
546.738	377.26
547.093	338.96
547.447	405.35
547.802	382.37
548.157	410.46
548.511	356.83
548.866	438.54
549.22	435.99
549.574	476.84
549.929	433.44
550.283	453.86
550.637	413.01
550.991	395.14
551.345	420.67
551.699	390.03
552.053	405.35
552.407	451.31
552.761	441.1
553.115	438.54
553.469	458.97
553.823	425.78
554.176	402.8
554.53	367.05
554.884	372.15
555.237	698.99
555.591	441.1
555.944	405.35
556.298	397.69
556.651	430.88
557.005	420.67
557.358	377.26
557.711	400.24
558.064	484.5
558.417	423.22
558.771	545.78
559.124	469.18
559.477	387.48
559.83	395.14
560.182	425.78
560.535	435.99
560.888	448.76
561.241	402.8
561.594	441.1
561.946	441.1
562.299	446.2
562.651	413.01
563.004	435.99
563.356	474.29
563.709	453.86
564.061	359.39
564.413	405.35
564.766	502.38
565.118	456.42
565.47	425.78
565.822	407.9
566.174	420.67
566.526	346.62
566.878	410.46
567.23	400.24
567.582	402.8
567.934	438.54
568.286	438.54
568.638	428.33
568.989	443.65
569.341	400.24
569.693	413.01
570.044	351.73
570.396	418.12
570.747	410.46
571.098	351.73
571.45	374.71
571.801	451.31
572.152	433.44
572.504	407.9
572.855	420.67
573.206	425.78
573.557	453.86
573.908	451.31
574.259	397.69
574.61	392.58
574.961	476.84
575.311	492.16
575.662	392.58
576.013	372.15
576.364	400.24
576.714	400.24
577.065	402.8
577.415	451.31
577.766	435.99
578.116	361.94
578.467	387.48
578.817	395.14
579.167	397.69
579.518	333.85
579.868	344.07
580.218	367.05
580.568	384.92
580.918	423.22
581.268	400.24
581.618	435.99
581.968	367.05
582.318	395.14
582.668	430.88
583.017	443.65
583.367	425.78
583.717	392.58
584.066	333.85
584.416	387.48
584.765	405.35
585.115	333.85
585.464	390.03
585.814	425.78
586.163	402.8
586.512	354.28
586.862	369.6
587.211	367.05
587.56	395.14
587.909	435.99
588.258	446.2
588.607	361.94
588.956	433.44
589.305	435.99
589.654	461.52
590.002	441.1
590.351	451.31
590.7	379.81
591.048	333.85
591.397	377.26
591.746	321.09
592.094	305.77
592.443	331.3
592.791	405.35
593.139	433.44
593.488	354.28
593.836	392.58
594.184	461.52
594.532	338.96
594.88	410.46
595.228	364.49
595.576	420.67
595.924	428.33
596.272	372.15
596.62	413.01
596.968	415.56
597.316	377.26
597.664	336.41
598.011	359.39
598.359	395.14
598.706	441.1
599.054	484.5
599.402	367.05
599.749	397.69
600.096	430.88
600.444	392.58
600.791	390.03
601.138	382.37
601.485	423.22
601.833	356.83
602.18	359.39
602.527	407.9
602.874	390.03
603.221	405.35
603.568	423.22
603.914	474.29
604.261	438.54
604.608	438.54
604.955	410.46
605.301	430.88
605.648	410.46
605.995	438.54
606.341	341.51
606.688	418.12
607.034	438.54
607.38	382.37
607.727	407.9
608.073	390.03
608.419	413.01
608.765	458.97
609.112	415.56
609.458	402.8
609.804	387.48
610.15	410.46
610.496	361.94
610.842	410.46
611.187	369.6
611.533	367.05
611.879	418.12
612.225	420.67
612.57	387.48
612.916	392.58
613.261	433.44
613.607	413.01
613.952	397.69
614.298	392.58
614.643	374.71
614.989	364.49
615.334	384.92
615.679	402.8
616.024	395.14
616.369	415.56
616.714	430.88
617.059	405.35
617.404	425.78
617.749	400.24
618.094	446.2
618.439	433.44
618.784	435.99
619.129	400.24
619.473	372.15
619.818	415.56
620.163	456.42
620.507	461.52
620.852	367.05
621.196	400.24
621.54	359.39
621.885	344.07
622.229	484.5
622.573	428.33
622.918	392.58
623.262	423.22
623.606	476.84
623.95	384.92
624.294	448.76
624.638	446.2
624.982	395.14
625.326	415.56
625.67	425.78
626.013	423.22
626.357	338.96
626.701	420.67
627.044	384.92
627.388	364.49
627.731	400.24
628.075	397.69
628.418	428.33
628.762	420.67
629.105	446.2
629.448	407.9
629.792	387.48
630.135	382.37
630.478	453.86
630.821	395.14
631.164	448.76
631.507	382.37
631.85	400.24
632.193	466.63
632.536	364.49
632.879	356.83
633.221	395.14
633.564	351.73
633.907	430.88
634.249	481.95
634.592	351.73
634.935	390.03
635.277	395.14
635.619	407.9
635.962	428.33
636.304	395.14
636.646	377.26
636.989	395.14
637.331	382.37
637.673	413.01
638.015	390.03
638.357	428.33
638.699	410.46
639.041	405.35
639.383	461.52
639.725	387.48
640.067	443.65
640.408	372.15
640.75	354.28
641.092	351.73
641.433	464.08
641.775	400.24
642.116	435.99
642.458	466.63
642.799	461.52
643.141	390.03
643.482	361.94
643.823	323.64
644.164	374.71
644.506	469.18
644.847	382.37
645.188	390.03
645.529	451.31
645.87	420.67
646.211	377.26
646.552	369.6
646.893	402.8
647.233	372.15
647.574	423.22
647.915	367.05
648.255	407.9
648.596	425.78
648.937	405.35
649.277	379.81
649.618	423.22
649.958	413.01
650.298	364.49
650.639	400.24
650.979	382.37
651.319	390.03
651.659	390.03
651.999	379.81
652.339	392.58
652.679	318.53
653.019	402.8
653.359	438.54
653.699	504.93
654.039	435.99
654.379	438.54
654.719	359.39
655.058	326.19
655.398	461.52
655.737	420.67
656.077	372.15
656.416	377.26
656.756	433.44
657.095	423.22
657.435	413.01
657.774	400.24
658.113	499.82
658.452	405.35
658.792	390.03
659.131	405.35
659.47	428.33
659.809	387.48
660.148	466.63
660.487	397.69
660.826	379.81
661.164	326.19
661.503	402.8
661.842	415.56
662.181	397.69
662.519	377.26
662.858	402.8
663.196	364.49
663.535	390.03
663.873	361.94
664.212	356.83
664.55	344.07
664.888	379.81
665.226	377.26
665.565	400.24
665.903	607.07
666.241	425.78
666.579	377.26
666.917	377.26
667.255	382.37
667.593	395.14
667.931	456.42
668.268	392.58
668.606	387.48
668.944	410.46
669.282	400.24
669.619	446.2
669.957	420.67
670.294	372.15
670.632	397.69
670.969	423.22
671.307	415.56
671.644	438.54
671.981	400.24
672.318	418.12
672.656	374.71
672.993	400.24
673.33	346.62
673.667	387.48
674.004	382.37
674.341	379.81
674.678	402.8
675.015	387.48
675.351	387.48
675.688	354.28
676.025	377.26
676.362	420.67
676.698	346.62
677.035	407.9
677.371	446.2
677.708	407.9
678.044	428.33
678.38	367.05
678.717	392.58
679.053	425.78
679.389	387.48
679.725	438.54
680.062	346.62
680.398	364.49
680.734	425.78
681.07	367.05
681.406	356.83
681.742	372.15
682.077	420.67
682.413	420.67
682.749	372.15
683.085	413.01
683.42	374.71
683.756	382.37
684.091	377.26
684.427	384.92
684.762	277.68
685.098	354.28
685.433	425.78
685.768	397.69
686.104	430.88
686.439	336.41
686.774	405.35
687.109	359.39
687.444	438.54
687.779	377.26
688.114	428.33
688.449	374.71
688.784	377.26
689.119	300.66
689.454	443.65
689.789	351.73
690.123	446.2
690.458	448.76
690.792	471.74
691.127	384.92
691.461	369.6
691.796	333.85
692.13	407.9
692.465	428.33
692.799	384.92
693.133	443.65
693.467	379.81
693.802	438.54
694.136	407.9
694.47	456.42
694.804	415.56
695.138	407.9
695.472	351.73
695.806	387.48
696.139	446.2
696.473	430.88
696.807	361.94
697.141	461.52
697.474	423.22
697.808	400.24
698.141	438.54
698.475	415.56
698.808	433.44
699.142	390.03
699.475	458.97
699.808	361.94
700.142	374.71
700.475	481.95
700.808	453.86
701.141	407.9
701.474	369.6
701.807	390.03
702.14	387.48
702.473	395.14
702.806	433.44
703.139	397.69
703.472	438.54
703.804	367.05
704.137	379.81
704.47	338.96
704.802	418.12
705.135	377.26
705.467	382.37
705.8	361.94
706.132	356.83
706.464	413.01
706.797	397.69
707.129	425.78
707.461	390.03
707.793	423.22
708.125	374.71
708.457	367.05
708.789	303.21
709.121	387.48
709.453	395.14
709.785	400.24
710.117	397.69
710.449	374.71
710.781	458.97
711.112	410.46
711.444	382.37
711.775	423.22
712.107	476.84
712.438	433.44
712.77	397.69
713.101	369.6
713.433	405.35
713.764	425.78
714.095	441.1
714.426	448.76
714.757	499.82
715.089	390.03
715.42	384.92
715.751	372.15
716.082	402.8
716.412	407.9
716.743	407.9
717.074	369.6
717.405	354.28
717.736	405.35
718.066	402.8
718.397	453.86
718.727	443.65
719.058	390.03
719.388	400.24
719.719	384.92
720.049	379.81
720.38	420.67
720.71	382.37
721.04	397.69
721.37	405.35
721.7	367.05
722.031	305.77
722.361	395.14
722.691	367.05
723.021	410.46
723.35	428.33
723.68	438.54
724.01	481.95
724.34	377.26
724.67	407.9
724.999	387.48
725.329	428.33
725.658	433.44
725.988	402.8
726.317	418.12
726.647	387.48
726.976	382.37
727.306	354.28
727.635	435.99
727.964	433.44
728.293	402.8
728.622	379.81
728.952	420.67
729.281	425.78
729.61	405.35
729.939	364.49
730.267	402.8
730.596	448.76
730.925	344.07
731.254	395.14
731.583	425.78
731.911	364.49
732.24	351.73
732.568	395.14
732.897	328.75
733.225	379.81
733.554	456.42
733.882	410.46
734.21	395.14
734.539	418.12
734.867	418.12
735.195	374.71
735.523	413.01
735.851	420.67
736.179	428.33
736.507	351.73
736.835	430.88
737.163	400.24
737.491	392.58
737.819	336.41
738.147	364.49
738.474	464.08
738.802	438.54
739.13	384.92
739.457	423.22
739.785	487.06
740.112	338.96
740.44	387.48
740.767	374.71
741.094	344.07
741.422	338.96
741.749	387.48
742.076	361.94
742.403	384.92
742.73	379.81
743.057	372.15
743.384	397.69
743.711	405.35
744.038	507.48
744.365	515.14
744.692	344.07
745.018	392.58
745.345	430.88
745.672	395.14
745.998	446.2
746.325	456.42
746.651	415.56
746.978	407.9
747.304	379.81
747.631	359.39
747.957	405.35
748.283	390.03
748.61	382.37
748.936	407.9
749.262	321.09
749.588	318.53
749.914	392.58
750.24	364.49
750.566	367.05
750.892	430.88
751.218	453.86
751.543	430.88
751.869	425.78
752.195	331.3
752.521	346.62
752.846	395.14
753.172	413.01
753.497	410.46
753.823	395.14
754.148	428.33
754.473	410.46
754.799	461.52
755.124	469.18
755.449	456.42
755.774	458.97
756.1	428.33
756.425	377.26
756.75	377.26
757.075	461.52
757.4	576.43
757.724	361.94
758.049	458.97
758.374	402.8
758.699	382.37
759.024	400.24
759.348	476.84
759.673	351.73
759.997	425.78
760.322	446.2
760.646	464.08
760.971	405.35
761.295	441.1
761.619	507.48
761.944	502.38
762.268	456.42
762.592	584.09
762.916	607.07
763.24	456.42
763.564	469.18
763.888	487.06
764.212	535.57
764.536	543.23
764.86	635.15
765.184	698.99
765.508	875.17
765.831	864.96
766.155	1219.88
766.478	1046.25
766.802	895.6
767.126	788.36
767.449	681.11
767.772	844.53
768.096	1048.8
768.419	1350.1
768.742	1556.92
769.066	1615.65
769.389	1656.5
769.712	1666.72
770.035	1470.11
770.358	1263.28
770.681	1046.25
771.004	1046.25
771.327	1311.8
771.65	1761.19
771.972	2116.11
772.295	2774.88
772.618	3127.25
772.941	3055.76
773.263	2529.76
773.586	2179.95
773.908	1784.17
774.231	1521.17
774.553	1322.01
774.875	1712.68
775.198	2320.38
775.52	2922.98
775.842	3436.21
776.164	3382.59
776.487	3234.49
776.809	2828.5
777.131	2261.65
777.453	1636.08
777.775	1357.76
778.096	1462.45
778.418	2088.02
778.74	3071.08
779.062	4421.81
779.384	5519.76
779.705	5882.34
780.027	5491.68
780.348	4592.89
780.67	3655.8
780.991	2779.99
781.313	2082.92
781.634	1978.23
781.955	2529.76
782.277	3456.64
782.598	4493.31
782.919	5989.59
783.24	6666.23
783.561	6712.19
783.882	6467.07
784.203	5494.23
784.524	3821.77
784.845	2560.4
785.166	2174.84
785.487	2603.81
785.807	3502.6
786.128	4529.05
786.449	5634.67
786.769	7250.96
787.09	8405.08
787.41	8165.06
787.731	6502.82
788.051	4587.78
788.372	3022.56
788.692	2215.69
789.012	2391.88
789.332	3127.25
789.653	4319.68
789.973	6020.23
790.293	7817.81
790.613	8900.44
790.933	9967.75
791.253	9222.16
791.573	7350.54
791.893	5149.53
792.212	3469.4
792.532	2547.63
792.852	2471.03
793.171	3045.54
793.491	4146.05
793.811	5777.66
794.13	7345.43
794.45	8134.42
794.769	7873.98
795.088	7256.06
795.408	5517.21
795.727	4166.47
796.046	2815.74
796.365	2271.87
796.684	2560.4
797.004	3757.93
797.323	5453.38
797.642	7815.25
797.96	10215.43
798.279	11338.91
798.598	11555.95
798.917	10555.03
799.236	7873.98
799.554	5376.78
799.873	3354.5
800.192	2136.54
