Data from 2025-12-03_xpw_interference_micrometer_637_FLMS141361__77__727.txt Node

Date: Wed Dec 03 15:56:13 MST 2025
User: james
Spectrometer: FLMS14136
Trigger mode: 0
Integration Time (sec): 1.000000E-1
Scans to average: 1
Electric dark correction enabled: true
Nonlinearity correction enabled: false
Boxcar width: 0
XAxis mode: Wavelengths
Number of Pixels in Spectrum: 2048
>>>>>Begin Spectral Data<<<<<
339.315	-4.31
339.697	-4.31
340.079	-4.31
340.461	-170.28
340.843	-167.73
341.225	-137.08
341.607	-149.85
341.989	-98.78
342.371	-101.34
342.752	-60.48
343.134	-34.95
343.516	-4.31
343.897	-9.42
344.279	-57.93
344.661	-1.76
345.042	31.44
345.423	72.29
345.805	136.13
346.186	102.93
346.567	131.02
346.949	182.09
347.33	141.23
347.711	154
348.092	187.19
348.473	192.3
348.854	238.26
349.235	253.58
349.616	294.44
349.997	332.74
350.378	289.33
350.758	307.2
351.139	355.72
351.52	360.82
351.9	317.42
352.281	342.95
352.661	340.4
353.042	417
353.422	414.45
353.803	417
354.183	348.06
354.563	383.8
354.943	442.53
355.324	419.55
355.704	411.89
356.084	360.82
356.464	399.12
356.844	404.23
357.224	294.44
357.603	419.55
357.983	394.02
358.363	401.68
358.743	399.12
359.122	360.82
359.502	396.57
359.882	363.38
360.261	373.59
360.641	386.36
361.02	373.59
361.399	330.18
361.779	332.74
362.158	368.48
362.537	340.4
362.916	383.8
363.296	358.27
363.675	322.52
364.054	391.46
364.433	363.38
364.812	353.16
365.19	330.18
365.569	399.12
365.948	332.74
366.327	342.95
366.705	337.84
367.084	353.16
367.463	258.69
367.841	348.06
368.22	327.63
368.598	360.82
368.977	342.95
369.355	383.8
369.733	319.97
370.111	325.08
370.49	337.84
370.868	363.38
371.246	353.16
371.624	353.16
372.002	350.61
372.38	309.76
372.758	358.27
373.136	302.1
373.513	353.16
373.891	327.63
374.269	312.31
374.646	422.11
375.024	383.8
375.402	353.16
375.779	401.68
376.157	373.59
376.534	327.63
376.911	363.38
377.289	429.77
377.666	378.7
378.043	373.59
378.42	365.93
378.797	378.7
379.175	319.97
379.552	365.93
379.929	358.27
380.305	371.04
380.682	391.46
381.059	378.7
381.436	411.89
381.813	309.76
382.189	373.59
382.566	342.95
382.943	340.4
383.319	378.7
383.696	332.74
384.072	404.23
384.448	394.02
384.825	399.12
385.201	371.04
385.577	296.99
385.953	373.59
386.329	332.74
386.706	371.04
387.082	383.8
387.458	422.11
387.834	394.02
388.209	383.8
388.585	373.59
388.961	358.27
389.337	332.74
389.713	353.16
390.088	363.38
390.464	419.55
390.839	309.76
391.215	414.45
391.59	399.12
391.966	414.45
392.341	371.04
392.716	358.27
393.092	419.55
393.467	391.46
393.842	388.91
394.217	439.98
394.592	411.89
394.967	437.43
395.342	373.59
395.717	350.61
396.092	401.68
396.467	424.66
396.841	350.61
397.216	409.34
397.591	342.95
397.965	394.02
398.34	429.77
398.714	419.55
399.089	462.96
399.463	383.8
399.838	414.45
400.212	340.4
400.586	422.11
400.961	485.94
401.335	419.55
401.709	383.8
402.083	353.16
402.457	404.23
402.831	363.38
403.205	391.46
403.579	388.91
403.953	404.23
404.326	368.48
404.7	373.59
405.074	414.45
405.447	376.14
405.821	465.51
406.195	381.25
406.568	373.59
406.942	429.77
407.315	452.75
407.688	460.41
408.062	388.91
408.435	363.38
408.808	401.68
409.181	394.02
409.554	365.93
409.927	371.04
410.3	424.66
410.673	439.98
411.046	424.66
411.419	411.89
411.792	378.7
412.165	394.02
412.537	284.22
412.91	317.42
413.283	322.52
413.655	381.25
414.028	322.52
414.4	391.46
414.773	437.43
415.145	368.48
415.517	363.38
415.889	348.06
416.262	383.8
416.634	391.46
417.006	437.43
417.378	378.7
417.75	457.85
418.122	445.09
418.494	455.3
418.866	483.39
419.238	411.89
419.609	401.68
419.981	312.31
420.353	353.16
420.725	317.42
421.096	465.51
421.468	404.23
421.839	429.77
422.211	388.91
422.582	411.89
422.953	409.34
423.325	388.91
423.696	360.82
424.067	371.04
424.438	358.27
424.809	371.04
425.18	432.32
425.551	368.48
425.922	399.12
426.293	376.14
426.664	348.06
427.035	419.55
427.406	422.11
427.776	462.96
428.147	381.25
428.518	462.96
428.888	417
429.259	342.95
429.629	404.23
429.999	445.09
430.37	419.55
430.74	411.89
431.11	342.95
431.481	404.23
431.851	404.23
432.221	417
432.591	434.87
432.961	465.51
433.331	414.45
433.701	424.66
434.071	427.21
434.441	439.98
434.81	353.16
435.18	353.16
435.55	358.27
435.919	365.93
436.289	478.28
436.658	373.59
437.028	348.06
437.397	391.46
437.767	391.46
438.136	406.79
438.505	460.41
438.875	432.32
439.244	465.51
439.613	460.41
439.982	442.53
440.351	345.5
440.72	373.59
441.089	414.45
441.458	365.93
441.827	404.23
442.196	406.79
442.564	531.9
442.933	394.02
443.302	345.5
443.67	414.45
444.039	345.5
444.407	263.8
444.776	388.91
445.144	330.18
445.513	399.12
445.881	452.75
446.249	422.11
446.617	396.57
446.986	455.3
447.354	396.57
447.722	404.23
448.09	434.87
448.458	427.21
448.826	419.55
449.194	442.53
449.561	394.02
449.929	353.16
450.297	396.57
450.665	340.4
451.032	424.66
451.4	414.45
451.767	409.34
452.135	457.85
452.502	424.66
452.87	450.19
453.237	409.34
453.604	360.82
453.971	417
454.339	353.16
454.706	401.68
455.073	432.32
455.44	470.62
455.807	488.49
456.174	383.8
456.541	363.38
456.908	409.34
457.274	442.53
457.641	396.57
458.008	358.27
458.374	470.62
458.741	391.46
459.108	394.02
459.474	376.14
459.841	386.36
460.207	437.43
460.573	465.51
460.94	434.87
461.306	422.11
461.672	411.89
462.038	442.53
462.404	439.98
462.771	445.09
463.137	419.55
463.503	378.7
463.868	399.12
464.234	483.39
464.6	439.98
464.966	452.75
465.332	381.25
465.697	406.79
466.063	434.87
466.429	417
466.794	409.34
467.16	399.12
467.525	381.25
467.89	348.06
468.256	386.36
468.621	406.79
468.986	376.14
469.351	399.12
469.717	422.11
470.082	401.68
470.447	457.85
470.812	381.25
471.177	427.21
471.542	404.23
471.906	368.48
472.271	396.57
472.636	455.3
473.001	386.36
473.365	383.8
473.73	391.46
474.094	401.68
474.459	480.83
474.823	371.04
475.188	348.06
475.552	439.98
475.917	434.87
476.281	411.89
476.645	419.55
477.009	360.82
477.373	330.18
477.737	409.34
478.101	409.34
478.465	391.46
478.829	424.66
479.193	429.77
479.557	376.14
479.921	437.43
480.284	414.45
480.648	353.16
481.012	391.46
481.375	376.14
481.739	391.46
482.102	337.84
482.466	378.7
482.829	475.73
483.193	478.28
483.556	394.02
483.919	401.68
484.282	417
484.645	455.3
485.009	381.25
485.372	383.8
485.735	383.8
486.098	427.21
486.46	424.66
486.823	439.98
487.186	404.23
487.549	368.48
487.912	427.21
488.274	388.91
488.637	447.64
488.999	439.98
489.362	376.14
489.724	452.75
490.087	376.14
490.449	401.68
490.811	432.32
491.174	422.11
491.536	337.84
491.898	493.6
492.26	434.87
492.622	465.51
492.984	445.09
493.346	406.79
493.708	353.16
494.07	337.84
494.432	373.59
494.794	439.98
495.155	314.86
495.517	399.12
495.879	432.32
496.24	399.12
496.602	442.53
496.963	452.75
497.325	381.25
497.686	419.55
498.048	432.32
498.409	419.55
498.77	373.59
499.131	348.06
499.492	396.57
499.854	312.31
500.215	381.25
500.576	439.98
500.937	371.04
501.298	406.79
501.658	383.8
502.019	358.27
502.38	457.85
502.741	419.55
503.101	371.04
503.462	399.12
503.823	386.36
504.183	422.11
504.543	437.43
504.904	404.23
505.264	386.36
505.625	417
505.985	373.59
506.345	345.5
506.705	409.34
507.065	437.43
507.426	422.11
507.786	373.59
508.146	427.21
508.505	411.89
508.865	381.25
509.225	470.62
509.585	521.69
509.945	447.64
510.304	455.3
510.664	429.77
511.024	335.29
511.383	401.68
511.743	422.11
512.102	445.09
512.462	422.11
512.821	488.49
513.18	429.77
513.539	455.3
513.899	383.8
514.258	445.09
514.617	432.32
514.976	427.21
515.335	429.77
515.694	409.34
516.053	455.3
516.412	404.23
516.771	442.53
517.129	422.11
517.488	335.29
517.847	399.12
518.205	358.27
518.564	414.45
518.922	404.23
519.281	401.68
519.639	396.57
519.998	345.5
520.356	394.02
520.714	470.62
521.073	439.98
521.431	391.46
521.789	457.85
522.147	419.55
522.505	422.11
522.863	386.36
523.221	348.06
523.579	457.85
523.937	457.85
524.295	409.34
524.652	376.14
525.01	340.4
525.368	396.57
525.725	406.79
526.083	365.93
526.44	376.14
526.798	317.42
527.155	376.14
527.513	417
527.87	447.64
528.227	442.53
528.584	391.46
528.942	391.46
529.299	411.89
529.656	401.68
530.013	485.94
530.37	424.66
530.727	383.8
531.083	434.87
531.44	419.55
531.797	394.02
532.154	414.45
532.511	363.38
532.867	358.27
533.224	422.11
533.58	414.45
533.937	429.77
534.293	414.45
534.65	452.75
535.006	373.59
535.362	383.8
535.718	411.89
536.075	388.91
536.431	358.27
536.787	419.55
537.143	445.09
537.499	383.8
537.855	422.11
538.211	401.68
538.567	391.46
538.923	394.02
539.278	378.7
539.634	455.3
539.99	342.95
540.345	419.55
540.701	439.98
541.056	422.11
541.412	404.23
541.767	414.45
542.123	411.89
542.478	432.32
542.833	460.41
543.188	404.23
543.544	434.87
543.899	419.55
544.254	399.12
544.609	437.43
544.964	327.63
545.319	460.41
545.674	365.93
546.029	371.04
546.383	340.4
546.738	401.68
547.093	437.43
547.447	462.96
547.802	434.87
548.157	424.66
548.511	388.91
548.866	422.11
549.22	409.34
549.574	388.91
549.929	302.1
550.283	391.46
550.637	378.7
550.991	340.4
551.345	350.61
551.699	383.8
552.053	388.91
552.407	427.21
552.761	434.87
553.115	394.02
553.469	404.23
553.823	376.14
554.176	478.28
554.53	460.41
554.884	439.98
555.237	710.64
555.591	473.17
555.944	437.43
556.298	447.64
556.651	483.39
557.005	388.91
557.358	353.16
557.711	452.75
558.064	406.79
558.417	496.15
558.771	544.67
559.124	383.8
559.477	429.77
559.83	488.49
560.182	368.48
560.535	414.45
560.888	358.27
561.241	417
561.594	427.21
561.946	417
562.299	409.34
562.651	432.32
563.004	386.36
563.356	488.49
563.709	473.17
564.061	447.64
564.413	434.87
564.766	432.32
565.118	376.14
565.47	414.45
565.822	401.68
566.174	434.87
566.526	383.8
566.878	345.5
567.23	337.84
567.582	460.41
567.934	409.34
568.286	429.77
568.638	432.32
568.989	452.75
569.341	437.43
569.693	411.89
570.044	422.11
570.396	419.55
570.747	373.59
571.098	340.4
571.45	434.87
571.801	414.45
572.152	355.72
572.504	404.23
572.855	404.23
573.206	404.23
573.557	424.66
573.908	406.79
574.259	394.02
574.61	419.55
574.961	429.77
575.311	419.55
575.662	432.32
576.013	383.8
576.364	427.21
576.714	355.72
577.065	422.11
577.415	455.3
577.766	434.87
578.116	371.04
578.467	391.46
578.817	373.59
579.167	409.34
579.518	373.59
579.868	439.98
580.218	404.23
580.568	424.66
580.918	365.93
581.268	404.23
581.618	447.64
581.968	434.87
582.318	399.12
582.668	401.68
583.017	368.48
583.367	437.43
583.717	450.19
584.066	422.11
584.416	358.27
584.765	401.68
585.115	457.85
585.464	478.28
585.814	394.02
586.163	371.04
586.512	414.45
586.862	396.57
587.211	422.11
587.56	388.91
587.909	419.55
588.258	445.09
588.607	391.46
588.956	445.09
589.305	396.57
589.654	417
590.002	399.12
590.351	409.34
590.7	511.47
591.048	432.32
591.397	396.57
591.746	386.36
592.094	340.4
592.443	345.5
592.791	388.91
593.139	360.82
593.488	391.46
593.836	378.7
594.184	406.79
594.532	457.85
594.88	465.51
595.228	429.77
595.576	422.11
595.924	462.96
596.272	406.79
596.62	399.12
596.968	396.57
597.316	358.27
597.664	378.7
598.011	401.68
598.359	360.82
598.706	396.57
599.054	422.11
599.402	432.32
599.749	363.38
600.096	404.23
600.444	391.46
600.791	455.3
601.138	419.55
601.485	383.8
601.833	388.91
602.18	439.98
602.527	450.19
602.874	462.96
603.221	450.19
603.568	462.96
603.914	462.96
604.261	386.36
604.608	399.12
604.955	452.75
605.301	363.38
605.648	388.91
605.995	376.14
606.341	442.53
606.688	383.8
607.034	404.23
607.38	427.21
607.727	391.46
608.073	455.3
608.419	434.87
608.765	358.27
609.112	401.68
609.458	399.12
609.804	434.87
610.15	439.98
610.496	447.64
610.842	404.23
611.187	365.93
611.533	394.02
611.879	381.25
612.225	386.36
612.57	394.02
612.916	417
613.261	414.45
613.607	378.7
613.952	411.89
614.298	470.62
614.643	376.14
614.989	348.06
615.334	350.61
615.679	445.09
616.024	365.93
616.369	427.21
616.714	411.89
617.059	419.55
617.404	358.27
617.749	365.93
618.094	391.46
618.439	445.09
618.784	371.04
619.129	355.72
619.473	391.46
619.818	424.66
620.163	383.8
620.507	450.19
620.852	365.93
621.196	388.91
621.54	399.12
621.885	378.7
622.229	432.32
622.573	437.43
622.918	376.14
623.262	406.79
623.606	371.04
623.95	358.27
624.294	452.75
624.638	442.53
624.982	452.75
625.326	460.41
625.67	437.43
626.013	368.48
626.357	399.12
626.701	409.34
627.044	401.68
627.388	462.96
627.731	406.79
628.075	437.43
628.418	427.21
628.762	337.84
629.105	363.38
629.448	391.46
629.792	355.72
630.135	381.25
630.478	371.04
630.821	409.34
631.164	368.48
631.507	381.25
631.85	439.98
632.193	424.66
632.536	406.79
632.879	457.85
633.221	480.83
633.564	396.57
633.907	332.74
634.249	401.68
634.592	406.79
634.935	304.65
635.277	381.25
635.619	378.7
635.962	388.91
636.304	401.68
636.646	447.64
636.989	358.27
637.331	381.25
637.673	422.11
638.015	322.52
638.357	340.4
638.699	386.36
639.041	332.74
639.383	485.94
639.725	419.55
640.067	419.55
640.408	432.32
640.75	399.12
641.092	394.02
641.433	417
641.775	447.64
642.116	424.66
642.458	478.28
642.799	414.45
643.141	422.11
643.482	391.46
643.823	404.23
644.164	391.46
644.506	516.58
644.847	404.23
645.188	511.47
645.529	358.27
645.87	373.59
646.211	378.7
646.552	414.45
646.893	411.89
647.233	319.97
647.574	399.12
647.915	391.46
648.255	394.02
648.596	470.62
648.937	419.55
649.277	422.11
649.618	434.87
649.958	373.59
650.298	396.57
650.639	371.04
650.979	368.48
651.319	394.02
651.659	373.59
651.999	422.11
652.339	394.02
652.679	396.57
653.019	429.77
653.359	394.02
653.699	383.8
654.039	439.98
654.379	411.89
654.719	386.36
655.058	419.55
655.398	373.59
655.737	432.32
656.077	414.45
656.416	468.07
656.756	432.32
657.095	337.84
657.435	409.34
657.774	450.19
658.113	360.82
658.452	409.34
658.792	365.93
659.131	319.97
659.47	355.72
659.809	394.02
660.148	406.79
660.487	376.14
660.826	363.38
661.164	406.79
661.503	353.16
661.842	360.82
662.181	386.36
662.519	373.59
662.858	360.82
663.196	399.12
663.535	409.34
663.873	396.57
664.212	445.09
664.55	409.34
664.888	422.11
665.226	365.93
665.565	376.14
665.903	577.86
666.241	462.96
666.579	363.38
666.917	350.61
667.255	447.64
667.593	450.19
667.931	434.87
668.268	394.02
668.606	373.59
668.944	386.36
669.282	350.61
669.619	404.23
669.957	312.31
670.294	363.38
670.632	442.53
670.969	337.84
671.307	358.27
671.644	429.77
671.981	363.38
672.318	429.77
672.656	406.79
672.993	391.46
673.33	432.32
673.667	460.41
674.004	427.21
674.341	391.46
674.678	419.55
675.015	348.06
675.351	422.11
675.688	355.72
676.025	409.34
676.362	386.36
676.698	422.11
677.035	383.8
677.371	427.21
677.708	360.82
678.044	391.46
678.38	460.41
678.717	399.12
679.053	427.21
679.389	399.12
679.725	434.87
680.062	432.32
680.398	350.61
680.734	345.5
681.07	340.4
681.406	378.7
681.742	394.02
682.077	342.95
682.413	360.82
682.749	383.8
683.085	371.04
683.42	404.23
683.756	429.77
684.091	368.48
684.427	388.91
684.762	394.02
685.098	424.66
685.433	422.11
685.768	483.39
686.104	457.85
686.439	399.12
686.774	383.8
687.109	409.34
687.444	531.9
687.779	386.36
688.114	427.21
688.449	373.59
688.784	386.36
689.119	457.85
689.454	432.32
689.789	365.93
690.123	434.87
690.458	411.89
690.792	401.68
691.127	429.77
691.461	427.21
691.796	470.62
692.13	368.48
692.465	419.55
692.799	417
693.133	401.68
693.467	376.14
693.802	376.14
694.136	319.97
694.47	360.82
694.804	434.87
695.138	406.79
695.472	340.4
695.806	358.27
696.139	332.74
696.473	353.16
696.807	411.89
697.141	363.38
697.474	365.93
697.808	383.8
698.141	399.12
698.475	429.77
698.808	470.62
699.142	468.07
699.475	445.09
699.808	391.46
700.142	350.61
700.475	406.79
700.808	462.96
701.141	383.8
701.474	404.23
701.807	368.48
702.14	396.57
702.473	419.55
702.806	332.74
703.139	491.05
703.472	376.14
703.804	381.25
704.137	345.5
704.47	394.02
704.802	406.79
705.135	452.75
705.467	409.34
705.8	411.89
706.132	419.55
706.464	391.46
706.797	399.12
707.129	365.93
707.461	419.55
707.793	457.85
708.125	465.51
708.457	432.32
708.789	386.36
709.121	386.36
709.453	355.72
709.785	419.55
710.117	419.55
710.449	340.4
710.781	401.68
711.112	371.04
711.444	432.32
711.775	396.57
712.107	358.27
712.438	348.06
712.77	450.19
713.101	388.91
713.433	386.36
713.764	447.64
714.095	437.43
714.426	371.04
714.757	376.14
715.089	381.25
715.42	427.21
715.751	406.79
716.082	424.66
716.412	365.93
716.743	388.91
717.074	401.68
717.405	381.25
717.736	409.34
718.066	365.93
718.397	376.14
718.727	373.59
719.058	439.98
719.388	406.79
719.719	396.57
720.049	411.89
720.38	434.87
720.71	462.96
721.04	422.11
721.37	381.25
721.7	409.34
722.031	455.3
722.361	378.7
722.691	409.34
723.021	404.23
723.35	442.53
723.68	404.23
724.01	360.82
724.34	432.32
724.67	429.77
724.999	445.09
725.329	388.91
725.658	429.77
725.988	368.48
726.317	432.32
726.647	394.02
726.976	376.14
727.306	376.14
727.635	386.36
727.964	337.84
728.293	383.8
728.622	381.25
728.952	365.93
729.281	401.68
729.61	406.79
729.939	373.59
730.267	353.16
730.596	396.57
730.925	388.91
731.254	422.11
731.583	455.3
731.911	399.12
732.24	371.04
732.568	437.43
732.897	373.59
733.225	368.48
733.554	457.85
733.882	348.06
734.21	381.25
734.539	399.12
734.867	396.57
735.195	319.97
735.523	376.14
735.851	399.12
736.179	401.68
736.507	289.33
736.835	388.91
737.163	396.57
737.491	422.11
737.819	434.87
738.147	409.34
738.474	401.68
738.802	437.43
739.13	342.95
739.457	404.23
739.785	417
740.112	419.55
740.44	386.36
740.767	455.3
741.094	470.62
741.422	386.36
741.749	360.82
742.076	391.46
742.403	394.02
742.73	340.4
743.057	391.46
743.384	455.3
743.711	429.77
744.038	373.59
744.365	460.41
744.692	424.66
745.018	429.77
745.345	350.61
745.672	363.38
745.998	417
746.325	378.7
746.651	371.04
746.978	363.38
747.304	388.91
747.631	355.72
747.957	314.86
748.283	394.02
748.61	434.87
748.936	432.32
749.262	386.36
749.588	417
749.914	394.02
750.24	496.15
750.566	383.8
750.892	396.57
751.218	422.11
751.543	358.27
751.869	399.12
752.195	470.62
752.521	386.36
752.846	445.09
753.172	371.04
753.497	325.08
753.823	371.04
754.148	447.64
754.473	394.02
754.799	368.48
755.124	345.5
755.449	399.12
755.774	396.57
756.1	388.91
756.425	437.43
756.75	396.57
757.075	381.25
757.4	498.71
757.724	406.79
758.049	335.29
758.374	360.82
758.699	439.98
759.024	442.53
759.348	396.57
759.673	411.89
759.997	470.62
760.322	355.72
760.646	383.8
760.971	401.68
761.295	470.62
761.619	488.49
761.944	437.43
762.268	455.3
762.592	450.19
762.916	432.32
763.24	462.96
763.564	422.11
763.888	445.09
764.212	468.07
764.536	516.58
764.86	608.5
765.184	685.1
765.508	756.6
765.831	789.79
766.155	1052.79
766.478	868.95
766.802	764.26
767.126	702.98
767.449	700.42
767.772	789.79
768.096	978.74
768.419	1361.75
768.742	1509.84
769.066	1604.32
769.389	1461.33
769.712	1474.1
770.035	1267.27
770.358	1034.92
770.681	988.96
771.004	1085.98
771.327	1348.98
771.65	1739.65
771.972	2160.96
772.295	2526.09
772.618	2717.59
772.941	2607.8
773.263	2232.45
773.586	1803.48
773.908	1440.9
774.231	1280.04
774.553	1257.06
774.875	1645.17
775.198	2314.16
775.52	2914.2
775.842	3136.35
776.164	2975.48
776.487	2939.74
776.809	2349.91
777.131	1987.33
777.453	1428.14
777.775	1185.57
778.096	1499.63
778.418	2102.23
778.74	2983.14
779.062	4241.96
779.384	5288.84
779.705	5493.11
780.027	4926.26
780.348	3853.85
780.67	3013.78
780.991	2255.43
781.313	1831.57
781.634	1869.87
781.955	2457.15
782.277	3414.66
782.598	4481.98
782.919	5459.92
783.24	5998.68
783.561	5853.14
783.882	5388.43
784.203	4527.94
784.524	3202.73
784.845	2191.6
785.166	2010.31
785.487	2498
785.807	3509.14
786.128	4392.61
786.449	5265.86
786.769	6662.56
787.09	7666.04
787.41	7293.25
787.731	5498.22
788.051	3698.09
788.372	2508.22
788.692	1966.9
789.012	2357.57
789.332	2998.46
789.653	4201.1
789.973	5786.75
790.293	7288.14
790.613	8398.86
790.933	8677.18
791.253	7819.24
791.573	6190.19
791.893	4336.43
792.212	2901.44
792.532	2212.02
792.852	2293.73
793.171	2975.48
793.491	4081.1
793.811	5559.5
794.13	6925.56
794.45	7558.8
794.769	7002.16
795.088	6374.03
795.408	4913.5
795.727	3465.73
796.046	2505.66
796.365	2089.46
796.684	2505.66
797.004	3848.74
797.323	5786.75
797.642	7870.31
797.96	10107.07
798.279	10719.88
798.598	10559.02
798.917	9259.35
799.236	6772.36
799.554	4504.96
799.873	2835.05
800.192	1826.46
800.51	1578.79
800.829	2046.05
