Data from 2025-12-03_xpw_interference_micrometer_637_FLMS141361__18__668.txt Node

Date: Wed Dec 03 15:56:07 MST 2025
User: james
Spectrometer: FLMS14136
Trigger mode: 0
Integration Time (sec): 1.000000E-1
Scans to average: 1
Electric dark correction enabled: true
Nonlinearity correction enabled: false
Boxcar width: 0
XAxis mode: Wavelengths
Number of Pixels in Spectrum: 2048
>>>>>Begin Spectral Data<<<<<
339.315	-86.81
339.697	-86.81
340.079	-86.81
340.461	-176.18
340.843	-125.12
341.225	-109.8
341.607	-20.43
341.989	-91.92
342.371	-109.8
342.752	-89.37
343.134	-81.71
343.516	0
343.897	-112.35
344.279	-40.85
344.661	-5.11
345.042	20.43
345.423	91.92
345.805	97.03
346.186	91.92
346.567	145.54
346.949	214.48
347.33	250.23
347.711	176.18
348.092	142.99
348.473	245.12
348.854	219.59
349.235	237.46
349.616	270.66
349.997	275.76
350.378	234.91
350.758	283.42
351.139	362.58
351.52	283.42
351.9	280.87
352.281	383.01
352.661	385.56
353.042	360.03
353.422	365.13
353.803	334.49
354.183	426.41
354.563	365.13
354.943	393.22
355.324	390.67
355.704	390.67
356.084	426.41
356.464	385.56
356.844	441.73
357.224	367.69
357.603	372.79
357.983	339.6
358.363	431.52
358.743	444.29
359.122	383.01
359.502	400.88
359.882	398.33
360.261	342.15
360.641	344.71
361.02	395.77
361.399	347.26
361.779	434.07
362.158	375.35
362.537	390.67
362.916	395.77
363.296	362.58
363.675	360.03
364.054	370.24
364.433	311.51
364.812	339.6
365.19	283.42
365.569	367.69
365.948	331.94
366.327	365.13
366.705	342.15
367.084	344.71
367.463	377.9
367.841	293.64
368.22	339.6
368.598	354.92
368.977	441.73
369.355	357.47
369.733	288.53
370.111	342.15
370.49	395.77
370.868	321.73
371.246	352.37
371.624	331.94
372.002	283.42
372.38	298.75
372.758	375.35
373.136	354.92
373.513	349.81
373.891	380.45
374.269	377.9
374.646	365.13
375.024	370.24
375.402	372.79
375.779	398.33
376.157	311.51
376.534	451.95
376.911	367.69
377.289	370.24
377.666	362.58
378.043	441.73
378.42	388.11
378.797	388.11
379.175	388.11
379.552	395.77
379.929	403.43
380.305	331.94
380.682	408.54
381.059	352.37
381.436	344.71
381.813	334.49
382.189	390.67
382.566	316.62
382.943	411.09
383.319	375.35
383.696	411.09
384.072	347.26
384.448	449.39
384.825	347.26
385.201	334.49
385.577	306.41
385.953	428.97
386.329	383.01
386.706	301.3
387.082	339.6
387.458	311.51
387.834	357.47
388.209	288.53
388.585	308.96
388.961	326.83
389.337	395.77
389.713	362.58
390.088	306.41
390.464	337.05
390.839	347.26
391.215	400.88
391.59	360.03
391.966	393.22
392.341	434.07
392.716	377.9
393.092	342.15
393.467	306.41
393.842	354.92
394.217	385.56
394.592	403.43
394.967	400.88
395.342	383.01
395.717	436.63
396.092	400.88
396.467	365.13
396.841	367.69
397.216	405.99
397.591	370.24
397.965	367.69
398.34	344.71
398.714	316.62
399.089	360.03
399.463	413.65
399.838	393.22
400.212	400.88
400.586	418.75
400.961	331.94
401.335	324.28
401.709	329.39
402.083	367.69
402.457	403.43
402.831	360.03
403.205	400.88
403.579	311.51
403.953	423.86
404.326	436.63
404.7	372.79
405.074	357.47
405.447	390.67
405.821	319.17
406.195	314.07
406.568	385.56
406.942	444.29
407.315	423.86
407.688	342.15
408.062	411.09
408.435	314.07
408.808	431.52
409.181	477.48
409.554	380.45
409.927	342.15
410.3	370.24
410.673	393.22
411.046	395.77
411.419	413.65
411.792	334.49
412.165	357.47
412.537	390.67
412.91	436.63
413.283	411.09
413.655	390.67
414.028	418.75
414.4	408.54
414.773	462.16
415.145	388.11
415.517	403.43
415.889	383.01
416.262	316.62
416.634	434.07
417.006	388.11
417.378	421.31
417.75	441.73
418.122	347.26
418.494	431.52
418.866	316.62
419.238	383.01
419.609	388.11
419.981	352.37
420.353	347.26
420.725	367.69
421.096	405.99
421.468	444.29
421.839	487.7
422.211	418.75
422.582	403.43
422.953	365.13
423.325	344.71
423.696	329.39
424.067	398.33
424.438	375.35
424.809	416.2
425.18	421.31
425.551	362.58
425.922	449.39
426.293	334.49
426.664	354.92
427.035	464.71
427.406	380.45
427.776	362.58
428.147	441.73
428.518	360.03
428.888	344.71
429.259	413.65
429.629	400.88
429.999	449.39
430.37	398.33
430.74	457.05
431.11	467.27
431.481	439.18
431.851	418.75
432.221	367.69
432.591	385.56
432.961	390.67
433.331	352.37
433.701	423.86
434.071	377.9
434.441	411.09
434.81	331.94
435.18	349.81
435.55	390.67
435.919	331.94
436.289	398.33
436.658	354.92
437.028	413.65
437.397	398.33
437.767	405.99
438.136	418.75
438.505	400.88
438.875	339.6
439.244	469.82
439.613	354.92
439.982	296.19
440.351	398.33
440.72	449.39
441.089	413.65
441.458	400.88
441.827	434.07
442.196	372.79
442.564	469.82
442.933	375.35
443.302	331.94
443.67	303.85
444.039	314.07
444.407	362.58
444.776	441.73
445.144	405.99
445.513	375.35
445.881	416.2
446.249	441.73
446.617	383.01
446.986	370.24
447.354	385.56
447.722	441.73
448.09	413.65
448.458	395.77
448.826	449.39
449.194	360.03
449.561	393.22
449.929	360.03
450.297	395.77
450.665	383.01
451.032	413.65
451.4	416.2
451.767	388.11
452.135	416.2
452.502	385.56
452.87	319.17
453.237	385.56
453.604	423.86
453.971	360.03
454.339	370.24
454.706	393.22
455.073	431.52
455.44	349.81
455.807	347.26
456.174	459.61
456.541	467.27
456.908	362.58
457.274	398.33
457.641	352.37
458.008	352.37
458.374	390.67
458.741	395.77
459.108	408.54
459.474	354.92
459.841	451.95
460.207	413.65
460.573	426.41
460.94	372.79
461.306	354.92
461.672	393.22
462.038	375.35
462.404	380.45
462.771	395.77
463.137	436.63
463.503	497.91
463.868	360.03
464.234	362.58
464.6	349.81
464.966	431.52
465.332	365.13
465.697	464.71
466.063	344.71
466.429	372.79
466.794	413.65
467.16	400.88
467.525	390.67
467.89	421.31
468.256	380.45
468.621	446.84
468.986	326.83
469.351	403.43
469.717	423.86
470.082	383.01
470.447	421.31
470.812	372.79
471.177	487.7
471.542	472.37
471.906	380.45
472.271	413.65
472.636	411.09
473.001	395.77
473.365	413.65
473.73	388.11
474.094	349.81
474.459	372.79
474.823	365.13
475.188	400.88
475.552	449.39
475.917	418.75
476.281	405.99
476.645	349.81
477.009	403.43
477.373	449.39
477.737	434.07
478.101	400.88
478.465	418.75
478.829	405.99
479.193	393.22
479.557	405.99
479.921	459.61
480.284	464.71
480.648	344.71
481.012	472.37
481.375	344.71
481.739	454.5
482.102	390.67
482.466	405.99
482.829	459.61
483.193	375.35
483.556	421.31
483.919	398.33
484.282	451.95
484.645	413.65
485.009	390.67
485.372	367.69
485.735	418.75
486.098	357.47
486.46	446.84
486.823	413.65
487.186	357.47
487.549	398.33
487.912	367.69
488.274	416.2
488.637	385.56
488.999	393.22
489.362	383.01
489.724	454.5
490.087	375.35
490.449	303.85
490.811	421.31
491.174	462.16
491.536	400.88
491.898	385.56
492.26	441.73
492.622	418.75
492.984	393.22
493.346	362.58
493.708	441.73
494.07	403.43
494.432	377.9
494.794	380.45
495.155	365.13
495.517	428.97
495.879	411.09
496.24	418.75
496.602	428.97
496.963	370.24
497.325	434.07
497.686	434.07
498.048	413.65
498.409	362.58
498.77	428.97
499.131	451.95
499.492	411.09
499.854	339.6
500.215	436.63
500.576	434.07
500.937	444.29
501.298	439.18
501.658	383.01
502.019	385.56
502.38	380.45
502.741	385.56
503.101	423.86
503.462	375.35
503.823	385.56
504.183	388.11
504.543	385.56
504.904	426.41
505.264	411.09
505.625	451.95
505.985	428.97
506.345	375.35
506.705	451.95
507.065	357.47
507.426	439.18
507.786	454.5
508.146	349.81
508.505	347.26
508.865	367.69
509.225	388.11
509.585	446.84
509.945	423.86
510.304	464.71
510.664	413.65
511.024	362.58
511.383	431.52
511.743	405.99
512.102	400.88
512.462	446.84
512.821	395.77
513.18	383.01
513.539	400.88
513.899	388.11
514.258	380.45
514.617	385.56
514.976	446.84
515.335	398.33
515.694	408.54
516.053	403.43
516.412	457.05
516.771	370.24
517.129	393.22
517.488	418.75
517.847	411.09
518.205	441.73
518.564	423.86
518.922	375.35
519.281	326.83
519.639	454.5
519.998	388.11
520.356	400.88
520.714	446.84
521.073	398.33
521.431	411.09
521.789	428.97
522.147	377.9
522.505	431.52
522.863	439.18
523.221	393.22
523.579	418.75
523.937	434.07
524.295	408.54
524.652	423.86
525.01	365.13
525.368	398.33
525.725	375.35
526.083	388.11
526.44	349.81
526.798	411.09
527.155	383.01
527.513	436.63
527.87	418.75
528.227	454.5
528.584	434.07
528.942	395.77
529.299	446.84
529.656	490.25
530.013	426.41
530.37	395.77
530.727	436.63
531.083	349.81
531.44	423.86
531.797	390.67
532.154	400.88
532.511	431.52
532.867	413.65
533.224	375.35
533.58	362.58
533.937	418.75
534.293	454.5
534.65	462.16
535.006	349.81
535.362	360.03
535.718	372.79
536.075	436.63
536.431	383.01
536.787	418.75
537.143	372.79
537.499	380.45
537.855	405.99
538.211	395.77
538.567	388.11
538.923	441.73
539.278	444.29
539.634	451.95
539.99	457.05
540.345	428.97
540.701	357.47
541.056	421.31
541.412	388.11
541.767	400.88
542.123	423.86
542.478	459.61
542.833	383.01
543.188	449.39
543.544	408.54
543.899	370.24
544.254	469.82
544.609	451.95
544.964	454.5
545.319	408.54
545.674	418.75
546.029	434.07
546.383	352.37
546.738	349.81
547.093	362.58
547.447	413.65
547.802	441.73
548.157	431.52
548.511	393.22
548.866	380.45
549.22	375.35
549.574	444.29
549.929	418.75
550.283	477.48
550.637	357.47
550.991	349.81
551.345	405.99
551.699	418.75
552.053	365.13
552.407	403.43
552.761	408.54
553.115	405.99
553.469	464.71
553.823	426.41
554.176	411.09
554.53	362.58
554.884	395.77
555.237	671.54
555.591	436.63
555.944	480.04
556.298	426.41
556.651	436.63
557.005	451.95
557.358	426.41
557.711	403.43
558.064	395.77
558.417	411.09
558.771	444.29
559.124	426.41
559.477	314.07
559.83	390.67
560.182	362.58
560.535	446.84
560.888	446.84
561.241	354.92
561.594	357.47
561.946	360.03
562.299	365.13
562.651	405.99
563.004	441.73
563.356	393.22
563.709	398.33
564.061	385.56
564.413	457.05
564.766	444.29
565.118	416.2
565.47	403.43
565.822	431.52
566.174	431.52
566.526	426.41
566.878	395.77
567.23	421.31
567.582	428.97
567.934	423.86
568.286	405.99
568.638	349.81
568.989	413.65
569.341	377.9
569.693	411.09
570.044	426.41
570.396	357.47
570.747	416.2
571.098	423.86
571.45	439.18
571.801	421.31
572.152	434.07
572.504	319.17
572.855	405.99
573.206	372.79
573.557	388.11
573.908	431.52
574.259	434.07
574.61	360.03
574.961	385.56
575.311	428.97
575.662	403.43
576.013	380.45
576.364	403.43
576.714	436.63
577.065	377.9
577.415	436.63
577.766	413.65
578.116	365.13
578.467	421.31
578.817	444.29
579.167	314.07
579.518	329.39
579.868	385.56
580.218	393.22
580.568	360.03
580.918	405.99
581.268	352.37
581.618	431.52
581.968	416.2
582.318	423.86
582.668	380.45
583.017	400.88
583.367	388.11
583.717	441.73
584.066	472.37
584.416	485.14
584.765	413.65
585.115	485.14
585.464	383.01
585.814	418.75
586.163	339.6
586.512	314.07
586.862	314.07
587.211	395.77
587.56	362.58
587.909	434.07
588.258	395.77
588.607	446.84
588.956	487.7
589.305	467.27
589.654	395.77
590.002	405.99
590.351	405.99
590.7	370.24
591.048	380.45
591.397	405.99
591.746	385.56
592.094	421.31
592.443	367.69
592.791	428.97
593.139	436.63
593.488	451.95
593.836	439.18
594.184	403.43
594.532	480.04
594.88	451.95
595.228	413.65
595.576	383.01
595.924	365.13
596.272	413.65
596.62	423.86
596.968	405.99
597.316	426.41
597.664	416.2
598.011	324.28
598.359	411.09
598.706	431.52
599.054	385.56
599.402	380.45
599.749	446.84
600.096	428.97
600.444	408.54
600.791	380.45
601.138	372.79
601.485	385.56
601.833	383.01
602.18	403.43
602.527	372.79
602.874	416.2
603.221	441.73
603.568	441.73
603.914	405.99
604.261	405.99
604.608	467.27
604.955	372.79
605.301	423.86
605.648	405.99
605.995	462.16
606.341	390.67
606.688	446.84
607.034	375.35
607.38	380.45
607.727	347.26
608.073	464.71
608.419	390.67
608.765	370.24
609.112	398.33
609.458	418.75
609.804	416.2
610.15	434.07
610.496	403.43
610.842	428.97
611.187	398.33
611.533	426.41
611.879	400.88
612.225	308.96
612.57	383.01
612.916	393.22
613.261	354.92
613.607	388.11
613.952	347.26
614.298	324.28
614.643	349.81
614.989	324.28
615.334	398.33
615.679	434.07
616.024	416.2
616.369	331.94
616.714	400.88
617.059	444.29
617.404	441.73
617.749	451.95
618.094	411.09
618.439	449.39
618.784	380.45
619.129	413.65
619.473	413.65
619.818	403.43
620.163	372.79
620.507	428.97
620.852	431.52
621.196	421.31
621.54	390.67
621.885	375.35
622.229	383.01
622.573	398.33
622.918	347.26
623.262	357.47
623.606	324.28
623.95	421.31
624.294	428.97
624.638	362.58
624.982	449.39
625.326	395.77
625.67	418.75
626.013	403.43
626.357	436.63
626.701	428.97
627.044	370.24
627.388	418.75
627.731	375.35
628.075	360.03
628.418	377.9
628.762	398.33
629.105	342.15
629.448	370.24
629.792	428.97
630.135	423.86
630.478	428.97
630.821	360.03
631.164	439.18
631.507	393.22
631.85	385.56
632.193	393.22
632.536	444.29
632.879	377.9
633.221	349.81
633.564	421.31
633.907	375.35
634.249	446.84
634.592	459.61
634.935	408.54
635.277	377.9
635.619	416.2
635.962	385.56
636.304	398.33
636.646	449.39
636.989	434.07
637.331	365.13
637.673	436.63
638.015	434.07
638.357	311.51
638.699	441.73
639.041	349.81
639.383	380.45
639.725	370.24
640.067	344.71
640.408	377.9
640.75	459.61
641.092	398.33
641.433	357.47
641.775	411.09
642.116	372.79
642.458	428.97
642.799	398.33
643.141	469.82
643.482	388.11
643.823	395.77
644.164	367.69
644.506	383.01
644.847	377.9
645.188	398.33
645.529	354.92
645.87	362.58
646.211	339.6
646.552	377.9
646.893	449.39
647.233	405.99
647.574	421.31
647.915	393.22
648.255	321.73
648.596	326.83
648.937	365.13
649.277	423.86
649.618	380.45
649.958	426.41
650.298	383.01
650.639	370.24
650.979	375.35
651.319	418.75
651.659	416.2
651.999	370.24
652.339	377.9
652.679	416.2
653.019	434.07
653.359	339.6
653.699	434.07
654.039	418.75
654.379	411.09
654.719	421.31
655.058	413.65
655.398	400.88
655.737	454.5
656.077	434.07
656.416	423.86
656.756	395.77
657.095	403.43
657.435	385.56
657.774	426.41
658.113	395.77
658.452	416.2
658.792	370.24
659.131	421.31
659.47	349.81
659.809	446.84
660.148	436.63
660.487	388.11
660.826	434.07
661.164	362.58
661.503	390.67
661.842	354.92
662.181	449.39
662.519	380.45
662.858	334.49
663.196	398.33
663.535	385.56
663.873	398.33
664.212	393.22
664.55	385.56
664.888	413.65
665.226	354.92
665.565	393.22
665.903	651.11
666.241	431.52
666.579	431.52
666.917	411.09
667.255	431.52
667.593	370.24
667.931	423.86
668.268	413.65
668.606	383.01
668.944	362.58
669.282	444.29
669.619	370.24
669.957	436.63
670.294	375.35
670.632	436.63
670.969	349.81
671.307	408.54
671.644	390.67
671.981	436.63
672.318	421.31
672.656	403.43
672.993	383.01
673.33	393.22
673.667	441.73
674.004	388.11
674.341	411.09
674.678	405.99
675.015	426.41
675.351	428.97
675.688	439.18
676.025	439.18
676.362	395.77
676.698	395.77
677.035	377.9
677.371	393.22
677.708	352.37
678.044	411.09
678.38	360.03
678.717	337.05
679.053	339.6
679.389	360.03
679.725	403.43
680.062	459.61
680.398	413.65
680.734	480.04
681.07	439.18
681.406	288.53
681.742	337.05
682.077	400.88
682.413	388.11
682.749	403.43
683.085	388.11
683.42	459.61
683.756	388.11
684.091	388.11
684.427	416.2
684.762	393.22
685.098	352.37
685.433	362.58
685.768	398.33
686.104	390.67
686.439	344.71
686.774	385.56
687.109	360.03
687.444	331.94
687.779	388.11
688.114	390.67
688.449	375.35
688.784	398.33
689.119	365.13
689.454	372.79
689.789	454.5
690.123	400.88
690.458	413.65
690.792	416.2
691.127	329.39
691.461	334.49
691.796	347.26
692.13	482.59
692.465	349.81
692.799	342.15
693.133	400.88
693.467	428.97
693.802	362.58
694.136	367.69
694.47	405.99
694.804	383.01
695.138	428.97
695.472	344.71
695.806	413.65
696.139	467.27
696.473	400.88
696.807	383.01
697.141	400.88
697.474	400.88
697.808	446.84
698.141	444.29
698.475	385.56
698.808	444.29
699.142	388.11
699.475	416.2
699.808	380.45
700.142	390.67
700.475	405.99
700.808	352.37
701.141	457.05
701.474	423.86
701.807	388.11
702.14	426.41
702.473	354.92
702.806	416.2
703.139	405.99
703.472	428.97
703.804	390.67
704.137	354.92
704.47	380.45
704.802	365.13
705.135	423.86
705.467	398.33
705.8	421.31
706.132	383.01
706.464	431.52
706.797	375.35
707.129	428.97
707.461	413.65
707.793	416.2
708.125	367.69
708.457	380.45
708.789	383.01
709.121	380.45
709.453	457.05
709.785	372.79
710.117	418.75
710.449	395.77
710.781	449.39
711.112	380.45
711.444	375.35
711.775	434.07
712.107	380.45
712.438	454.5
712.77	444.29
713.101	319.17
713.433	405.99
713.764	342.15
714.095	380.45
714.426	431.52
714.757	408.54
715.089	334.49
715.42	436.63
715.751	357.47
716.082	331.94
716.412	423.86
716.743	421.31
717.074	375.35
717.405	403.43
717.736	365.13
718.066	441.73
718.397	423.86
718.727	405.99
719.058	421.31
719.388	395.77
719.719	434.07
720.049	416.2
720.38	385.56
720.71	321.73
721.04	385.56
721.37	405.99
721.7	339.6
722.031	349.81
722.361	390.67
722.691	400.88
723.021	365.13
723.35	393.22
723.68	362.58
724.01	423.86
724.34	423.86
724.67	487.7
724.999	431.52
725.329	431.52
725.658	375.35
725.988	365.13
726.317	354.92
726.647	403.43
726.976	393.22
727.306	370.24
727.635	385.56
727.964	354.92
728.293	354.92
728.622	344.71
728.952	418.75
729.281	431.52
729.61	380.45
729.939	385.56
730.267	370.24
730.596	357.47
730.925	347.26
731.254	454.5
731.583	467.27
731.911	434.07
732.24	418.75
732.568	418.75
732.897	436.63
733.225	411.09
733.554	411.09
733.882	342.15
734.21	383.01
734.539	380.45
734.867	362.58
735.195	362.58
735.523	400.88
735.851	354.92
736.179	367.69
736.507	308.96
736.835	298.75
737.163	388.11
737.491	385.56
737.819	321.73
738.147	408.54
738.474	357.47
738.802	408.54
739.13	360.03
739.457	360.03
739.785	398.33
740.112	352.37
740.44	413.65
740.767	423.86
741.094	413.65
741.422	418.75
741.749	324.28
742.076	365.13
742.403	395.77
742.73	344.71
743.057	331.94
743.384	349.81
743.711	385.56
744.038	329.39
744.365	436.63
744.692	349.81
745.018	377.9
745.345	303.85
745.672	337.05
745.998	411.09
746.325	352.37
746.651	444.29
746.978	457.05
747.304	347.26
747.631	357.47
747.957	380.45
748.283	395.77
748.61	298.75
748.936	383.01
749.262	444.29
749.588	459.61
749.914	354.92
750.24	403.43
750.566	380.45
750.892	405.99
751.218	449.39
751.543	431.52
751.869	370.24
752.195	362.58
752.521	354.92
752.846	403.43
753.172	372.79
753.497	393.22
753.823	411.09
754.148	400.88
754.473	400.88
754.799	360.03
755.124	370.24
755.449	388.11
755.774	372.79
756.1	367.69
756.425	413.65
756.75	393.22
757.075	464.71
757.4	528.55
757.724	464.71
758.049	395.77
758.374	349.81
758.699	416.2
759.024	431.52
759.348	390.67
759.673	319.17
759.997	398.33
760.322	416.2
760.646	362.58
760.971	367.69
761.295	367.69
761.619	398.33
761.944	457.05
762.268	446.84
762.592	474.93
762.916	551.53
763.24	464.71
763.564	400.88
763.888	477.48
764.212	523.44
764.536	536.21
764.86	620.47
765.184	699.63
765.508	870.7
765.831	791.55
766.155	1136.25
766.478	957.52
766.802	870.7
767.126	801.76
767.449	697.07
767.772	929.43
768.096	1080.08
768.419	1358.4
768.742	1575.43
769.066	1583.09
769.389	1593.31
769.712	1503.94
770.035	1337.97
770.358	1108.17
770.681	878.36
771.004	1082.63
771.327	1378.82
771.65	1623.95
771.972	2162.71
772.295	2594.23
772.618	2839.36
772.941	2578.91
773.263	2287.83
773.586	1810.35
773.908	1491.17
774.231	1378.82
774.553	1320.1
774.875	1700.55
775.198	2282.72
775.52	2834.25
775.842	3018.09
776.164	3012.99
776.487	2918.51
776.809	2458.9
777.131	1866.52
777.453	1360.95
777.775	1210.3
778.096	1509.05
778.418	2106.54
778.74	3000.22
779.062	4177.33
779.384	5308.47
779.705	5461.68
780.027	4999.51
780.348	3970.5
780.67	3058.95
780.991	2310.81
781.313	1805.24
781.634	1866.52
781.955	2494.65
782.277	3393.44
782.598	4473.52
782.919	5604.66
783.24	6171.51
783.561	5980.01
783.882	5469.34
784.203	4677.79
784.524	3250.45
784.845	2252.08
785.166	2050.36
785.487	2509.97
785.807	3395.99
786.128	4177.33
786.449	5344.22
786.769	6728.15
787.09	7621.83
787.41	7330.75
787.731	5499.98
788.051	3870.92
788.372	2458.9
788.692	2037.6
789.012	2315.91
789.332	3035.97
789.653	4177.33
789.973	5640.41
790.293	7340.96
790.613	8193.79
790.933	8747.87
791.253	8083.99
791.573	6199.6
791.893	4368.83
792.212	2870
792.532	2300.59
792.852	2244.42
793.171	2818.93
793.491	3853.05
793.811	5499.98
794.13	6980.94
794.45	7427.78
794.769	7052.43
795.088	6174.07
795.408	4797.8
795.727	3347.48
796.046	2298.04
796.365	2024.83
796.684	2586.57
797.004	3853.05
797.323	5619.98
797.642	7665.24
797.96	9570.06
798.279	10443.32
798.598	10259.47
798.917	8952.14
