Data from 2025-12-03_xpw_interference_micrometer_637_FLMS141361__26__676.txt Node

Date: Wed Dec 03 15:56:08 MST 2025
User: james
Spectrometer: FLMS14136
Trigger mode: 0
Integration Time (sec): 1.000000E-1
Scans to average: 1
Electric dark correction enabled: true
Nonlinearity correction enabled: false
Boxcar width: 0
XAxis mode: Wavelengths
Number of Pixels in Spectrum: 2048
>>>>>Begin Spectral Data<<<<<
339.315	-41.01
339.697	-41.01
340.079	-41.01
340.461	-120.17
340.843	-58.89
341.225	-74.21
341.607	-86.97
341.989	-51.23
342.371	-61.44
342.752	-97.19
343.134	-84.42
343.516	-97.19
343.897	-18.03
344.279	-53.78
344.661	66.23
345.042	38.14
345.423	101.98
345.805	76.44
346.186	109.64
346.567	132.62
346.949	99.42
347.33	104.53
347.711	183.68
348.092	160.7
348.473	221.98
348.854	211.77
349.235	229.64
349.616	252.62
349.997	298.59
350.378	283.27
350.758	319.01
351.139	321.57
351.52	319.01
351.9	367.53
352.281	380.29
352.661	321.57
353.042	321.57
353.422	347.1
353.803	380.29
354.183	372.63
354.563	393.06
354.943	372.63
355.324	416.04
355.704	418.59
356.084	372.63
356.464	331.78
356.844	418.59
357.224	380.29
357.603	395.61
357.983	341.99
358.363	418.59
358.743	426.25
359.122	367.53
359.502	349.65
359.882	347.1
360.261	375.19
360.641	349.65
361.02	359.87
361.399	316.46
361.779	324.12
362.158	380.29
362.537	352.21
362.916	357.31
363.296	359.87
363.675	385.4
364.054	439.02
364.433	382.85
364.812	334.33
365.19	372.63
365.569	390.51
365.948	405.83
366.327	347.1
366.705	354.76
367.084	382.85
367.463	326.67
367.841	375.19
368.22	349.65
368.598	359.87
368.977	311.35
369.355	313.91
369.733	349.65
370.111	285.82
370.49	301.14
370.868	439.02
371.246	308.8
371.624	341.99
372.002	334.33
372.38	382.85
372.758	370.08
373.136	372.63
373.513	408.38
373.891	370.08
374.269	352.21
374.646	316.46
375.024	387.95
375.402	354.76
375.779	321.57
376.157	372.63
376.534	247.52
376.911	364.97
377.289	385.4
377.666	336.89
378.043	403.27
378.42	377.74
378.797	344.55
379.175	395.61
379.552	405.83
379.929	372.63
380.305	380.29
380.682	339.44
381.059	370.08
381.436	313.91
381.813	336.89
382.189	403.27
382.566	393.06
382.943	372.63
383.319	364.97
383.696	344.55
384.072	377.74
384.448	347.1
384.825	336.89
385.201	364.97
385.577	354.76
385.953	375.19
386.329	375.19
386.706	319.01
387.082	319.01
387.458	334.33
387.834	329.23
388.209	334.33
388.585	357.31
388.961	326.67
389.337	319.01
389.713	326.67
390.088	354.76
390.464	431.36
390.839	375.19
391.215	377.74
391.59	354.76
391.966	375.19
392.341	387.95
392.716	319.01
393.092	370.08
393.467	370.08
393.842	359.87
394.217	359.87
394.592	423.7
394.967	408.38
395.342	336.89
395.717	311.35
396.092	403.27
396.467	347.1
396.841	359.87
397.216	436.47
397.591	367.53
397.965	352.21
398.34	308.8
398.714	321.57
399.089	349.65
399.463	390.51
399.838	336.89
400.212	311.35
400.586	352.21
400.961	357.31
401.335	387.95
401.709	426.25
402.083	352.21
402.457	382.85
402.831	390.51
403.205	324.12
403.579	364.97
403.953	341.99
404.326	398.17
404.7	352.21
405.074	359.87
405.447	416.04
405.821	352.21
406.195	359.87
406.568	418.59
406.942	439.02
407.315	380.29
407.688	311.35
408.062	398.17
408.435	410.93
408.808	349.65
409.181	403.27
409.554	418.59
409.927	354.76
410.3	367.53
410.673	336.89
411.046	398.17
411.419	273.05
411.792	395.61
412.165	288.37
412.537	410.93
412.91	395.61
413.283	390.51
413.655	370.08
414.028	362.42
414.4	372.63
414.773	421.15
415.145	408.38
415.517	393.06
415.889	408.38
416.262	372.63
416.634	352.21
417.006	390.51
417.378	387.95
417.75	395.61
418.122	408.38
418.494	377.74
418.866	423.7
419.238	339.44
419.609	349.65
419.981	349.65
420.353	354.76
420.725	326.67
421.096	382.85
421.468	403.27
421.839	474.77
422.211	416.04
422.582	380.29
422.953	423.7
423.325	347.1
423.696	413.49
424.067	436.47
424.438	377.74
424.809	382.85
425.18	283.27
425.551	408.38
425.922	405.83
426.293	416.04
426.664	403.27
427.035	395.61
427.406	364.97
427.776	416.04
428.147	339.44
428.518	418.59
428.888	416.04
429.259	462
429.629	385.4
429.999	387.95
430.37	354.76
430.74	370.08
431.11	382.85
431.481	380.29
431.851	370.08
432.221	385.4
432.591	362.42
432.961	372.63
433.331	393.06
433.701	382.85
434.071	436.47
434.441	382.85
434.81	387.95
435.18	444.13
435.55	382.85
435.919	385.4
436.289	418.59
436.658	390.51
437.028	321.57
437.397	382.85
437.767	380.29
438.136	431.36
438.505	357.31
438.875	326.67
439.244	296.03
439.613	367.53
439.982	413.49
440.351	375.19
440.72	380.29
441.089	400.72
441.458	426.25
441.827	393.06
442.196	354.76
442.564	505.41
442.933	408.38
443.302	426.25
443.67	362.42
444.039	472.22
444.407	418.59
444.776	370.08
445.144	416.04
445.513	357.31
445.881	382.85
446.249	390.51
446.617	377.74
446.986	416.04
447.354	426.25
447.722	444.13
448.09	428.81
448.458	370.08
448.826	436.47
449.194	349.65
449.561	352.21
449.929	400.72
450.297	418.59
450.665	375.19
451.032	459.45
451.4	454.34
451.767	403.27
452.135	375.19
452.502	410.93
452.87	441.57
453.237	428.81
453.604	433.91
453.971	370.08
454.339	439.02
454.706	393.06
455.073	446.68
455.44	357.31
455.807	469.66
456.174	431.36
456.541	469.66
456.908	456.9
457.274	446.68
457.641	431.36
458.008	398.17
458.374	426.25
458.741	334.33
459.108	395.61
459.474	377.74
459.841	375.19
460.207	451.79
460.573	410.93
460.94	380.29
461.306	400.72
461.672	410.93
462.038	403.27
462.404	403.27
462.771	362.42
463.137	469.66
463.503	433.91
463.868	377.74
464.234	408.38
464.6	444.13
464.966	390.51
465.332	377.74
465.697	426.25
466.063	380.29
466.429	413.49
466.794	387.95
467.16	441.57
467.525	410.93
467.89	393.06
468.256	387.95
468.621	416.04
468.986	357.31
469.351	403.27
469.717	403.27
470.082	421.15
470.447	380.29
470.812	400.72
471.177	387.95
471.542	382.85
471.906	418.59
472.271	454.34
472.636	393.06
473.001	334.33
473.365	393.06
473.73	395.61
474.094	484.98
474.459	377.74
474.823	400.72
475.188	403.27
475.552	441.57
475.917	408.38
476.281	416.04
476.645	408.38
477.009	418.59
477.373	357.31
477.737	395.61
478.101	405.83
478.465	421.15
478.829	339.44
479.193	405.83
479.557	390.51
479.921	364.97
480.284	367.53
480.648	403.27
481.012	451.79
481.375	454.34
481.739	467.11
482.102	395.61
482.466	408.38
482.829	428.81
483.193	362.42
483.556	334.33
483.919	405.83
484.282	364.97
484.645	334.33
485.009	341.99
485.372	421.15
485.735	359.87
486.098	349.65
486.46	436.47
486.823	439.02
487.186	433.91
487.549	413.49
487.912	428.81
488.274	410.93
488.637	410.93
488.999	357.31
489.362	469.66
489.724	446.68
490.087	459.45
490.449	357.31
490.811	339.44
491.174	416.04
491.536	441.57
491.898	421.15
492.26	426.25
492.622	423.7
492.984	385.4
493.346	439.02
493.708	459.45
494.07	390.51
494.432	336.89
494.794	426.25
495.155	441.57
495.517	416.04
495.879	474.77
496.24	441.57
496.602	370.08
496.963	413.49
497.325	426.25
497.686	347.1
498.048	454.34
498.409	423.7
498.77	387.95
499.131	370.08
499.492	385.4
499.854	413.49
500.215	403.27
500.576	390.51
500.937	449.23
501.298	410.93
501.658	326.67
502.019	387.95
502.38	454.34
502.741	400.72
503.101	393.06
503.462	400.72
503.823	416.04
504.183	362.42
504.543	367.53
504.904	372.63
505.264	408.38
505.625	385.4
505.985	403.27
506.345	385.4
506.705	372.63
507.065	400.72
507.426	405.83
507.786	449.23
508.146	370.08
508.505	357.31
508.865	387.95
509.225	380.29
509.585	426.25
509.945	484.98
510.304	349.65
510.664	385.4
511.024	418.59
511.383	441.57
511.743	428.81
512.102	433.91
512.462	405.83
512.821	405.83
513.18	428.81
513.539	421.15
513.899	403.27
514.258	380.29
514.617	436.47
514.976	421.15
515.335	372.63
515.694	408.38
516.053	362.42
516.412	370.08
516.771	413.49
517.129	464.56
517.488	462
517.847	428.81
518.205	382.85
518.564	393.06
518.922	377.74
519.281	372.63
519.639	380.29
519.998	367.53
520.356	357.31
520.714	359.87
521.073	418.59
521.431	408.38
521.789	405.83
522.147	467.11
522.505	387.95
522.863	421.15
523.221	421.15
523.579	400.72
523.937	421.15
524.295	380.29
524.652	377.74
525.01	433.91
525.368	372.63
525.725	459.45
526.083	403.27
526.44	431.36
526.798	413.49
527.155	423.7
527.513	329.23
527.87	382.85
528.227	408.38
528.584	413.49
528.942	321.57
529.299	382.85
529.656	398.17
530.013	441.57
530.37	382.85
530.727	398.17
531.083	479.88
531.44	405.83
531.797	423.7
532.154	423.7
532.511	456.9
532.867	410.93
533.224	390.51
533.58	372.63
533.937	352.21
534.293	441.57
534.65	387.95
535.006	505.41
535.362	423.7
535.718	423.7
536.075	367.53
536.431	410.93
536.787	382.85
537.143	367.53
537.499	347.1
537.855	441.57
538.211	393.06
538.567	403.27
538.923	405.83
539.278	354.76
539.634	408.38
539.99	367.53
540.345	403.27
540.701	410.93
541.056	380.29
541.412	456.9
541.767	451.79
542.123	321.57
542.478	377.74
542.833	352.21
543.188	370.08
543.544	336.89
543.899	347.1
544.254	380.29
544.609	403.27
544.964	464.56
545.319	456.9
545.674	359.87
546.029	418.59
546.383	387.95
546.738	418.59
547.093	416.04
547.447	387.95
547.802	359.87
548.157	426.25
548.511	375.19
548.866	364.97
549.22	446.68
549.574	444.13
549.929	410.93
550.283	370.08
550.637	390.51
550.991	390.51
551.345	393.06
551.699	418.59
552.053	362.42
552.407	428.81
552.761	418.59
553.115	377.74
553.469	431.36
553.823	439.02
554.176	400.72
554.53	416.04
554.884	431.36
555.237	648.4
555.591	436.47
555.944	444.13
556.298	390.51
556.651	387.95
557.005	372.63
557.358	416.04
557.711	428.81
558.064	449.23
558.417	410.93
558.771	464.56
559.124	513.07
559.477	364.97
559.83	400.72
560.182	357.31
560.535	352.21
560.888	408.38
561.241	385.4
561.594	382.85
561.946	405.83
562.299	449.23
562.651	436.47
563.004	421.15
563.356	372.63
563.709	421.15
564.061	421.15
564.413	431.36
564.766	423.7
565.118	449.23
565.47	382.85
565.822	377.74
566.174	418.59
566.526	408.38
566.878	426.25
567.23	398.17
567.582	370.08
567.934	405.83
568.286	436.47
568.638	467.11
568.989	400.72
569.341	382.85
569.693	390.51
570.044	400.72
570.396	385.4
570.747	449.23
571.098	398.17
571.45	439.02
571.801	403.27
572.152	349.65
572.504	370.08
572.855	416.04
573.206	339.44
573.557	336.89
573.908	352.21
574.259	377.74
574.61	390.51
574.961	352.21
575.311	405.83
575.662	382.85
576.013	380.29
576.364	479.88
576.714	428.81
577.065	436.47
577.415	428.81
577.766	423.7
578.116	446.68
578.467	405.83
578.817	436.47
579.167	370.08
579.518	449.23
579.868	477.32
580.218	426.25
580.568	395.61
580.918	444.13
581.268	467.11
581.618	375.19
581.968	446.68
582.318	385.4
582.668	433.91
583.017	390.51
583.367	523.28
583.717	390.51
584.066	349.65
584.416	357.31
584.765	387.95
585.115	393.06
585.464	377.74
585.814	352.21
586.163	359.87
586.512	405.83
586.862	428.81
587.211	380.29
587.56	423.7
587.909	428.81
588.258	390.51
588.607	405.83
588.956	403.27
589.305	413.49
589.654	436.47
590.002	311.35
590.351	313.91
590.7	408.38
591.048	377.74
591.397	410.93
591.746	352.21
592.094	436.47
592.443	375.19
592.791	462
593.139	403.27
593.488	367.53
593.836	359.87
594.184	370.08
594.532	398.17
594.88	382.85
595.228	375.19
595.576	423.7
595.924	433.91
596.272	375.19
596.62	439.02
596.968	492.64
597.316	413.49
597.664	393.06
598.011	364.97
598.359	410.93
598.706	408.38
599.054	418.59
599.402	377.74
599.749	441.57
600.096	377.74
600.444	349.65
600.791	426.25
601.138	451.79
601.485	413.49
601.833	370.08
602.18	372.63
602.527	472.22
602.874	428.81
603.221	398.17
603.568	352.21
603.914	423.7
604.261	418.59
604.608	410.93
604.955	405.83
605.301	449.23
605.648	377.74
605.995	441.57
606.341	479.88
606.688	431.36
607.034	467.11
607.38	395.61
607.727	444.13
608.073	385.4
608.419	428.81
608.765	324.12
609.112	380.29
609.458	439.02
609.804	421.15
610.15	400.72
610.496	375.19
610.842	408.38
611.187	431.36
611.533	408.38
611.879	413.49
612.225	431.36
612.57	395.61
612.916	362.42
613.261	354.76
613.607	367.53
613.952	382.85
614.298	375.19
614.643	367.53
614.989	441.57
615.334	482.43
615.679	403.27
616.024	400.72
616.369	446.68
616.714	398.17
617.059	382.85
617.404	347.1
617.749	423.7
618.094	319.01
618.439	375.19
618.784	413.49
619.129	400.72
619.473	336.89
619.818	341.99
620.163	390.51
620.507	403.27
620.852	408.38
621.196	349.65
621.54	382.85
621.885	413.49
622.229	433.91
622.573	400.72
622.918	428.81
623.262	398.17
623.606	413.49
623.95	428.81
624.294	398.17
624.638	390.51
624.982	329.23
625.326	408.38
625.67	421.15
626.013	380.29
626.357	362.42
626.701	413.49
627.044	421.15
627.388	352.21
627.731	372.63
628.075	449.23
628.418	428.81
628.762	341.99
629.105	403.27
629.448	418.59
629.792	410.93
630.135	421.15
630.478	408.38
630.821	326.67
631.164	329.23
631.507	362.42
631.85	331.78
632.193	349.65
632.536	313.91
632.879	433.91
633.221	372.63
633.564	372.63
633.907	367.53
634.249	400.72
634.592	423.7
634.935	413.49
635.277	454.34
635.619	426.25
635.962	408.38
636.304	341.99
636.646	377.74
636.989	403.27
637.331	359.87
637.673	431.36
638.015	423.7
638.357	416.04
638.699	403.27
639.041	459.45
639.383	398.17
639.725	423.7
640.067	375.19
640.408	382.85
640.75	349.65
641.092	405.83
641.433	387.95
641.775	349.65
642.116	454.34
642.458	459.45
642.799	380.29
643.141	416.04
643.482	357.31
643.823	362.42
644.164	390.51
644.506	520.73
644.847	421.15
645.188	416.04
645.529	403.27
645.87	398.17
646.211	441.57
646.552	418.59
646.893	339.44
647.233	341.99
647.574	339.44
647.915	387.95
648.255	421.15
648.596	403.27
648.937	367.53
649.277	382.85
649.618	395.61
649.958	474.77
650.298	444.13
650.639	416.04
650.979	403.27
651.319	339.44
651.659	418.59
651.999	403.27
652.339	359.87
652.679	398.17
653.019	408.38
653.359	344.55
653.699	398.17
654.039	398.17
654.379	416.04
654.719	400.72
655.058	385.4
655.398	395.61
655.737	410.93
656.077	410.93
656.416	372.63
656.756	380.29
657.095	426.25
657.435	367.53
657.774	474.77
658.113	393.06
658.452	403.27
658.792	339.44
659.131	390.51
659.47	393.06
659.809	393.06
660.148	413.49
660.487	357.31
660.826	469.66
661.164	393.06
661.503	382.85
661.842	372.63
662.181	354.76
662.519	421.15
662.858	372.63
663.196	423.7
663.535	367.53
663.873	375.19
664.212	423.7
664.55	408.38
664.888	428.81
665.226	441.57
665.565	405.83
665.903	592.22
666.241	482.43
666.579	390.51
666.917	382.85
667.255	380.29
667.593	400.72
667.931	418.59
668.268	469.66
668.606	382.85
668.944	387.95
669.282	449.23
669.619	385.4
669.957	441.57
670.294	382.85
670.632	385.4
670.969	354.76
671.307	416.04
671.644	444.13
671.981	352.21
672.318	339.44
672.656	390.51
672.993	359.87
673.33	362.42
673.667	423.7
674.004	377.74
674.341	387.95
674.678	423.7
675.015	444.13
675.351	449.23
675.688	426.25
676.025	370.08
676.362	403.27
676.698	352.21
677.035	364.97
677.371	436.47
677.708	408.38
678.044	403.27
678.38	398.17
678.717	375.19
679.053	436.47
679.389	436.47
679.725	418.59
680.062	390.51
680.398	370.08
680.734	400.72
681.07	441.57
681.406	364.97
681.742	398.17
682.077	382.85
682.413	398.17
682.749	464.56
683.085	405.83
683.42	400.72
683.756	336.89
684.091	395.61
684.427	377.74
684.762	426.25
685.098	367.53
685.433	283.27
685.768	410.93
686.104	472.22
686.439	405.83
686.774	390.51
687.109	380.29
687.444	336.89
687.779	459.45
688.114	456.9
688.449	382.85
688.784	367.53
689.119	395.61
689.454	380.29
689.789	359.87
690.123	387.95
690.458	395.61
690.792	324.12
691.127	336.89
691.461	372.63
691.796	426.25
692.13	513.07
692.465	390.51
692.799	359.87
693.133	367.53
693.467	364.97
693.802	393.06
694.136	464.56
694.47	403.27
694.804	329.23
695.138	416.04
695.472	398.17
695.806	398.17
696.139	321.57
696.473	423.7
696.807	421.15
697.141	354.76
697.474	421.15
697.808	439.02
698.141	398.17
698.475	413.49
698.808	375.19
699.142	393.06
699.475	426.25
699.808	380.29
700.142	357.31
700.475	405.83
700.808	479.88
701.141	380.29
701.474	377.74
701.807	416.04
702.14	400.72
702.473	426.25
702.806	418.59
703.139	416.04
703.472	405.83
703.804	357.31
704.137	375.19
704.47	375.19
704.802	329.23
705.135	385.4
705.467	410.93
705.8	400.72
706.132	370.08
706.464	398.17
706.797	436.47
707.129	418.59
707.461	439.02
707.793	413.49
708.125	436.47
708.457	426.25
708.789	421.15
709.121	400.72
709.453	321.57
709.785	349.65
710.117	390.51
710.449	398.17
710.781	413.49
711.112	413.49
711.444	444.13
711.775	413.49
712.107	344.55
712.438	352.21
712.77	408.38
713.101	403.27
713.433	387.95
713.764	354.76
714.095	326.67
714.426	364.97
714.757	382.85
715.089	456.9
715.42	431.36
715.751	370.08
716.082	370.08
716.412	449.23
716.743	416.04
717.074	433.91
717.405	382.85
717.736	377.74
718.066	349.65
718.397	349.65
718.727	439.02
719.058	382.85
719.388	416.04
719.719	403.27
720.049	387.95
720.38	385.4
720.71	357.31
721.04	431.36
721.37	387.95
721.7	400.72
722.031	344.55
722.361	308.8
722.691	367.53
723.021	390.51
723.35	377.74
723.68	334.33
724.01	398.17
724.34	410.93
724.67	357.31
724.999	400.72
725.329	400.72
725.658	400.72
725.988	382.85
726.317	390.51
726.647	377.74
726.976	357.31
727.306	367.53
727.635	413.49
727.964	387.95
728.293	364.97
728.622	359.87
728.952	395.61
729.281	428.81
729.61	344.55
729.939	395.61
730.267	367.53
730.596	426.25
730.925	400.72
731.254	395.61
731.583	456.9
731.911	390.51
732.24	375.19
732.568	341.99
732.897	313.91
733.225	370.08
733.554	341.99
733.882	344.55
734.21	306.25
734.539	395.61
734.867	357.31
735.195	393.06
735.523	421.15
735.851	380.29
736.179	339.44
736.507	410.93
736.835	377.74
737.163	403.27
737.491	423.7
737.819	382.85
738.147	439.02
738.474	370.08
738.802	341.99
739.13	331.78
739.457	403.27
739.785	375.19
740.112	387.95
740.44	398.17
740.767	403.27
741.094	495.2
741.422	436.47
741.749	416.04
742.076	410.93
742.403	357.31
742.73	326.67
743.057	405.83
743.384	441.57
743.711	362.42
744.038	364.97
744.365	390.51
744.692	421.15
745.018	408.38
745.345	326.67
745.672	349.65
745.998	433.91
746.325	316.46
746.651	339.44
746.978	364.97
747.304	459.45
747.631	428.81
747.957	436.47
748.283	326.67
748.61	410.93
748.936	456.9
749.262	410.93
749.588	410.93
749.914	390.51
750.24	439.02
750.566	446.68
750.892	336.89
751.218	362.42
751.543	372.63
751.869	421.15
752.195	329.23
752.521	395.61
752.846	433.91
753.172	367.53
753.497	403.27
753.823	403.27
754.148	324.12
754.473	444.13
754.799	436.47
755.124	403.27
755.449	393.06
755.774	467.11
756.1	352.21
756.425	385.4
756.75	382.85
757.075	398.17
757.4	518.18
757.724	479.88
758.049	416.04
758.374	377.74
758.699	385.4
759.024	456.9
759.348	441.57
759.673	426.25
759.997	390.51
760.322	405.83
760.646	344.55
760.971	382.85
761.295	380.29
761.619	495.2
761.944	497.75
762.268	446.68
762.592	484.98
762.916	433.91
763.24	484.98
763.564	467.11
763.888	467.11
764.212	449.23
764.536	484.98
764.86	561.58
765.184	737.77
765.508	850.12
765.831	901.18
766.155	1159.07
766.478	957.36
766.802	873.1
767.126	786.28
767.449	735.21
767.772	852.67
768.096	1166.73
768.419	1317.38
768.742	1713.16
769.066	1764.22
769.389	1705.5
769.712	1690.18
770.035	1519.1
770.358	1130.99
770.681	1130.99
771.004	1079.92
771.327	1358.24
771.65	1886.79
771.972	2412.78
772.295	2897.92
772.618	3137.94
772.941	3051.13
773.263	2423
773.586	2001.69
773.908	1667.2
774.231	1460.37
774.553	1513.99
774.875	1863.81
775.198	2540.45
775.52	3130.28
775.842	3367.75
776.164	3370.3
776.487	3385.62
776.809	2775.36
777.131	2129.36
777.453	1616.13
777.775	1427.18
778.096	1577.83
778.418	2341.29
778.74	3365.19
779.062	4493.79
779.384	5905.8
779.705	6260.72
780.027	5627.49
780.348	4350.8
780.67	3449.45
780.991	2665.57
781.313	2070.63
781.634	2050.2
781.955	2606.84
782.277	3669.04
782.598	4935.52
782.919	6360.31
783.24	6886.3
783.561	6541.59
783.882	6224.98
784.203	5300.65
784.524	3760.97
784.845	2456.19
785.166	2149.78
785.487	2783.02
785.807	3817.14
786.128	4698.06
786.449	6010.49
786.769	7588.48
787.09	8870.28
787.41	8413.22
787.731	6365.41
788.051	4325.26
788.372	2851.96
788.692	2323.41
789.012	2530.24
789.332	3298.8
789.653	4616.35
789.973	6424.14
790.293	8196.18
790.613	9276.26
790.933	9975.89
791.253	9036.25
791.573	6998.65
791.893	4927.86
792.212	3247.74
792.532	2484.28
792.852	2571.09
793.171	3206.88
793.491	4345.69
793.811	6007.94
794.13	7619.12
794.45	8249.8
794.769	7912.76
795.088	7123.77
795.408	5484.5
795.727	3903.96
796.046	2714.08
796.365	2223.83
796.684	2726.85
797.004	4087.8
797.323	5821.54
797.642	8637.92
797.96	10961.49
798.279	11793.89
798.598	11832.19
798.917	10364
799.236	7703.38
