Data from 2025-12-03_xpw_interference_micrometer_637_FLMS141361__5__655.txt Node

Date: Wed Dec 03 15:56:05 MST 2025
User: james
Spectrometer: FLMS14136
Trigger mode: 0
Integration Time (sec): 1.000000E-1
Scans to average: 1
Electric dark correction enabled: true
Nonlinearity correction enabled: false
Boxcar width: 0
XAxis mode: Wavelengths
Number of Pixels in Spectrum: 2048
>>>>>Begin Spectral Data<<<<<
339.315	-75.01
339.697	-75.01
340.079	-75.01
340.461	-69.9
340.843	-75.01
341.225	-103.09
341.607	-39.26
341.989	-54.58
342.371	-136.29
342.752	-82.67
343.134	-29.04
343.516	22.02
343.897	-11.17
344.279	-16.28
344.661	67.98
345.042	32.24
345.423	-13.72
345.805	27.13
346.186	136.92
346.567	65.43
346.949	134.37
347.33	218.63
347.711	172.67
348.092	193.1
348.473	193.1
348.854	210.97
349.235	187.99
349.616	267.15
349.997	277.36
350.378	267.15
350.758	259.49
351.139	305.45
351.52	333.54
351.9	343.75
352.281	308
352.661	330.98
353.042	384.6
353.422	376.94
353.803	417.8
354.183	338.64
354.563	382.05
354.943	325.87
355.324	364.18
355.704	348.86
356.084	313.11
356.464	356.52
356.844	405.03
357.224	382.05
357.603	445.88
357.983	387.16
358.363	405.03
358.743	402.48
359.122	392.26
359.502	315.66
359.882	323.32
360.261	366.73
360.641	346.3
361.02	295.23
361.399	328.43
361.779	305.45
362.158	333.54
362.537	384.6
362.916	333.54
363.296	369.28
363.675	384.6
364.054	351.41
364.433	371.84
364.812	341.2
365.19	302.89
365.569	305.45
365.948	341.2
366.327	351.41
366.705	336.09
367.084	285.02
367.463	302.89
367.841	351.41
368.22	315.66
368.598	313.11
368.977	359.07
369.355	300.34
369.733	366.73
370.111	338.64
370.49	330.98
370.868	343.75
371.246	361.62
371.624	343.75
372.002	308
372.38	366.73
372.758	269.7
373.136	325.87
373.513	315.66
373.891	353.96
374.269	359.07
374.646	366.73
375.024	389.71
375.402	374.39
375.779	285.02
376.157	302.89
376.534	328.43
376.911	348.86
377.289	330.98
377.666	415.24
378.043	320.77
378.42	399.92
378.797	287.57
379.175	259.49
379.552	402.48
379.929	325.87
380.305	323.32
380.682	353.96
381.059	336.09
381.436	295.23
381.813	338.64
382.189	407.58
382.566	387.16
382.943	359.07
383.319	353.96
383.696	394.82
384.072	420.35
384.448	364.18
384.825	313.11
385.201	387.16
385.577	325.87
385.953	374.39
386.329	382.05
386.706	351.41
387.082	374.39
387.458	277.36
387.834	361.62
388.209	356.52
388.585	325.87
388.961	376.94
389.337	359.07
389.713	341.2
390.088	272.25
390.464	379.5
390.839	389.71
391.215	379.5
391.59	330.98
391.966	361.62
392.341	379.5
392.716	379.5
393.092	308
393.467	315.66
393.842	341.2
394.217	308
394.592	353.96
394.967	394.82
395.342	379.5
395.717	320.77
396.092	359.07
396.467	371.84
396.841	387.16
397.216	302.89
397.591	387.16
397.965	353.96
398.34	361.62
398.714	430.56
399.089	361.62
399.463	333.54
399.838	279.91
400.212	341.2
400.586	308
400.961	392.26
401.335	320.77
401.709	376.94
402.083	330.98
402.457	379.5
402.831	402.48
403.205	346.3
403.579	308
403.953	376.94
404.326	343.75
404.7	392.26
405.074	374.39
405.447	343.75
405.821	445.88
406.195	341.2
406.568	315.66
406.942	448.44
407.315	397.37
407.688	366.73
408.062	412.69
408.435	379.5
408.808	405.03
409.181	399.92
409.554	359.07
409.927	397.37
410.3	389.71
410.673	361.62
411.046	394.82
411.419	302.89
411.792	359.07
412.165	384.6
412.537	341.2
412.91	382.05
413.283	341.2
413.655	379.5
414.028	325.87
414.4	376.94
414.773	330.98
415.145	310.55
415.517	394.82
415.889	348.86
416.262	353.96
416.634	346.3
417.006	371.84
417.378	412.69
417.75	348.86
418.122	392.26
418.494	359.07
418.866	422.9
419.238	361.62
419.609	364.18
419.981	473.97
420.353	389.71
420.725	387.16
421.096	361.62
421.468	407.58
421.839	412.69
422.211	405.03
422.582	364.18
422.953	422.9
423.325	384.6
423.696	371.84
424.067	412.69
424.438	397.37
424.809	371.84
425.18	351.41
425.551	325.87
425.922	438.22
426.293	410.14
426.664	392.26
427.035	453.54
427.406	450.99
427.776	302.89
428.147	369.28
428.518	371.84
428.888	392.26
429.259	338.64
429.629	397.37
429.999	384.6
430.37	417.8
430.74	371.84
431.11	348.86
431.481	328.43
431.851	407.58
432.221	348.86
432.591	351.41
432.961	359.07
433.331	348.86
433.701	359.07
434.071	415.24
434.441	453.54
434.81	415.24
435.18	374.39
435.55	410.14
435.919	356.52
436.289	310.55
436.658	412.69
437.028	468.86
437.397	410.14
437.767	364.18
438.136	376.94
438.505	376.94
438.875	394.82
439.244	394.82
439.613	346.3
439.982	374.39
440.351	430.56
440.72	371.84
441.089	325.87
441.458	389.71
441.827	402.48
442.196	374.39
442.564	473.97
442.933	394.82
443.302	410.14
443.67	473.97
444.039	433.12
444.407	356.52
444.776	392.26
445.144	369.28
445.513	392.26
445.881	387.16
446.249	389.71
446.617	346.3
446.986	440.78
447.354	392.26
447.722	369.28
448.09	420.35
448.458	394.82
448.826	456.1
449.194	494.4
449.561	379.5
449.929	410.14
450.297	382.05
450.665	422.9
451.032	366.73
451.4	353.96
451.767	379.5
452.135	376.94
452.502	407.58
452.87	379.5
453.237	351.41
453.604	353.96
453.971	415.24
454.339	369.28
454.706	374.39
455.073	417.8
455.44	412.69
455.807	397.37
456.174	399.92
456.541	315.66
456.908	425.46
457.274	443.33
457.641	394.82
458.008	394.82
458.374	399.92
458.741	463.76
459.108	397.37
459.474	397.37
459.841	371.84
460.207	399.92
460.573	351.41
460.94	338.64
461.306	384.6
461.672	463.76
462.038	405.03
462.404	402.48
462.771	359.07
463.137	341.2
463.503	412.69
463.868	382.05
464.234	407.58
464.6	384.6
464.966	392.26
465.332	422.9
465.697	412.69
466.063	420.35
466.429	371.84
466.794	397.37
467.16	351.41
467.525	417.8
467.89	410.14
468.256	417.8
468.621	507.16
468.986	382.05
469.351	384.6
469.717	359.07
470.082	405.03
470.447	428.01
470.812	392.26
471.177	387.16
471.542	430.56
471.906	402.48
472.271	353.96
472.636	407.58
473.001	410.14
473.365	384.6
473.73	356.52
474.094	433.12
474.459	430.56
474.823	476.52
475.188	433.12
475.552	364.18
475.917	376.94
476.281	374.39
476.645	300.34
477.009	422.9
477.373	392.26
477.737	445.88
478.101	417.8
478.465	412.69
478.829	453.54
479.193	402.48
479.557	356.52
479.921	410.14
480.284	382.05
480.648	376.94
481.012	412.69
481.375	440.78
481.739	369.28
482.102	422.9
482.466	394.82
482.829	412.69
483.193	410.14
483.556	364.18
483.919	371.84
484.282	397.37
484.645	387.16
485.009	374.39
485.372	417.8
485.735	417.8
486.098	394.82
486.46	389.71
486.823	417.8
487.186	364.18
487.549	384.6
487.912	463.76
488.274	379.5
488.637	379.5
488.999	453.54
489.362	361.62
489.724	387.16
490.087	389.71
490.449	323.32
490.811	392.26
491.174	310.55
491.536	379.5
491.898	430.56
492.26	428.01
492.622	422.9
492.984	438.22
493.346	399.92
493.708	369.28
494.07	338.64
494.432	387.16
494.794	440.78
495.155	410.14
495.517	445.88
495.879	405.03
496.24	466.31
496.602	415.24
496.963	379.5
497.325	371.84
497.686	366.73
498.048	330.98
498.409	407.58
498.77	405.03
499.131	371.84
499.492	353.96
499.854	412.69
500.215	353.96
500.576	300.34
500.937	356.52
501.298	366.73
501.658	320.77
502.019	366.73
502.38	407.58
502.741	440.78
503.101	410.14
503.462	361.62
503.823	343.75
504.183	353.96
504.543	430.56
504.904	445.88
505.264	458.65
505.625	382.05
505.985	422.9
506.345	394.82
506.705	361.62
507.065	369.28
507.426	341.2
507.786	417.8
508.146	458.65
508.505	356.52
508.865	374.39
509.225	422.9
509.585	481.63
509.945	450.99
510.304	369.28
510.664	392.26
511.024	325.87
511.383	394.82
511.743	394.82
512.102	343.75
512.462	371.84
512.821	379.5
513.18	402.48
513.539	382.05
513.899	397.37
514.258	361.62
514.617	450.99
514.976	351.41
515.335	438.22
515.694	374.39
516.053	325.87
516.412	364.18
516.771	412.69
517.129	415.24
517.488	407.58
517.847	384.6
518.205	402.48
518.564	422.9
518.922	346.3
519.281	415.24
519.639	376.94
519.998	351.41
520.356	376.94
520.714	425.46
521.073	397.37
521.431	399.92
521.789	356.52
522.147	328.43
522.505	310.55
522.863	476.52
523.221	405.03
523.579	374.39
523.937	394.82
524.295	392.26
524.652	397.37
525.01	392.26
525.368	382.05
525.725	407.58
526.083	407.58
526.44	353.96
526.798	371.84
527.155	407.58
527.513	445.88
527.87	394.82
528.227	402.48
528.584	453.54
528.942	394.82
529.299	387.16
529.656	433.12
530.013	428.01
530.37	361.62
530.727	433.12
531.083	425.46
531.44	448.44
531.797	410.14
532.154	387.16
532.511	382.05
532.867	407.58
533.224	359.07
533.58	410.14
533.937	353.96
534.293	438.22
534.65	364.18
535.006	359.07
535.362	348.86
535.718	407.58
536.075	364.18
536.431	428.01
536.787	399.92
537.143	343.75
537.499	369.28
537.855	382.05
538.211	405.03
538.567	410.14
538.923	402.48
539.278	425.46
539.634	463.76
539.99	402.48
540.345	333.54
540.701	366.73
541.056	458.65
541.412	433.12
541.767	402.48
542.123	376.94
542.478	445.88
542.833	405.03
543.188	387.16
543.544	361.62
543.899	425.46
544.254	417.8
544.609	376.94
544.964	379.5
545.319	428.01
545.674	382.05
546.029	369.28
546.383	369.28
546.738	359.07
547.093	379.5
547.447	412.69
547.802	420.35
548.157	389.71
548.511	405.03
548.866	394.82
549.22	376.94
549.574	415.24
549.929	369.28
550.283	325.87
550.637	376.94
550.991	389.71
551.345	376.94
551.699	410.14
552.053	430.56
552.407	364.18
552.761	405.03
553.115	399.92
553.469	425.46
553.823	389.71
554.176	407.58
554.53	443.33
554.884	379.5
555.237	698.67
555.591	399.92
555.944	410.14
556.298	376.94
556.651	456.1
557.005	458.65
557.358	410.14
557.711	394.82
558.064	338.64
558.417	392.26
558.771	461.2
559.124	389.71
559.477	376.94
559.83	410.14
560.182	402.48
560.535	405.03
560.888	420.35
561.241	389.71
561.594	405.03
561.946	346.3
562.299	376.94
562.651	399.92
563.004	333.54
563.356	392.26
563.709	399.92
564.061	466.31
564.413	343.75
564.766	346.3
565.118	417.8
565.47	338.64
565.822	366.73
566.174	473.97
566.526	456.1
566.878	420.35
567.23	405.03
567.582	389.71
567.934	433.12
568.286	361.62
568.638	379.5
568.989	392.26
569.341	389.71
569.693	407.58
570.044	417.8
570.396	343.75
570.747	433.12
571.098	394.82
571.45	379.5
571.801	430.56
572.152	336.09
572.504	407.58
572.855	433.12
573.206	313.11
573.557	389.71
573.908	445.88
574.259	415.24
574.61	438.22
574.961	479.08
575.311	486.74
575.662	341.2
576.013	356.52
576.364	399.92
576.714	338.64
577.065	371.84
577.415	499.5
577.766	415.24
578.116	425.46
578.467	425.46
578.817	330.98
579.167	353.96
579.518	412.69
579.868	422.9
580.218	397.37
580.568	412.69
580.918	269.7
581.268	458.65
581.618	417.8
581.968	369.28
582.318	417.8
582.668	351.41
583.017	328.43
583.367	456.1
583.717	348.86
584.066	384.6
584.416	392.26
584.765	394.82
585.115	336.09
585.464	364.18
585.814	356.52
586.163	422.9
586.512	407.58
586.862	348.86
587.211	366.73
587.56	359.07
587.909	463.76
588.258	410.14
588.607	338.64
588.956	369.28
589.305	394.82
589.654	412.69
590.002	420.35
590.351	374.39
590.7	440.78
591.048	392.26
591.397	382.05
591.746	415.24
592.094	458.65
592.443	425.46
592.791	382.05
593.139	336.09
593.488	402.48
593.836	384.6
594.184	371.84
594.532	438.22
594.88	394.82
595.228	356.52
595.576	371.84
595.924	397.37
596.272	359.07
596.62	443.33
596.968	343.75
597.316	371.84
597.664	399.92
598.011	379.5
598.359	422.9
598.706	382.05
599.054	387.16
599.402	384.6
599.749	394.82
600.096	346.3
600.444	366.73
600.791	420.35
601.138	387.16
601.485	397.37
601.833	405.03
602.18	333.54
602.527	338.64
602.874	374.39
603.221	384.6
603.568	382.05
603.914	397.37
604.261	430.56
604.608	422.9
604.955	422.9
605.301	361.62
605.648	364.18
605.995	369.28
606.341	422.9
606.688	428.01
607.034	336.09
607.38	376.94
607.727	420.35
608.073	422.9
608.419	425.46
608.765	379.5
609.112	389.71
609.458	343.75
609.804	382.05
610.15	428.01
610.496	348.86
610.842	359.07
611.187	453.54
611.533	382.05
611.879	313.11
612.225	410.14
612.57	374.39
612.916	402.48
613.261	376.94
613.607	382.05
613.952	359.07
614.298	392.26
614.643	397.37
614.989	364.18
615.334	387.16
615.679	333.54
616.024	371.84
616.369	389.71
616.714	382.05
617.059	389.71
617.404	392.26
617.749	325.87
618.094	353.96
618.439	351.41
618.784	394.82
619.129	443.33
619.473	394.82
619.818	371.84
620.163	346.3
620.507	407.58
620.852	336.09
621.196	295.23
621.54	361.62
621.885	364.18
622.229	384.6
622.573	374.39
622.918	353.96
623.262	382.05
623.606	438.22
623.95	376.94
624.294	346.3
624.638	361.62
624.982	351.41
625.326	425.46
625.67	466.31
626.013	410.14
626.357	392.26
626.701	366.73
627.044	387.16
627.388	428.01
627.731	405.03
628.075	361.62
628.418	425.46
628.762	420.35
629.105	384.6
629.448	382.05
629.792	300.34
630.135	376.94
630.478	379.5
630.821	356.52
631.164	361.62
631.507	361.62
631.85	425.46
632.193	394.82
632.536	364.18
632.879	371.84
633.221	417.8
633.564	361.62
633.907	325.87
634.249	371.84
634.592	397.37
634.935	394.82
635.277	433.12
635.619	435.67
635.962	371.84
636.304	384.6
636.646	376.94
636.989	376.94
637.331	433.12
637.673	392.26
638.015	392.26
638.357	353.96
638.699	353.96
639.041	371.84
639.383	402.48
639.725	397.37
640.067	346.3
640.408	407.58
640.75	371.84
641.092	407.58
641.433	374.39
641.775	333.54
642.116	374.39
642.458	433.12
642.799	369.28
643.141	402.48
643.482	417.8
643.823	346.3
644.164	351.41
644.506	394.82
644.847	376.94
645.188	405.03
645.529	445.88
645.87	387.16
646.211	387.16
646.552	379.5
646.893	366.73
647.233	433.12
647.574	302.89
647.915	405.03
648.255	353.96
648.596	359.07
648.937	402.48
649.277	376.94
649.618	361.62
649.958	376.94
650.298	405.03
650.639	376.94
650.979	394.82
651.319	397.37
651.659	318.21
651.999	351.41
652.339	348.86
652.679	387.16
653.019	369.28
653.359	379.5
653.699	371.84
654.039	364.18
654.379	369.28
654.719	394.82
655.058	405.03
655.398	382.05
655.737	428.01
656.077	384.6
656.416	438.22
656.756	382.05
657.095	330.98
657.435	374.39
657.774	361.62
658.113	384.6
658.452	422.9
658.792	361.62
659.131	376.94
659.47	325.87
659.809	376.94
660.148	336.09
660.487	351.41
660.826	420.35
661.164	435.67
661.503	374.39
661.842	389.71
662.181	407.58
662.519	328.43
662.858	361.62
663.196	361.62
663.535	369.28
663.873	343.75
664.212	323.32
664.55	428.01
664.888	371.84
665.226	318.21
665.565	336.09
665.903	611.85
666.241	481.63
666.579	382.05
666.917	394.82
667.255	384.6
667.593	308
667.931	333.54
668.268	448.44
668.606	402.48
668.944	376.94
669.282	399.92
669.619	310.55
669.957	323.32
670.294	371.84
670.632	415.24
670.969	389.71
671.307	458.65
671.644	356.52
671.981	346.3
672.318	346.3
672.656	394.82
672.993	389.71
673.33	343.75
673.667	359.07
674.004	384.6
674.341	402.48
674.678	415.24
675.015	371.84
675.351	359.07
675.688	330.98
676.025	371.84
676.362	433.12
676.698	407.58
677.035	399.92
677.371	443.33
677.708	341.2
678.044	448.44
678.38	405.03
678.717	343.75
679.053	433.12
679.389	407.58
679.725	379.5
680.062	463.76
680.398	387.16
680.734	402.48
681.07	384.6
681.406	323.32
681.742	366.73
682.077	343.75
682.413	407.58
682.749	382.05
683.085	305.45
683.42	348.86
683.756	361.62
684.091	394.82
684.427	382.05
684.762	359.07
685.098	425.46
685.433	397.37
685.768	397.37
686.104	428.01
686.439	313.11
686.774	361.62
687.109	353.96
687.444	338.64
687.779	369.28
688.114	320.77
688.449	397.37
688.784	382.05
689.119	476.52
689.454	399.92
689.789	341.2
690.123	394.82
690.458	402.48
690.792	315.66
691.127	369.28
691.461	402.48
691.796	412.69
692.13	412.69
692.465	379.5
692.799	343.75
693.133	428.01
693.467	341.2
693.802	320.77
694.136	374.39
694.47	422.9
694.804	323.32
695.138	351.41
695.472	397.37
695.806	325.87
696.139	361.62
696.473	336.09
696.807	366.73
697.141	318.21
697.474	338.64
697.808	443.33
698.141	343.75
698.475	323.32
698.808	348.86
699.142	394.82
699.475	341.2
699.808	392.26
700.142	387.16
700.475	384.6
700.808	351.41
701.141	397.37
701.474	463.76
701.807	399.92
702.14	305.45
702.473	346.3
702.806	425.46
703.139	371.84
703.472	420.35
703.804	379.5
704.137	359.07
704.47	412.69
704.802	407.58
705.135	343.75
705.467	313.11
705.8	435.67
706.132	361.62
706.464	369.28
706.797	397.37
707.129	320.77
707.461	382.05
707.793	397.37
708.125	420.35
708.457	359.07
708.789	397.37
709.121	402.48
709.453	399.92
709.785	445.88
710.117	384.6
710.449	313.11
710.781	438.22
711.112	415.24
711.444	371.84
711.775	392.26
712.107	346.3
712.438	343.75
712.77	366.73
713.101	422.9
713.433	397.37
713.764	384.6
714.095	361.62
714.426	410.14
714.757	371.84
715.089	440.78
715.42	412.69
715.751	392.26
716.082	399.92
716.412	422.9
716.743	440.78
717.074	310.55
717.405	325.87
717.736	364.18
718.066	330.98
718.397	338.64
718.727	417.8
719.058	394.82
719.388	443.33
719.719	397.37
720.049	394.82
720.38	384.6
720.71	320.77
721.04	290.13
721.37	379.5
721.7	346.3
722.031	397.37
722.361	463.76
722.691	341.2
723.021	369.28
723.35	450.99
723.68	359.07
724.01	392.26
724.34	351.41
724.67	343.75
724.999	313.11
725.329	338.64
725.658	366.73
725.988	382.05
726.317	387.16
726.647	402.48
726.976	410.14
727.306	399.92
727.635	346.3
727.964	394.82
728.293	295.23
728.622	374.39
728.952	405.03
729.281	364.18
729.61	320.77
729.939	333.54
730.267	376.94
730.596	453.54
730.925	371.84
731.254	402.48
731.583	443.33
731.911	415.24
732.24	336.09
732.568	320.77
732.897	351.41
733.225	356.52
733.554	438.22
733.882	384.6
734.21	371.84
734.539	336.09
734.867	353.96
735.195	343.75
735.523	356.52
735.851	371.84
736.179	420.35
736.507	392.26
736.835	305.45
737.163	359.07
737.491	371.84
737.819	389.71
738.147	366.73
738.474	313.11
738.802	348.86
739.13	387.16
739.457	343.75
739.785	379.5
740.112	387.16
740.44	348.86
740.767	435.67
741.094	428.01
741.422	405.03
741.749	399.92
742.076	389.71
742.403	366.73
742.73	399.92
743.057	407.58
743.384	374.39
743.711	343.75
744.038	302.89
744.365	420.35
744.692	348.86
745.018	346.3
745.345	387.16
745.672	376.94
745.998	389.71
746.325	399.92
746.651	420.35
746.978	399.92
747.304	389.71
747.631	364.18
747.957	374.39
748.283	389.71
748.61	353.96
748.936	353.96
749.262	346.3
749.588	392.26
749.914	399.92
750.24	407.58
750.566	412.69
750.892	343.75
751.218	371.84
751.543	313.11
751.869	415.24
752.195	392.26
752.521	417.8
752.846	407.58
753.172	346.3
753.497	387.16
753.823	417.8
754.148	379.5
754.473	379.5
754.799	425.46
755.124	415.24
755.449	420.35
755.774	410.14
756.1	410.14
756.425	376.94
756.75	376.94
757.075	445.88
757.4	471.42
757.724	359.07
758.049	313.11
758.374	302.89
758.699	346.3
759.024	420.35
759.348	440.78
759.673	351.41
759.997	341.2
760.322	282.47
760.646	399.92
760.971	450.99
761.295	428.01
761.619	417.8
761.944	453.54
762.268	435.67
762.592	440.78
762.916	476.52
763.24	527.59
763.564	468.86
763.888	519.93
764.212	548.02
764.536	550.57
764.86	632.28
765.184	675.69
765.508	639.94
765.831	805.91
766.155	1130.19
766.478	905.49
766.802	803.36
767.126	698.67
767.449	639.94
767.772	821.23
768.096	1076.57
768.419	1250.2
768.742	1439.15
769.066	1597.46
769.389	1495.32
769.712	1561.71
770.035	1367.65
770.358	1053.59
770.681	897.83
771.004	1056.14
771.327	1339.57
771.65	1666.4
771.972	2248.57
772.295	2590.72
772.618	2802.65
772.941	2636.68
773.263	2294.53
773.586	1911.52
773.908	1485.11
774.231	1296.16
774.553	1319.14
774.875	1694.49
775.198	2309.85
775.52	2899.68
775.842	3060.54
776.164	3035.01
776.487	2902.23
776.809	2493.69
777.131	1988.12
777.453	1444.25
777.775	1257.86
778.096	1487.66
778.418	2187.29
778.74	3042.67
779.062	4191.69
779.384	5225.81
779.705	5539.87
780.027	4893.87
780.348	4015.51
780.67	3170.34
780.991	2394.11
781.313	1934.5
781.634	1921.74
781.955	2560.08
782.277	3400.14
782.598	4411.28
782.919	5468.38
783.24	6139.92
783.561	5841.17
783.882	5430.08
784.203	4664.06
784.524	3292.9
784.845	2371.13
785.166	2115.79
785.487	2629.02
785.807	3451.21
786.128	4329.57
786.449	5276.87
786.769	6716.98
787.09	7797.06
787.41	7615.77
787.731	5802.87
788.051	3905.71
788.372	2598.38
788.692	2189.84
789.012	2246.02
789.332	2897.13
789.653	4319.36
789.973	5810.53
790.293	7444.69
790.613	8489.02
790.933	9068.64
791.253	8157.09
791.573	6451.43
791.893	4337.23
792.212	2805.2
792.532	2238.35
792.852	2317.51
793.171	2940.53
793.491	4094.66
793.811	5560.3
794.13	6992.74
794.45	7702.58
794.769	7156.16
795.088	6395.25
795.408	4962.81
795.727	3548.24
796.046	2457.95
796.365	2133.67
796.684	2600.93
797.004	3841.88
797.323	5590.94
797.642	7628.54
797.96	9908.7
798.279	10554.71
798.598	10608.33
798.917	9094.17
799.236	6783.37
799.554	4623.21
799.873	2925.21
800.192	1781.3
800.51	1612.78
800.829	2141.33
801.147	3047.78
