Data from 2025-12-03_xpw_interference_micrometer_637_FLMS141361__14__664.txt Node

Date: Wed Dec 03 15:56:06 MST 2025
User: james
Spectrometer: FLMS14136
Trigger mode: 0
Integration Time (sec): 1.000000E-1
Scans to average: 1
Electric dark correction enabled: true
Nonlinearity correction enabled: false
Boxcar width: 0
XAxis mode: Wavelengths
Number of Pixels in Spectrum: 2048
>>>>>Begin Spectral Data<<<<<
339.315	8.3
339.697	8.3
340.079	8.3
340.461	-37.66
340.843	-73.41
341.225	-109.16
341.607	-86.18
341.989	-96.39
342.371	-19.79
342.752	-27.45
343.134	-45.32
343.516	-63.2
343.897	-22.34
344.279	-4.47
344.661	-4.47
345.042	28.73
345.423	49.15
345.805	54.26
346.186	110.43
346.567	115.54
346.949	120.65
347.33	146.18
347.711	210.02
348.092	248.32
348.473	235.55
348.854	268.74
349.235	307.04
349.616	304.49
349.997	378.54
350.378	353
350.758	332.58
351.139	368.32
351.52	416.84
351.9	398.97
352.281	421.95
352.661	406.63
353.042	322.36
353.422	386.2
353.803	475.57
354.183	378.54
354.563	416.84
354.943	391.31
355.324	421.95
355.704	442.37
356.084	398.97
356.464	411.73
356.844	444.93
357.224	378.54
357.603	342.79
357.983	388.75
358.363	495.99
358.743	411.73
359.122	414.29
359.502	406.63
359.882	363.22
360.261	350.45
360.641	414.29
361.02	406.63
361.399	330.02
361.779	381.09
362.158	373.43
362.537	401.52
362.916	406.63
363.296	347.9
363.675	373.43
364.054	391.31
364.433	373.43
364.812	427.05
365.19	347.9
365.569	386.2
365.948	378.54
366.327	381.09
366.705	381.09
367.084	337.68
367.463	432.16
367.841	383.65
368.22	419.39
368.598	358.11
368.977	342.79
369.355	342.79
369.733	437.27
370.111	388.75
370.49	404.07
370.868	375.98
371.246	360.66
371.624	330.02
372.002	347.9
372.38	360.66
372.758	370.88
373.136	383.65
373.513	414.29
373.891	444.93
374.269	296.83
374.646	312.15
375.024	330.02
375.402	427.05
375.779	345.34
376.157	388.75
376.534	406.63
376.911	393.86
377.289	345.34
377.666	411.73
378.043	378.54
378.42	401.52
378.797	406.63
379.175	396.41
379.552	404.07
379.929	398.97
380.305	368.32
380.682	396.41
381.059	304.49
381.436	401.52
381.813	398.97
382.189	419.39
382.566	350.45
382.943	324.92
383.319	337.68
383.696	419.39
384.072	383.65
384.448	424.5
384.825	447.48
385.201	475.57
385.577	409.18
385.953	401.52
386.329	319.81
386.706	421.95
387.082	442.37
387.458	439.82
387.834	337.68
388.209	409.18
388.585	337.68
388.961	353
389.337	368.32
389.713	414.29
390.088	398.97
390.464	327.47
390.839	386.2
391.215	409.18
391.59	386.2
391.966	353
392.341	353
392.716	411.73
393.092	378.54
393.467	488.33
393.842	411.73
394.217	401.52
394.592	398.97
394.967	363.22
395.342	406.63
395.717	383.65
396.092	383.65
396.467	383.65
396.841	427.05
397.216	452.59
397.591	406.63
397.965	381.09
398.34	401.52
398.714	365.77
399.089	404.07
399.463	437.27
399.838	419.39
400.212	353
400.586	421.95
400.961	411.73
401.335	432.16
401.709	455.14
402.083	437.27
402.457	393.86
402.831	317.26
403.205	398.97
403.579	381.09
403.953	411.73
404.326	437.27
404.7	424.5
405.074	332.58
405.447	409.18
405.821	414.29
406.195	411.73
406.568	457.69
406.942	508.76
407.315	450.03
407.688	370.88
408.062	480.67
408.435	345.34
408.808	381.09
409.181	485.78
409.554	388.75
409.927	429.61
410.3	401.52
410.673	450.03
411.046	370.88
411.419	409.18
411.792	388.75
412.165	465.35
412.537	450.03
412.91	398.97
413.283	358.11
413.655	398.97
414.028	416.84
414.4	419.39
414.773	429.61
415.145	444.93
415.517	455.14
415.889	421.95
416.262	429.61
416.634	470.46
417.006	375.98
417.378	411.73
417.75	398.97
418.122	393.86
418.494	429.61
418.866	375.98
419.238	373.43
419.609	465.35
419.981	427.05
420.353	419.39
420.725	427.05
421.096	437.27
421.468	391.31
421.839	457.69
422.211	419.39
422.582	406.63
422.953	396.41
423.325	373.43
423.696	432.16
424.067	424.5
424.438	442.37
424.809	401.52
425.18	442.37
425.551	444.93
425.922	416.84
426.293	353
426.664	393.86
427.035	450.03
427.406	416.84
427.776	370.88
428.147	457.69
428.518	432.16
428.888	383.65
429.259	437.27
429.629	465.35
429.999	457.69
430.37	398.97
430.74	350.45
431.11	345.34
431.481	381.09
431.851	391.31
432.221	383.65
432.591	419.39
432.961	406.63
433.331	470.46
433.701	511.31
434.071	330.02
434.441	358.11
434.81	406.63
435.18	398.97
435.55	414.29
435.919	398.97
436.289	460.25
436.658	432.16
437.028	398.97
437.397	437.27
437.767	439.82
438.136	424.5
438.505	419.39
438.875	439.82
439.244	437.27
439.613	424.5
439.982	375.98
440.351	383.65
440.72	414.29
441.089	330.02
441.458	411.73
441.827	437.27
442.196	442.37
442.564	559.83
442.933	450.03
443.302	475.57
443.67	401.52
444.039	337.68
444.407	375.98
444.776	409.18
445.144	478.12
445.513	419.39
445.881	485.78
446.249	442.37
446.617	439.82
446.986	447.48
447.354	475.57
447.722	473.01
448.09	368.32
448.458	434.71
448.826	467.91
449.194	421.95
449.561	429.61
449.929	404.07
450.297	416.84
450.665	381.09
451.032	419.39
451.4	368.32
451.767	411.73
452.135	457.69
452.502	383.65
452.87	444.93
453.237	388.75
453.604	409.18
453.971	381.09
454.339	462.8
454.706	406.63
455.073	444.93
455.44	409.18
455.807	393.86
456.174	450.03
456.541	406.63
456.908	391.31
457.274	424.5
457.641	391.31
458.008	383.65
458.374	432.16
458.741	434.71
459.108	401.52
459.474	388.75
459.841	416.84
460.207	409.18
460.573	381.09
460.94	398.97
461.306	450.03
461.672	462.8
462.038	429.61
462.404	373.43
462.771	450.03
463.137	409.18
463.503	424.5
463.868	322.36
464.234	452.59
464.6	409.18
464.966	347.9
465.332	411.73
465.697	452.59
466.063	419.39
466.429	429.61
466.794	409.18
467.16	409.18
467.525	363.22
467.89	363.22
468.256	414.29
468.621	444.93
468.986	429.61
469.351	375.98
469.717	365.77
470.082	406.63
470.447	432.16
470.812	455.14
471.177	386.2
471.542	416.84
471.906	421.95
472.271	485.78
472.636	432.16
473.001	452.59
473.365	427.05
473.73	404.07
474.094	365.77
474.459	434.71
474.823	444.93
475.188	396.41
475.552	442.37
475.917	452.59
476.281	462.8
476.645	467.91
477.009	421.95
477.373	475.57
477.737	424.5
478.101	480.67
478.465	411.73
478.829	414.29
479.193	447.48
479.557	462.8
479.921	490.89
480.284	455.14
480.648	442.37
481.012	365.77
481.375	414.29
481.739	337.68
482.102	452.59
482.466	434.71
482.829	467.91
483.193	427.05
483.556	409.18
483.919	429.61
484.282	411.73
484.645	432.16
485.009	447.48
485.372	511.31
485.735	414.29
486.098	475.57
486.46	460.25
486.823	498.55
487.186	429.61
487.549	416.84
487.912	391.31
488.274	465.35
488.637	437.27
488.999	470.46
489.362	375.98
489.724	444.93
490.087	483.23
490.449	386.2
490.811	429.61
491.174	370.88
491.536	432.16
491.898	470.46
492.26	432.16
492.622	393.86
492.984	419.39
493.346	404.07
493.708	429.61
494.07	475.57
494.432	508.76
494.794	475.57
495.155	462.8
495.517	388.75
495.879	452.59
496.24	483.23
496.602	447.48
496.963	455.14
497.325	414.29
497.686	383.65
498.048	373.43
498.409	437.27
498.77	381.09
499.131	386.2
499.492	442.37
499.854	386.2
500.215	406.63
500.576	409.18
500.937	365.77
501.298	398.97
501.658	473.01
502.019	442.37
502.38	444.93
502.741	391.31
503.101	378.54
503.462	460.25
503.823	450.03
504.183	427.05
504.543	419.39
504.904	501.1
505.264	460.25
505.625	434.71
505.985	467.91
506.345	455.14
506.705	439.82
507.065	455.14
507.426	421.95
507.786	381.09
508.146	396.41
508.505	444.93
508.865	416.84
509.225	409.18
509.585	526.63
509.945	432.16
510.304	381.09
510.664	447.48
511.024	465.35
511.383	483.23
511.743	465.35
512.102	429.61
512.462	416.84
512.821	427.05
513.18	439.82
513.539	493.44
513.899	480.67
514.258	421.95
514.617	421.95
514.976	444.93
515.335	398.97
515.694	495.99
516.053	414.29
516.412	460.25
516.771	493.44
517.129	398.97
517.488	427.05
517.847	442.37
518.205	475.57
518.564	414.29
518.922	429.61
519.281	416.84
519.639	444.93
519.998	401.52
520.356	370.88
520.714	475.57
521.073	365.77
521.431	391.31
521.789	450.03
522.147	424.5
522.505	416.84
522.863	432.16
523.221	404.07
523.579	450.03
523.937	427.05
524.295	416.84
524.652	439.82
525.01	421.95
525.368	409.18
525.725	386.2
526.083	452.59
526.44	393.86
526.798	434.71
527.155	455.14
527.513	375.98
527.87	465.35
528.227	411.73
528.584	427.05
528.942	411.73
529.299	457.69
529.656	391.31
530.013	414.29
530.37	401.52
530.727	404.07
531.083	396.41
531.44	398.97
531.797	442.37
532.154	506.21
532.511	437.27
532.867	391.31
533.224	388.75
533.58	419.39
533.937	416.84
534.293	411.73
534.65	424.5
535.006	480.67
535.362	485.78
535.718	416.84
536.075	429.61
536.431	447.48
536.787	409.18
537.143	432.16
537.499	473.01
537.855	409.18
538.211	360.66
538.567	398.97
538.923	495.99
539.278	424.5
539.634	409.18
539.99	353
540.345	480.67
540.701	467.91
541.056	391.31
541.412	450.03
541.767	483.23
542.123	434.71
542.478	381.09
542.833	439.82
543.188	368.32
543.544	434.71
543.899	488.33
544.254	444.93
544.609	450.03
544.964	424.5
545.319	401.52
545.674	437.27
546.029	437.27
546.383	434.71
546.738	452.59
547.093	388.75
547.447	396.41
547.802	416.84
548.157	452.59
548.511	398.97
548.866	388.75
549.22	478.12
549.574	442.37
549.929	409.18
550.283	434.71
550.637	414.29
550.991	370.88
551.345	439.82
551.699	480.67
552.053	411.73
552.407	401.52
552.761	434.71
553.115	490.89
553.469	378.54
553.823	404.07
554.176	501.1
554.53	462.8
554.884	439.82
555.237	659.41
555.591	473.01
555.944	414.29
556.298	398.97
556.651	470.46
557.005	483.23
557.358	455.14
557.711	416.84
558.064	424.5
558.417	429.61
558.771	577.7
559.124	452.59
559.477	432.16
559.83	437.27
560.182	393.86
560.535	391.31
560.888	383.65
561.241	373.43
561.594	406.63
561.946	386.2
562.299	373.43
562.651	473.01
563.004	411.73
563.356	406.63
563.709	401.52
564.061	452.59
564.413	495.99
564.766	439.82
565.118	401.52
565.47	388.75
565.822	388.75
566.174	432.16
566.526	434.71
566.878	398.97
567.23	434.71
567.582	353
567.934	450.03
568.286	355.56
568.638	393.86
568.989	437.27
569.341	473.01
569.693	516.42
570.044	488.33
570.396	432.16
570.747	442.37
571.098	434.71
571.45	427.05
571.801	386.2
572.152	414.29
572.504	393.86
572.855	488.33
573.206	442.37
573.557	457.69
573.908	478.12
574.259	411.73
574.61	437.27
574.961	409.18
575.311	447.48
575.662	386.2
576.013	444.93
576.364	427.05
576.714	501.1
577.065	370.88
577.415	427.05
577.766	365.77
578.116	416.84
578.467	439.82
578.817	485.78
579.167	442.37
579.518	391.31
579.868	416.84
580.218	404.07
580.568	396.41
580.918	480.67
581.268	404.07
581.618	447.48
581.968	396.41
582.318	467.91
582.668	409.18
583.017	462.8
583.367	467.91
583.717	401.52
584.066	457.69
584.416	378.54
584.765	358.11
585.115	386.2
585.464	470.46
585.814	442.37
586.163	450.03
586.512	444.93
586.862	411.73
587.211	383.65
587.56	465.35
587.909	460.25
588.258	381.09
588.607	378.54
588.956	396.41
589.305	457.69
589.654	409.18
590.002	404.07
590.351	388.75
590.7	391.31
591.048	355.56
591.397	404.07
591.746	411.73
592.094	358.11
592.443	424.5
592.791	457.69
593.139	427.05
593.488	455.14
593.836	409.18
594.184	452.59
594.532	447.48
594.88	493.44
595.228	427.05
595.576	414.29
595.924	439.82
596.272	432.16
596.62	419.39
596.968	350.45
597.316	427.05
597.664	434.71
598.011	419.39
598.359	414.29
598.706	434.71
599.054	421.95
599.402	375.98
599.749	388.75
600.096	396.41
600.444	411.73
600.791	460.25
601.138	488.33
601.485	480.67
601.833	442.37
602.18	455.14
602.527	404.07
602.874	462.8
603.221	393.86
603.568	373.43
603.914	401.52
604.261	411.73
604.608	444.93
604.955	442.37
605.301	370.88
605.648	393.86
605.995	404.07
606.341	447.48
606.688	465.35
607.034	414.29
607.38	360.66
607.727	421.95
608.073	442.37
608.419	396.41
608.765	416.84
609.112	424.5
609.458	424.5
609.804	404.07
610.15	401.52
610.496	437.27
610.842	427.05
611.187	335.13
611.533	396.41
611.879	398.97
612.225	447.48
612.57	447.48
612.916	437.27
613.261	427.05
613.607	409.18
613.952	432.16
614.298	386.2
614.643	447.48
614.989	432.16
615.334	429.61
615.679	419.39
616.024	411.73
616.369	401.52
616.714	368.32
617.059	383.65
617.404	414.29
617.749	409.18
618.094	424.5
618.439	526.63
618.784	483.23
619.129	457.69
619.473	398.97
619.818	396.41
620.163	447.48
620.507	378.54
620.852	396.41
621.196	480.67
621.54	462.8
621.885	396.41
622.229	429.61
622.573	457.69
622.918	429.61
623.262	388.75
623.606	365.77
623.95	404.07
624.294	437.27
624.638	470.46
624.982	429.61
625.326	416.84
625.67	427.05
626.013	427.05
626.357	404.07
626.701	404.07
627.044	432.16
627.388	411.73
627.731	478.12
628.075	518.97
628.418	457.69
628.762	429.61
629.105	465.35
629.448	416.84
629.792	427.05
630.135	462.8
630.478	368.32
630.821	396.41
631.164	396.41
631.507	411.73
631.85	388.75
632.193	429.61
632.536	421.95
632.879	427.05
633.221	398.97
633.564	419.39
633.907	393.86
634.249	424.5
634.592	401.52
634.935	460.25
635.277	444.93
635.619	442.37
635.962	381.09
636.304	439.82
636.646	455.14
636.989	457.69
637.331	439.82
637.673	409.18
638.015	398.97
638.357	488.33
638.699	513.87
639.041	465.35
639.383	429.61
639.725	419.39
640.067	396.41
640.408	398.97
640.75	375.98
641.092	455.14
641.433	404.07
641.775	401.52
642.116	393.86
642.458	452.59
642.799	427.05
643.141	467.91
643.482	414.29
643.823	462.8
644.164	439.82
644.506	473.01
644.847	427.05
645.188	442.37
645.529	439.82
645.87	388.75
646.211	485.78
646.552	442.37
646.893	419.39
647.233	424.5
647.574	424.5
647.915	437.27
648.255	388.75
648.596	444.93
648.937	432.16
649.277	421.95
649.618	427.05
649.958	429.61
650.298	432.16
650.639	424.5
650.979	439.82
651.319	483.23
651.659	450.03
651.999	439.82
652.339	411.73
652.679	404.07
653.019	404.07
653.359	439.82
653.699	450.03
654.039	526.63
654.379	406.63
654.719	386.2
655.058	388.75
655.398	368.32
655.737	391.31
656.077	427.05
656.416	452.59
656.756	444.93
657.095	424.5
657.435	434.71
657.774	396.41
658.113	434.71
658.452	437.27
658.792	467.91
659.131	534.29
659.47	427.05
659.809	447.48
660.148	411.73
660.487	503.65
660.826	363.22
661.164	381.09
661.503	386.2
661.842	388.75
662.181	388.75
662.519	473.01
662.858	429.61
663.196	391.31
663.535	490.89
663.873	424.5
664.212	450.03
664.55	434.71
664.888	409.18
665.226	414.29
665.565	437.27
665.903	628.77
666.241	457.69
666.579	388.75
666.917	406.63
667.255	375.98
667.593	314.7
667.931	411.73
668.268	393.86
668.606	447.48
668.944	432.16
669.282	381.09
669.619	434.71
669.957	360.66
670.294	365.77
670.632	455.14
670.969	444.93
671.307	524.08
671.644	485.78
671.981	452.59
672.318	462.8
672.656	442.37
672.993	424.5
673.33	432.16
673.667	404.07
674.004	419.39
674.341	414.29
674.678	386.2
675.015	398.97
675.351	421.95
675.688	475.57
676.025	498.55
676.362	457.69
676.698	450.03
677.035	383.65
677.371	416.84
677.708	421.95
678.044	365.77
678.38	409.18
678.717	370.88
679.053	314.7
679.389	409.18
679.725	427.05
680.062	439.82
680.398	429.61
680.734	447.48
681.07	429.61
681.406	381.09
681.742	439.82
682.077	495.99
682.413	416.84
682.749	388.75
683.085	506.21
683.42	480.67
683.756	360.66
684.091	350.45
684.427	363.22
684.762	416.84
685.098	465.35
685.433	363.22
685.768	398.97
686.104	386.2
686.439	396.41
686.774	406.63
687.109	411.73
687.444	378.54
687.779	365.77
688.114	416.84
688.449	478.12
688.784	455.14
689.119	409.18
689.454	391.31
689.789	370.88
690.123	427.05
690.458	375.98
690.792	429.61
691.127	404.07
691.461	470.46
691.796	462.8
692.13	442.37
692.465	460.25
692.799	406.63
693.133	358.11
693.467	475.57
693.802	404.07
694.136	358.11
694.47	370.88
694.804	388.75
695.138	386.2
695.472	381.09
695.806	388.75
696.139	393.86
696.473	388.75
696.807	421.95
697.141	419.39
697.474	439.82
697.808	381.09
698.141	434.71
698.475	414.29
698.808	450.03
699.142	373.43
699.475	388.75
699.808	396.41
700.142	421.95
700.475	363.22
700.808	411.73
701.141	383.65
701.474	375.98
701.807	398.97
702.14	432.16
702.473	398.97
702.806	396.41
703.139	365.77
703.472	444.93
703.804	393.86
704.137	353
704.47	421.95
704.802	518.97
705.135	467.91
705.467	340.24
705.8	442.37
706.132	434.71
706.464	406.63
706.797	421.95
707.129	419.39
707.461	398.97
707.793	391.31
708.125	370.88
708.457	419.39
708.789	404.07
709.121	444.93
709.453	358.11
709.785	419.39
710.117	439.82
710.449	493.44
710.781	391.31
711.112	414.29
711.444	444.93
711.775	398.97
712.107	424.5
712.438	414.29
712.77	467.91
713.101	421.95
713.433	414.29
713.764	432.16
714.095	386.2
714.426	391.31
714.757	419.39
715.089	396.41
715.42	506.21
715.751	447.48
716.082	419.39
716.412	368.32
716.743	447.48
717.074	503.65
717.405	421.95
717.736	455.14
718.066	404.07
718.397	432.16
718.727	429.61
719.058	495.99
719.388	437.27
719.719	345.34
720.049	429.61
720.38	409.18
720.71	427.05
721.04	411.73
721.37	432.16
721.7	450.03
722.031	414.29
722.361	457.69
722.691	450.03
723.021	409.18
723.35	439.82
723.68	473.01
724.01	437.27
724.34	414.29
724.67	465.35
724.999	393.86
725.329	419.39
725.658	467.91
725.988	421.95
726.317	375.98
726.647	360.66
726.976	398.97
727.306	493.44
727.635	419.39
727.964	406.63
728.293	393.86
728.622	424.5
728.952	419.39
729.281	398.97
729.61	442.37
729.939	375.98
730.267	452.59
730.596	419.39
730.925	383.65
731.254	419.39
731.583	401.52
731.911	378.54
732.24	434.71
732.568	462.8
732.897	444.93
733.225	358.11
733.554	388.75
733.882	452.59
734.21	404.07
734.539	360.66
734.867	506.21
735.195	419.39
735.523	429.61
735.851	452.59
736.179	358.11
736.507	411.73
736.835	429.61
737.163	439.82
737.491	485.78
737.819	404.07
738.147	414.29
738.474	373.43
738.802	434.71
739.13	432.16
739.457	462.8
739.785	386.2
740.112	401.52
740.44	442.37
740.767	465.35
741.094	388.75
741.422	381.09
741.749	393.86
742.076	388.75
742.403	381.09
742.73	455.14
743.057	429.61
743.384	427.05
743.711	414.29
744.038	363.22
744.365	416.84
744.692	490.89
745.018	473.01
745.345	432.16
745.672	386.2
745.998	427.05
746.325	378.54
746.651	450.03
746.978	455.14
747.304	427.05
747.631	396.41
747.957	342.79
748.283	393.86
748.61	406.63
748.936	416.84
749.262	406.63
749.588	396.41
749.914	416.84
750.24	386.2
750.566	360.66
750.892	396.41
751.218	391.31
751.543	314.7
751.869	401.52
752.195	470.46
752.521	452.59
752.846	378.54
753.172	411.73
753.497	353
753.823	368.32
754.148	414.29
754.473	450.03
754.799	450.03
755.124	406.63
755.449	434.71
755.774	437.27
756.1	373.43
756.425	444.93
756.75	375.98
757.075	406.63
757.4	559.83
757.724	483.23
758.049	437.27
758.374	411.73
758.699	432.16
759.024	432.16
759.348	485.78
759.673	381.09
759.997	434.71
760.322	424.5
760.646	358.11
760.971	427.05
761.295	409.18
761.619	350.45
761.944	457.69
762.268	455.14
762.592	524.08
762.916	552.17
763.24	506.21
763.564	498.55
763.888	529.19
764.212	455.14
764.536	577.7
764.86	677.28
765.184	774.31
765.508	871.34
765.831	876.45
766.155	1126.68
766.478	1032.2
766.802	896.87
767.126	787.08
767.449	723.24
767.772	945.39
768.096	1078.16
768.419	1310.52
768.742	1629.69
769.066	1724.17
769.389	1719.06
769.712	1632.25
770.035	1471.38
770.358	1152.21
770.681	1075.61
771.004	1144.55
771.327	1397.34
771.65	1813.54
771.972	2158.24
772.295	2630.62
772.618	2880.85
772.941	2771.05
773.263	2331.87
773.586	1956.53
773.908	1591.39
774.231	1415.21
774.553	1471.38
774.875	1721.62
775.198	2342.09
775.52	2975.32
775.842	3297.05
776.164	3294.5
776.487	3154.06
776.809	2610.19
777.131	2022.91
777.453	1412.66
777.775	1300.31
778.096	1560.75
778.418	2153.14
778.74	3105.55
779.062	4315.85
779.384	5449.55
779.705	5600.2
780.027	5063.99
780.348	4096.26
780.67	3281.73
780.991	2423.79
781.313	1900.35
781.634	1862.05
781.955	2548.91
782.277	3534.51
782.598	4469.05
782.919	5725.31
783.24	6281.95
783.561	6090.44
783.882	5602.75
784.203	4762.69
784.524	3455.36
784.845	2451.88
785.166	2125.05
785.487	2495.29
785.807	3488.55
786.128	4417.98
786.449	5275.92
786.769	6981.57
787.09	7982.5
787.41	7550.98
787.731	5901.49
788.051	3935.39
788.372	2622.96
788.692	2132.71
789.012	2411.03
789.332	3174.49
789.653	4382.24
789.973	5809.57
790.293	7729.71
790.613	8426.79
790.933	8955.34
791.253	8237.84
791.573	6575.59
791.893	4609.49
792.212	3100.44
792.532	2163.35
792.852	2331.87
793.171	3046.82
793.491	4065.62
793.811	5615.52
794.13	7116.9
794.45	7609.7
794.769	7257.34
795.088	6445.36
795.408	5089.52
795.727	3593.24
796.046	2436.56
796.365	2153.14
796.684	2564.23
797.004	3871.56
797.323	5503.17
797.642	7637.79
797.96	9894.98
798.279	10801.43
798.598	10571.62
798.917	9266.85
799.236	6933.06
799.554	4726.94
799.873	2898.72
