Data from 2025-12-03_xpw_interference_micrometer_637_FLMS141361__6__656.txt Node

Date: Wed Dec 03 15:56:06 MST 2025
User: james
Spectrometer: FLMS14136
Trigger mode: 0
Integration Time (sec): 1.000000E-1
Scans to average: 1
Electric dark correction enabled: true
Nonlinearity correction enabled: false
Boxcar width: 0
XAxis mode: Wavelengths
Number of Pixels in Spectrum: 2048
>>>>>Begin Spectral Data<<<<<
339.315	-72.77
339.697	-72.77
340.079	-72.77
340.461	-131.5
340.843	-105.97
341.225	-139.16
341.607	-70.22
341.989	-100.86
342.371	-95.75
342.752	-88.09
343.134	-70.22
343.516	6.38
343.897	-70.22
344.279	-42.13
344.661	26.81
345.042	62.56
345.423	70.22
345.805	118.73
346.186	131.5
346.567	105.97
346.949	154.48
347.33	157.03
347.711	141.71
348.092	121.29
348.473	220.87
348.854	236.19
349.235	277.04
349.616	254.06
349.997	233.63
350.378	259.17
350.758	338.32
351.139	312.79
351.52	274.49
351.9	335.77
352.281	312.79
352.661	348.54
353.042	376.62
353.422	376.62
353.803	356.2
354.183	335.77
354.563	379.18
354.943	402.16
355.324	340.88
355.704	361.3
356.084	361.3
356.464	389.39
356.844	358.75
357.224	358.75
357.603	420.03
357.983	353.64
358.363	389.39
358.743	384.28
359.122	389.39
359.502	394.5
359.882	351.09
360.261	368.96
360.641	345.98
361.02	338.32
361.399	356.2
361.779	353.64
362.158	297.47
362.537	345.98
362.916	358.75
363.296	351.09
363.675	402.16
364.054	353.64
364.433	356.2
364.812	353.64
365.19	353.64
365.569	302.58
365.948	345.98
366.327	259.17
366.705	356.2
367.084	381.73
367.463	351.09
367.841	391.94
368.22	379.18
368.598	366.41
368.977	343.43
369.355	374.07
369.733	297.47
370.111	363.86
370.49	366.41
370.868	294.92
371.246	361.3
371.624	323
372.002	361.3
372.38	320.45
372.758	340.88
373.136	379.18
373.513	427.69
373.891	435.35
374.269	323
374.646	348.54
375.024	323
375.402	330.66
375.779	325.56
376.157	361.3
376.534	343.43
376.911	361.3
377.289	389.39
377.666	351.09
378.043	379.18
378.42	366.41
378.797	384.28
379.175	348.54
379.552	399.6
379.929	343.43
380.305	340.88
380.682	335.77
381.059	297.47
381.436	374.07
381.813	330.66
382.189	379.18
382.566	422.58
382.943	307.68
383.319	407.26
383.696	297.47
384.072	266.83
384.448	358.75
384.825	348.54
385.201	361.3
385.577	323
385.953	399.6
386.329	323
386.706	348.54
387.082	358.75
387.458	386.84
387.834	368.96
388.209	335.77
388.585	323
388.961	358.75
389.337	361.3
389.713	307.68
390.088	320.45
390.464	325.56
390.839	348.54
391.215	363.86
391.59	389.39
391.966	374.07
392.341	386.84
392.716	358.75
393.092	376.62
393.467	414.92
393.842	351.09
394.217	376.62
394.592	379.18
394.967	351.09
395.342	356.2
395.717	302.58
396.092	345.98
396.467	379.18
396.841	271.93
397.216	376.62
397.591	371.52
397.965	361.3
398.34	414.92
398.714	320.45
399.089	345.98
399.463	317.9
399.838	399.6
400.212	259.17
400.586	302.58
400.961	397.05
401.335	333.22
401.709	261.72
402.083	343.43
402.457	397.05
402.831	371.52
403.205	386.84
403.579	386.84
403.953	381.73
404.326	361.3
404.7	409.82
405.074	397.05
405.447	356.2
405.821	363.86
406.195	338.32
406.568	353.64
406.942	427.69
407.315	361.3
407.688	361.3
408.062	323
408.435	402.16
408.808	351.09
409.181	358.75
409.554	389.39
409.927	366.41
410.3	374.07
410.673	323
411.046	368.96
411.419	404.71
411.792	407.26
412.165	417.48
412.537	402.16
412.91	368.96
413.283	330.66
413.655	402.16
414.028	351.09
414.4	368.96
414.773	384.28
415.145	384.28
415.517	414.92
415.889	358.75
416.262	384.28
416.634	376.62
417.006	488.97
417.378	422.58
417.75	353.64
418.122	443.01
418.494	402.16
418.866	381.73
419.238	440.46
419.609	397.05
419.981	323
420.353	379.18
420.725	368.96
421.096	317.9
421.468	371.52
421.839	397.05
422.211	435.35
422.582	414.92
422.953	368.96
423.325	348.54
423.696	279.59
424.067	320.45
424.438	376.62
424.809	394.5
425.18	409.82
425.551	440.46
425.922	435.35
426.293	330.66
426.664	356.2
427.035	399.6
427.406	343.43
427.776	402.16
428.147	368.96
428.518	407.26
428.888	368.96
429.259	371.52
429.629	435.35
429.999	440.46
430.37	381.73
430.74	420.03
431.11	430.24
431.481	371.52
431.851	379.18
432.221	374.07
432.591	399.6
432.961	358.75
433.331	363.86
433.701	399.6
434.071	397.05
434.441	414.92
434.81	389.39
435.18	422.58
435.55	440.46
435.919	361.3
436.289	356.2
436.658	384.28
437.028	384.28
437.397	414.92
437.767	455.78
438.136	397.05
438.505	356.2
438.875	320.45
439.244	397.05
439.613	427.69
439.982	397.05
440.351	402.16
440.72	384.28
441.089	366.41
441.458	437.9
441.827	376.62
442.196	420.03
442.564	550.25
442.933	437.9
443.302	381.73
443.67	351.09
444.039	404.71
444.407	391.94
444.776	320.45
445.144	368.96
445.513	384.28
445.881	417.48
446.249	353.64
446.617	384.28
446.986	348.54
447.354	305.13
447.722	427.69
448.09	361.3
448.458	463.44
448.826	435.35
449.194	386.84
449.561	330.66
449.929	363.86
450.297	348.54
450.665	356.2
451.032	345.98
451.4	312.79
451.767	402.16
452.135	404.71
452.502	397.05
452.87	345.98
453.237	402.16
453.604	379.18
453.971	402.16
454.339	391.94
454.706	407.26
455.073	389.39
455.44	425.14
455.807	374.07
456.174	414.92
456.541	391.94
456.908	384.28
457.274	453.22
457.641	427.69
458.008	448.12
458.374	389.39
458.741	412.37
459.108	353.64
459.474	443.01
459.841	391.94
460.207	425.14
460.573	404.71
460.94	381.73
461.306	358.75
461.672	420.03
462.038	330.66
462.404	407.26
462.771	379.18
463.137	445.56
463.503	379.18
463.868	404.71
464.234	391.94
464.6	338.32
464.966	356.2
465.332	389.39
465.697	504.29
466.063	394.5
466.429	374.07
466.794	402.16
467.16	394.5
467.525	425.14
467.89	397.05
468.256	397.05
468.621	368.96
468.986	366.41
469.351	402.16
469.717	340.88
470.082	386.84
470.447	368.96
470.812	305.13
471.177	389.39
471.542	389.39
471.906	443.01
472.271	358.75
472.636	356.2
473.001	404.71
473.365	384.28
473.73	404.71
474.094	425.14
474.459	371.52
474.823	366.41
475.188	448.12
475.552	397.05
475.917	432.8
476.281	374.07
476.645	340.88
477.009	356.2
477.373	402.16
477.737	374.07
478.101	407.26
478.465	333.22
478.829	391.94
479.193	389.39
479.557	366.41
479.921	340.88
480.284	427.69
480.648	409.82
481.012	450.67
481.375	412.37
481.739	374.07
482.102	417.48
482.466	389.39
482.829	445.56
483.193	384.28
483.556	279.59
483.919	381.73
484.282	455.78
484.645	371.52
485.009	351.09
485.372	399.6
485.735	389.39
486.098	366.41
486.46	379.18
486.823	368.96
487.186	389.39
487.549	394.5
487.912	386.84
488.274	307.68
488.637	379.18
488.999	425.14
489.362	473.65
489.724	453.22
490.087	430.24
490.449	425.14
490.811	437.9
491.174	384.28
491.536	353.64
491.898	399.6
492.26	376.62
492.622	427.69
492.984	397.05
493.346	422.58
493.708	425.14
494.07	351.09
494.432	407.26
494.794	407.26
495.155	358.75
495.517	351.09
495.879	420.03
496.24	376.62
496.602	351.09
496.963	394.5
497.325	384.28
497.686	404.71
498.048	381.73
498.409	368.96
498.77	473.65
499.131	391.94
499.492	386.84
499.854	450.67
500.215	425.14
500.576	363.86
500.937	368.96
501.298	432.8
501.658	384.28
502.019	340.88
502.38	381.73
502.741	384.28
503.101	394.5
503.462	361.3
503.823	338.32
504.183	420.03
504.543	427.69
504.904	443.01
505.264	414.92
505.625	338.32
505.985	368.96
506.345	443.01
506.705	420.03
507.065	376.62
507.426	399.6
507.786	353.64
508.146	399.6
508.505	445.56
508.865	437.9
509.225	399.6
509.585	468.54
509.945	414.92
510.304	437.9
510.664	376.62
511.024	328.11
511.383	427.69
511.743	412.37
512.102	402.16
512.462	330.66
512.821	343.43
513.18	340.88
513.539	379.18
513.899	394.5
514.258	368.96
514.617	407.26
514.976	389.39
515.335	363.86
515.694	340.88
516.053	420.03
516.412	391.94
516.771	425.14
517.129	397.05
517.488	414.92
517.847	425.14
518.205	399.6
518.564	407.26
518.922	453.22
519.281	366.41
519.639	453.22
519.998	404.71
520.356	422.58
520.714	450.67
521.073	437.9
521.431	404.71
521.789	427.69
522.147	374.07
522.505	409.82
522.863	391.94
523.221	381.73
523.579	391.94
523.937	397.05
524.295	440.46
524.652	399.6
525.01	399.6
525.368	379.18
525.725	458.33
526.083	420.03
526.44	435.35
526.798	358.75
527.155	379.18
527.513	463.44
527.87	481.31
528.227	432.8
528.584	404.71
528.942	404.71
529.299	420.03
529.656	317.9
530.013	465.99
530.37	412.37
530.727	391.94
531.083	420.03
531.44	435.35
531.797	422.58
532.154	394.5
532.511	425.14
532.867	420.03
533.224	427.69
533.58	430.24
533.937	397.05
534.293	371.52
534.65	409.82
535.006	376.62
535.362	368.96
535.718	407.26
536.075	374.07
536.431	338.32
536.787	351.09
537.143	363.86
537.499	381.73
537.855	397.05
538.211	374.07
538.567	394.5
538.923	381.73
539.278	338.32
539.634	376.62
539.99	412.37
540.345	407.26
540.701	384.28
541.056	425.14
541.412	412.37
541.767	379.18
542.123	361.3
542.478	356.2
542.833	437.9
543.188	394.5
543.544	460.88
543.899	363.86
544.254	397.05
544.609	340.88
544.964	345.98
545.319	425.14
545.674	381.73
546.029	417.48
546.383	399.6
546.738	402.16
547.093	422.58
547.447	363.86
547.802	345.98
548.157	420.03
548.511	343.43
548.866	368.96
549.22	371.52
549.574	351.09
549.929	430.24
550.283	412.37
550.637	399.6
550.991	358.75
551.345	409.82
551.699	353.64
552.053	445.56
552.407	394.5
552.761	394.5
553.115	394.5
553.469	417.48
553.823	407.26
554.176	371.52
554.53	305.13
554.884	443.01
555.237	586
555.591	391.94
555.944	414.92
556.298	417.48
556.651	409.82
557.005	363.86
557.358	358.75
557.711	376.62
558.064	386.84
558.417	384.28
558.771	427.69
559.124	414.92
559.477	391.94
559.83	381.73
560.182	402.16
560.535	386.84
560.888	448.12
561.241	414.92
561.594	425.14
561.946	409.82
562.299	427.69
562.651	391.94
563.004	427.69
563.356	371.52
563.709	358.75
564.061	391.94
564.413	425.14
564.766	437.9
565.118	399.6
565.47	450.67
565.822	343.43
566.174	361.3
566.526	386.84
566.878	374.07
567.23	440.46
567.582	422.58
567.934	420.03
568.286	381.73
568.638	391.94
568.989	450.67
569.341	455.78
569.693	379.18
570.044	384.28
570.396	379.18
570.747	389.39
571.098	381.73
571.45	384.28
571.801	483.87
572.152	420.03
572.504	409.82
572.855	445.56
573.206	381.73
573.557	414.92
573.908	374.07
574.259	368.96
574.61	397.05
574.961	384.28
575.311	463.44
575.662	412.37
576.013	353.64
576.364	315.34
576.714	448.12
577.065	420.03
577.415	333.22
577.766	381.73
578.116	463.44
578.467	397.05
578.817	368.96
579.167	422.58
579.518	425.14
579.868	455.78
580.218	443.01
580.568	440.46
580.918	445.56
581.268	391.94
581.618	386.84
581.968	374.07
582.318	384.28
582.668	407.26
583.017	404.71
583.367	402.16
583.717	345.98
584.066	381.73
584.416	371.52
584.765	371.52
585.115	363.86
585.464	391.94
585.814	455.78
586.163	384.28
586.512	394.5
586.862	397.05
587.211	394.5
587.56	371.52
587.909	397.05
588.258	391.94
588.607	437.9
588.956	397.05
589.305	450.67
589.654	335.77
590.002	389.39
590.351	478.76
590.7	509.4
591.048	368.96
591.397	386.84
591.746	379.18
592.094	366.41
592.443	443.01
592.791	409.82
593.139	437.9
593.488	399.6
593.836	427.69
594.184	430.24
594.532	465.99
594.88	448.12
595.228	471.1
595.576	397.05
595.924	358.75
596.272	300.02
596.62	386.84
596.968	384.28
597.316	376.62
597.664	399.6
598.011	501.74
598.359	386.84
598.706	407.26
599.054	376.62
599.402	379.18
599.749	460.88
600.096	412.37
600.444	407.26
600.791	437.9
601.138	445.56
601.485	420.03
601.833	389.39
602.18	361.3
602.527	427.69
602.874	407.26
603.221	404.71
603.568	440.46
603.914	455.78
604.261	407.26
604.608	361.3
604.955	310.24
605.301	389.39
605.648	351.09
605.995	397.05
606.341	389.39
606.688	328.11
607.034	358.75
607.38	368.96
607.727	391.94
608.073	338.32
608.419	379.18
608.765	358.75
609.112	399.6
609.458	440.46
609.804	399.6
610.15	348.54
610.496	430.24
610.842	440.46
611.187	430.24
611.533	353.64
611.879	353.64
612.225	445.56
612.57	409.82
612.916	440.46
613.261	376.62
613.607	371.52
613.952	386.84
614.298	404.71
614.643	338.32
614.989	417.48
615.334	323
615.679	345.98
616.024	397.05
616.369	343.43
616.714	376.62
617.059	386.84
617.404	376.62
617.749	386.84
618.094	376.62
618.439	386.84
618.784	397.05
619.129	453.22
619.473	391.94
619.818	391.94
620.163	432.8
620.507	432.8
620.852	394.5
621.196	394.5
621.54	399.6
621.885	363.86
622.229	394.5
622.573	458.33
622.918	427.69
623.262	368.96
623.606	376.62
623.95	315.34
624.294	437.9
624.638	325.56
624.982	425.14
625.326	407.26
625.67	345.98
626.013	397.05
626.357	284.7
626.701	463.44
627.044	432.8
627.388	391.94
627.731	397.05
628.075	335.77
628.418	368.96
628.762	368.96
629.105	414.92
629.448	376.62
629.792	386.84
630.135	328.11
630.478	363.86
630.821	310.24
631.164	397.05
631.507	366.41
631.85	430.24
632.193	448.12
632.536	363.86
632.879	356.2
633.221	366.41
633.564	353.64
633.907	335.77
634.249	371.52
634.592	381.73
634.935	289.81
635.277	381.73
635.619	412.37
635.962	343.43
636.304	348.54
636.646	363.86
636.989	420.03
637.331	409.82
637.673	351.09
638.015	374.07
638.357	422.58
638.699	471.1
639.041	353.64
639.383	394.5
639.725	417.48
640.067	455.78
640.408	338.32
640.75	417.48
641.092	366.41
641.433	437.9
641.775	494.08
642.116	368.96
642.458	422.58
642.799	325.56
643.141	366.41
643.482	379.18
643.823	414.92
644.164	379.18
644.506	432.8
644.847	427.69
645.188	389.39
645.529	473.65
645.87	404.71
646.211	384.28
646.552	417.48
646.893	389.39
647.233	389.39
647.574	345.98
647.915	340.88
648.255	437.9
648.596	333.22
648.937	420.03
649.277	412.37
649.618	409.82
649.958	391.94
650.298	371.52
650.639	368.96
650.979	374.07
651.319	394.5
651.659	348.54
651.999	302.58
652.339	374.07
652.679	376.62
653.019	345.98
653.359	384.28
653.699	402.16
654.039	300.02
654.379	330.66
654.719	381.73
655.058	376.62
655.398	333.22
655.737	409.82
656.077	445.56
656.416	374.07
656.756	351.09
657.095	351.09
657.435	394.5
657.774	376.62
658.113	458.33
658.452	399.6
658.792	338.32
659.131	417.48
659.47	427.69
659.809	417.48
660.148	430.24
660.487	414.92
660.826	386.84
661.164	463.44
661.503	381.73
661.842	338.32
662.181	437.9
662.519	453.22
662.858	368.96
663.196	404.71
663.535	323
663.873	335.77
664.212	363.86
664.55	368.96
664.888	376.62
665.226	391.94
665.565	412.37
665.903	657.49
666.241	409.82
666.579	427.69
666.917	328.11
667.255	440.46
667.593	379.18
667.931	425.14
668.268	397.05
668.606	353.64
668.944	399.6
669.282	317.9
669.619	361.3
669.957	417.48
670.294	448.12
670.632	455.78
670.969	450.67
671.307	379.18
671.644	397.05
671.981	371.52
672.318	345.98
672.656	409.82
672.993	333.22
673.33	340.88
673.667	384.28
674.004	351.09
674.341	312.79
674.678	386.84
675.015	338.32
675.351	412.37
675.688	420.03
676.025	391.94
676.362	351.09
676.698	420.03
677.035	389.39
677.371	368.96
677.708	368.96
678.044	348.54
678.38	430.24
678.717	420.03
679.053	374.07
679.389	435.35
679.725	389.39
680.062	379.18
680.398	389.39
680.734	351.09
681.07	391.94
681.406	358.75
681.742	389.39
682.077	445.56
682.413	312.79
682.749	409.82
683.085	379.18
683.42	435.35
683.756	437.9
684.091	437.9
684.427	353.64
684.762	404.71
685.098	397.05
685.433	386.84
685.768	437.9
686.104	448.12
686.439	391.94
686.774	422.58
687.109	448.12
687.444	453.22
687.779	381.73
688.114	394.5
688.449	404.71
688.784	335.77
689.119	353.64
689.454	358.75
689.789	361.3
690.123	376.62
690.458	300.02
690.792	397.05
691.127	399.6
691.461	389.39
691.796	386.84
692.13	333.22
692.465	366.41
692.799	414.92
693.133	282.15
693.467	376.62
693.802	371.52
694.136	381.73
694.47	386.84
694.804	427.69
695.138	437.9
695.472	404.71
695.806	430.24
696.139	412.37
696.473	458.33
696.807	351.09
697.141	320.45
697.474	353.64
697.808	414.92
698.141	391.94
698.475	399.6
698.808	404.71
699.142	366.41
699.475	391.94
699.808	430.24
700.142	414.92
700.475	345.98
700.808	315.34
701.141	348.54
701.474	368.96
701.807	366.41
702.14	371.52
702.473	432.8
702.806	363.86
703.139	450.67
703.472	453.22
703.804	343.43
704.137	333.22
704.47	407.26
704.802	394.5
705.135	389.39
705.467	397.05
705.8	391.94
706.132	386.84
706.464	381.73
706.797	363.86
707.129	402.16
707.461	414.92
707.793	432.8
708.125	368.96
708.457	381.73
708.789	368.96
709.121	386.84
709.453	414.92
709.785	333.22
710.117	394.5
710.449	353.64
710.781	356.2
711.112	386.84
711.444	330.66
711.775	432.8
712.107	356.2
712.438	351.09
712.77	366.41
713.101	430.24
713.433	420.03
713.764	361.3
714.095	440.46
714.426	340.88
714.757	420.03
715.089	389.39
715.42	394.5
715.751	440.46
716.082	394.5
716.412	450.67
716.743	409.82
717.074	381.73
717.405	353.64
717.736	376.62
718.066	384.28
718.397	363.86
718.727	399.6
719.058	422.58
719.388	366.41
719.719	345.98
720.049	453.22
720.38	399.6
720.71	363.86
721.04	402.16
721.37	345.98
721.7	343.43
722.031	363.86
722.361	366.41
722.691	348.54
723.021	407.26
723.35	422.58
723.68	391.94
724.01	397.05
724.34	399.6
724.67	330.66
724.999	409.82
725.329	409.82
725.658	437.9
725.988	440.46
726.317	338.32
726.647	363.86
726.976	368.96
727.306	356.2
727.635	409.82
727.964	312.79
728.293	335.77
728.622	358.75
728.952	417.48
729.281	409.82
729.61	386.84
729.939	391.94
730.267	374.07
730.596	412.37
730.925	445.56
731.254	376.62
731.583	404.71
731.911	427.69
732.24	399.6
732.568	356.2
732.897	361.3
733.225	417.48
733.554	356.2
733.882	353.64
734.21	345.98
734.539	368.96
734.867	371.52
735.195	381.73
735.523	407.26
735.851	407.26
736.179	374.07
736.507	471.1
736.835	358.75
737.163	371.52
737.491	371.52
737.819	443.01
738.147	409.82
738.474	394.5
738.802	348.54
739.13	363.86
739.457	368.96
739.785	323
740.112	361.3
740.44	379.18
740.767	386.84
741.094	379.18
741.422	376.62
741.749	338.32
742.076	389.39
742.403	371.52
742.73	420.03
743.057	402.16
743.384	379.18
743.711	348.54
744.038	348.54
744.365	430.24
744.692	435.35
745.018	323
745.345	363.86
745.672	399.6
745.998	445.56
746.325	381.73
746.651	402.16
746.978	443.01
747.304	409.82
747.631	427.69
747.957	445.56
748.283	323
748.61	430.24
748.936	348.54
749.262	366.41
749.588	422.58
749.914	397.05
750.24	425.14
750.566	323
750.892	397.05
751.218	404.71
751.543	417.48
751.869	381.73
752.195	330.66
752.521	402.16
752.846	422.58
753.172	417.48
753.497	379.18
753.823	414.92
754.148	368.96
754.473	384.28
754.799	402.16
755.124	358.75
755.449	330.66
755.774	348.54
756.1	371.52
756.425	353.64
756.75	353.64
757.075	368.96
757.4	476.2
757.724	328.11
758.049	427.69
758.374	407.26
758.699	282.15
759.024	330.66
759.348	379.18
759.673	371.52
759.997	478.76
760.322	443.01
760.646	343.43
760.971	399.6
761.295	348.54
761.619	391.94
761.944	450.67
762.268	386.84
762.592	399.6
762.916	455.78
763.24	476.2
763.564	450.67
763.888	555.36
764.212	476.2
764.536	529.83
764.86	657.49
765.184	634.51
765.508	751.97
765.831	780.06
766.155	1096.68
766.478	808.14
766.802	859.21
767.126	769.84
767.449	731.54
767.772	900.07
768.096	1043.05
768.419	1334.14
768.742	1492.45
769.066	1520.54
769.389	1594.58
769.712	1538.41
770.035	1372.44
770.358	1129.87
770.681	1030.29
771.004	1094.12
771.327	1244.77
771.65	1706.93
771.972	2143.56
772.295	2638.92
772.618	2907.02
772.941	2776.8
773.263	2365.7
773.586	1862.69
773.908	1599.69
774.231	1336.69
774.553	1413.29
774.875	1765.66
775.198	2355.49
775.52	2889.15
775.842	3083.2
776.164	3208.32
776.487	2975.96
776.809	2587.85
777.131	1903.54
777.453	1433.72
777.775	1354.57
778.096	1487.34
778.418	2151.22
778.74	3055.12
779.062	4158.18
779.384	5314.86
779.705	5457.85
780.027	4962.49
780.348	4035.61
780.67	3269.6
780.991	2437.2
781.313	1885.67
781.634	1959.72
781.955	2580.19
782.277	3397.27
782.598	4497.78
782.919	5697.86
783.24	6070.66
783.561	5968.52
783.882	5662.12
784.203	4847.59
784.524	3614.31
784.845	2401.45
785.166	2115.47
785.487	2564.87
785.807	3547.92
786.128	4273.08
786.449	5281.66
786.769	6910.72
787.09	8141.45
787.41	7523.53
787.731	5746.38
788.051	3999.87
788.372	2598.06
788.692	2186.97
789.012	2388.69
789.332	3042.35
789.653	4344.57
789.973	5777.02
790.293	7467.35
790.613	8527.01
790.933	9114.28
791.253	8355.93
791.573	6407.7
791.893	4459.47
792.212	2894.25
792.532	2289.1
792.852	2437.2
793.171	3029.58
793.491	4053.49
793.811	5485.93
794.13	7053.71
794.45	7582.26
794.769	7260.53
795.088	6428.13
795.408	4903.76
795.727	3793.04
796.046	2549.55
796.365	2189.52
796.684	2631.26
797.004	3744.53
797.323	5506.36
797.642	7817.17
797.96	9632.62
798.279	10651.42
798.598	10697.38
798.917	9244.51
799.236	6798.37
799.554	4561.61
799.873	2817.65
800.192	1809.07
800.51	1655.87
800.829	1923.97
801.147	2827.87
801.466	4130.09
