Data from 2025-12-03_xpw_interference_FLMS141361__17__14-35-49-481.txt Node

Date: Wed Dec 03 14:35:49 MST 2025
User: james
Spectrometer: FLMS14136
Trigger mode: 0
Integration Time (sec): 1.000000E-1
Scans to average: 1
Electric dark correction enabled: true
Nonlinearity correction enabled: false
Boxcar width: 0
XAxis mode: Wavelengths
Number of Pixels in Spectrum: 2048
>>>>>Begin Spectral Data<<<<<
339.315	5.27
339.697	5.27
340.079	5.27
340.461	-114.74
340.843	-107.08
341.225	-86.66
341.607	-117.3
341.989	-84.1
342.371	-56.01
342.752	-20.27
343.134	-40.69
343.516	-50.91
343.897	-25.37
344.279	-35.59
344.661	7.82
345.042	33.35
345.423	53.78
345.805	97.19
346.186	92.08
346.567	122.72
346.949	109.95
347.33	201.88
347.711	224.86
348.092	191.66
348.473	232.52
348.854	214.64
349.235	255.5
349.616	242.73
349.997	224.86
350.378	316.78
350.758	319.33
351.139	304.01
351.52	372.95
351.9	375.51
352.281	344.87
352.661	375.51
353.042	281.03
353.422	362.74
353.803	403.59
354.183	357.63
354.563	388.27
354.943	388.27
355.324	408.7
355.704	332.1
356.084	349.97
356.464	431.68
356.844	441.89
357.224	339.76
357.603	372.95
357.983	329.55
358.363	482.75
358.743	360.19
359.122	365.29
359.502	403.59
359.882	395.93
360.261	406.15
360.641	380.61
361.02	378.06
361.399	357.63
361.779	326.99
362.158	429.13
362.537	375.51
362.916	314.23
363.296	365.29
363.675	401.04
364.054	406.15
364.433	378.06
364.812	388.27
365.19	372.95
365.569	339.76
365.948	321.89
366.327	360.19
366.705	319.33
367.084	393.38
367.463	344.87
367.841	454.66
368.22	375.51
368.598	370.4
368.977	321.89
369.355	393.38
369.733	383.17
370.111	398.49
370.49	349.97
370.868	362.74
371.246	301.46
371.624	352.53
372.002	334.65
372.38	390.83
372.758	372.95
373.136	418.91
373.513	408.7
373.891	398.49
374.269	334.65
374.646	362.74
375.024	309.12
375.402	390.83
375.779	385.72
376.157	362.74
376.534	388.27
376.911	436.79
377.289	401.04
377.666	408.7
378.043	383.17
378.42	395.93
378.797	403.59
379.175	349.97
379.552	395.93
379.929	372.95
380.305	388.27
380.682	372.95
381.059	349.97
381.436	413.81
381.813	388.27
382.189	293.8
382.566	383.17
382.943	324.44
383.319	367.85
383.696	375.51
384.072	357.63
384.448	393.38
384.825	306.56
385.201	309.12
385.577	362.74
385.953	329.55
386.329	347.42
386.706	365.29
387.082	406.15
387.458	352.53
387.834	339.76
388.209	370.4
388.585	367.85
388.961	459.77
389.337	321.89
389.713	385.72
390.088	365.29
390.464	365.29
390.839	339.76
391.215	383.17
391.59	372.95
391.966	398.49
392.341	434.23
392.716	355.08
393.092	413.81
393.467	388.27
393.842	401.04
394.217	347.42
394.592	388.27
394.967	357.63
395.342	375.51
395.717	406.15
396.092	436.79
396.467	416.36
396.841	355.08
397.216	367.85
397.591	291.24
397.965	362.74
398.34	352.53
398.714	326.99
399.089	426.57
399.463	408.7
399.838	429.13
400.212	337.21
400.586	390.83
400.961	418.91
401.335	447
401.709	395.93
402.083	426.57
402.457	385.72
402.831	441.89
403.205	408.7
403.579	403.59
403.953	403.59
404.326	372.95
404.7	370.4
405.074	268.26
405.447	393.38
405.821	378.06
406.195	337.21
406.568	467.43
406.942	385.72
407.315	388.27
407.688	416.36
408.062	370.4
408.435	342.31
408.808	388.27
409.181	349.97
409.554	393.38
409.927	334.65
410.3	413.81
410.673	380.61
411.046	395.93
411.419	372.95
411.792	388.27
412.165	372.95
412.537	365.29
412.91	485.3
413.283	383.17
413.655	452.11
414.028	429.13
414.4	378.06
414.773	388.27
415.145	413.81
415.517	349.97
415.889	360.19
416.262	426.57
416.634	304.01
417.006	342.31
417.378	411.25
417.75	390.83
418.122	444.45
418.494	352.53
418.866	352.53
419.238	309.12
419.609	349.97
419.981	429.13
420.353	306.56
420.725	378.06
421.096	416.36
421.468	370.4
421.839	385.72
422.211	375.51
422.582	324.44
422.953	357.63
423.325	385.72
423.696	378.06
424.067	378.06
424.438	388.27
424.809	385.72
425.18	372.95
425.551	426.57
425.922	395.93
426.293	411.25
426.664	413.81
427.035	424.02
427.406	372.95
427.776	454.66
428.147	406.15
428.518	439.34
428.888	469.98
429.259	393.38
429.629	367.85
429.999	424.02
430.37	380.61
430.74	406.15
431.11	372.95
431.481	411.25
431.851	383.17
432.221	462.32
432.591	434.23
432.961	372.95
433.331	395.93
433.701	383.17
434.071	431.68
434.441	362.74
434.81	326.99
435.18	429.13
435.55	383.17
435.919	411.25
436.289	408.7
436.658	344.87
437.028	395.93
437.397	347.42
437.767	349.97
438.136	385.72
438.505	332.1
438.875	372.95
439.244	411.25
439.613	390.83
439.982	449.55
440.351	403.59
440.72	403.59
441.089	390.83
441.458	457.21
441.827	390.83
442.196	383.17
442.564	367.85
442.933	416.36
443.302	408.7
443.67	452.11
444.039	449.55
444.407	401.04
444.776	418.91
445.144	436.79
445.513	380.61
445.881	447
446.249	339.76
446.617	498.07
446.986	413.81
447.354	436.79
447.722	403.59
448.09	436.79
448.458	424.02
448.826	454.66
449.194	367.85
449.561	480.19
449.929	403.59
450.297	413.81
450.665	352.53
451.032	447
451.4	426.57
451.767	357.63
452.135	444.45
452.502	357.63
452.87	378.06
453.237	424.02
453.604	349.97
453.971	383.17
454.339	375.51
454.706	447
455.073	408.7
455.44	406.15
455.807	449.55
456.174	378.06
456.541	459.77
456.908	462.32
457.274	495.51
457.641	426.57
458.008	401.04
458.374	457.21
458.741	365.29
459.108	337.21
459.474	439.34
459.841	406.15
460.207	388.27
460.573	454.66
460.94	329.55
461.306	421.47
461.672	398.49
462.038	477.64
462.404	439.34
462.771	395.93
463.137	395.93
463.503	390.83
463.868	403.59
464.234	421.47
464.6	362.74
464.966	398.49
465.332	395.93
465.697	434.23
466.063	421.47
466.429	398.49
466.794	462.32
467.16	439.34
467.525	393.38
467.89	380.61
468.256	380.61
468.621	375.51
468.986	426.57
469.351	337.21
469.717	365.29
470.082	375.51
470.447	378.06
470.812	403.59
471.177	431.68
471.542	378.06
471.906	367.85
472.271	416.36
472.636	413.81
473.001	416.36
473.365	436.79
473.73	380.61
474.094	418.91
474.459	464.87
474.823	321.89
475.188	449.55
475.552	334.65
475.917	431.68
476.281	449.55
476.645	408.7
477.009	334.65
477.373	347.42
477.737	390.83
478.101	401.04
478.465	411.25
478.829	316.78
479.193	395.93
479.557	431.68
479.921	406.15
480.284	365.29
480.648	375.51
481.012	393.38
481.375	370.4
481.739	424.02
482.102	413.81
482.466	408.7
482.829	444.45
483.193	390.83
483.556	347.42
483.919	362.74
484.282	431.68
484.645	454.66
485.009	375.51
485.372	349.97
485.735	439.34
486.098	416.36
486.46	408.7
486.823	439.34
487.186	447
487.549	431.68
487.912	393.38
488.274	390.83
488.637	416.36
488.999	367.85
489.362	426.57
489.724	418.91
490.087	390.83
490.449	449.55
490.811	462.32
491.174	372.95
491.536	390.83
491.898	411.25
492.26	349.97
492.622	426.57
492.984	439.34
493.346	452.11
493.708	344.87
494.07	411.25
494.432	398.49
494.794	401.04
495.155	411.25
495.517	408.7
495.879	395.93
496.24	406.15
496.602	385.72
496.963	436.79
497.325	426.57
497.686	372.95
498.048	449.55
498.409	362.74
498.77	429.13
499.131	362.74
499.492	388.27
499.854	411.25
500.215	424.02
500.576	436.79
500.937	357.63
501.298	441.89
501.658	441.89
502.019	521.05
502.38	398.49
502.741	375.51
503.101	380.61
503.462	421.47
503.823	477.64
504.183	436.79
504.543	403.59
504.904	360.19
505.264	370.4
505.625	347.42
505.985	352.53
506.345	408.7
506.705	426.57
507.065	406.15
507.426	406.15
507.786	398.49
508.146	390.83
508.505	352.53
508.865	388.27
509.225	393.38
509.585	549.14
509.945	462.32
510.304	378.06
510.664	355.08
511.024	378.06
511.383	449.55
511.743	462.32
512.102	395.93
512.462	413.81
512.821	416.36
513.18	406.15
513.539	477.64
513.899	464.87
514.258	398.49
514.617	454.66
514.976	388.27
515.335	393.38
515.694	444.45
516.053	498.07
516.412	418.91
516.771	431.68
517.129	424.02
517.488	398.49
517.847	439.34
518.205	426.57
518.564	370.4
518.922	459.77
519.281	370.4
519.639	416.36
519.998	372.95
520.356	385.72
520.714	355.08
521.073	380.61
521.431	367.85
521.789	449.55
522.147	424.02
522.505	459.77
522.863	365.29
523.221	447
523.579	349.97
523.937	413.81
524.295	334.65
524.652	372.95
525.01	378.06
525.368	441.89
525.725	408.7
526.083	459.77
526.44	429.13
526.798	370.4
527.155	375.51
527.513	365.29
527.87	447
528.227	406.15
528.584	339.76
528.942	403.59
529.299	424.02
529.656	454.66
530.013	424.02
530.37	411.25
530.727	475.09
531.083	378.06
531.44	398.49
531.797	418.91
532.154	421.47
532.511	372.95
532.867	355.08
533.224	426.57
533.58	406.15
533.937	431.68
534.293	347.42
534.65	408.7
535.006	342.31
535.362	403.59
535.718	395.93
536.075	411.25
536.431	416.36
536.787	398.49
537.143	408.7
537.499	372.95
537.855	411.25
538.211	393.38
538.567	380.61
538.923	406.15
539.278	378.06
539.634	314.23
539.99	408.7
540.345	406.15
540.701	383.17
541.056	426.57
541.412	439.34
541.767	395.93
542.123	454.66
542.478	434.23
542.833	495.51
543.188	375.51
543.544	403.59
543.899	413.81
544.254	398.49
544.609	352.53
544.964	429.13
545.319	378.06
545.674	398.49
546.029	375.51
546.383	372.95
546.738	416.36
547.093	467.43
547.447	447
547.802	424.02
548.157	372.95
548.511	367.85
548.866	362.74
549.22	362.74
549.574	439.34
549.929	337.21
550.283	416.36
550.637	367.85
550.991	459.77
551.345	441.89
551.699	411.25
552.053	413.81
552.407	431.68
552.761	416.36
553.115	441.89
553.469	395.93
553.823	454.66
554.176	406.15
554.53	403.59
554.884	411.25
555.237	602.76
555.591	449.55
555.944	378.06
556.298	434.23
556.651	401.04
557.005	441.89
557.358	431.68
557.711	385.72
558.064	398.49
558.417	421.47
558.771	421.47
559.124	426.57
559.477	429.13
559.83	416.36
560.182	441.89
560.535	528.71
560.888	424.02
561.241	447
561.594	408.7
561.946	426.57
562.299	408.7
562.651	342.31
563.004	434.23
563.356	426.57
563.709	469.98
564.061	406.15
564.413	408.7
564.766	469.98
565.118	393.38
565.47	406.15
565.822	439.34
566.174	421.47
566.526	395.93
566.878	362.74
567.23	367.85
567.582	447
567.934	416.36
568.286	413.81
568.638	388.27
568.989	395.93
569.341	424.02
569.693	398.49
570.044	434.23
570.396	426.57
570.747	429.13
571.098	444.45
571.45	406.15
571.801	429.13
572.152	372.95
572.504	370.4
572.855	337.21
573.206	383.17
573.557	431.68
573.908	393.38
574.259	411.25
574.61	416.36
574.961	469.98
575.311	441.89
575.662	459.77
576.013	436.79
576.364	424.02
576.714	431.68
577.065	401.04
577.415	452.11
577.766	429.13
578.116	388.27
578.467	431.68
578.817	452.11
579.167	380.61
579.518	380.61
579.868	380.61
580.218	344.87
580.568	390.83
580.918	360.19
581.268	319.33
581.618	355.08
581.968	403.59
582.318	385.72
582.668	447
583.017	472.53
583.367	413.81
583.717	424.02
584.066	464.87
584.416	469.98
584.765	385.72
585.115	434.23
585.464	378.06
585.814	378.06
586.163	401.04
586.512	408.7
586.862	418.91
587.211	380.61
587.56	390.83
587.909	395.93
588.258	360.19
588.607	360.19
588.956	498.07
589.305	395.93
589.654	393.38
590.002	406.15
590.351	421.47
590.7	372.95
591.048	449.55
591.397	439.34
591.746	413.81
592.094	406.15
592.443	418.91
592.791	411.25
593.139	390.83
593.488	393.38
593.836	454.66
594.184	452.11
594.532	370.4
594.88	411.25
595.228	408.7
595.576	372.95
595.924	401.04
596.272	380.61
596.62	421.47
596.968	385.72
597.316	454.66
597.664	390.83
598.011	324.44
598.359	421.47
598.706	444.45
599.054	469.98
599.402	533.82
599.749	424.02
600.096	431.68
600.444	434.23
600.791	426.57
601.138	385.72
601.485	393.38
601.833	380.61
602.18	383.17
602.527	434.23
602.874	439.34
603.221	444.45
603.568	441.89
603.914	490.41
604.261	413.81
604.608	365.29
604.955	383.17
605.301	401.04
605.648	370.4
605.995	383.17
606.341	372.95
606.688	372.95
607.034	441.89
607.38	401.04
607.727	367.85
608.073	424.02
608.419	306.56
608.765	355.08
609.112	401.04
609.458	344.87
609.804	429.13
610.15	380.61
610.496	469.98
610.842	452.11
611.187	362.74
611.533	360.19
611.879	349.97
612.225	375.51
612.57	426.57
612.916	403.59
613.261	477.64
613.607	401.04
613.952	413.81
614.298	383.17
614.643	362.74
614.989	403.59
615.334	436.79
615.679	383.17
616.024	347.42
616.369	393.38
616.714	413.81
617.059	424.02
617.404	372.95
617.749	390.83
618.094	362.74
618.439	388.27
618.784	352.53
619.129	429.13
619.473	380.61
619.818	418.91
620.163	426.57
620.507	444.45
620.852	421.47
621.196	426.57
621.54	370.4
621.885	480.19
622.229	383.17
622.573	390.83
622.918	418.91
623.262	401.04
623.606	395.93
623.95	408.7
624.294	421.47
624.638	375.51
624.982	441.89
625.326	393.38
625.67	370.4
626.013	395.93
626.357	321.89
626.701	436.79
627.044	418.91
627.388	467.43
627.731	383.17
628.075	434.23
628.418	398.49
628.762	431.68
629.105	403.59
629.448	388.27
629.792	398.49
630.135	441.89
630.478	349.97
630.821	332.1
631.164	467.43
631.507	360.19
631.85	390.83
632.193	360.19
632.536	398.49
632.879	444.45
633.221	467.43
633.564	447
633.907	411.25
634.249	447
634.592	424.02
634.935	378.06
635.277	459.77
635.619	416.36
635.962	485.3
636.304	372.95
636.646	390.83
636.989	349.97
637.331	398.49
637.673	424.02
638.015	408.7
638.357	436.79
638.699	406.15
639.041	370.4
639.383	424.02
639.725	426.57
640.067	480.19
640.408	434.23
640.75	344.87
641.092	352.53
641.433	383.17
641.775	380.61
642.116	480.19
642.458	480.19
642.799	311.67
643.141	378.06
643.482	406.15
643.823	395.93
644.164	406.15
644.506	454.66
644.847	467.43
645.188	372.95
645.529	367.85
645.87	413.81
646.211	408.7
646.552	418.91
646.893	429.13
647.233	360.19
647.574	286.14
647.915	360.19
648.255	431.68
648.596	436.79
648.937	411.25
649.277	457.21
649.618	395.93
649.958	406.15
650.298	362.74
650.639	401.04
650.979	444.45
651.319	388.27
651.659	362.74
651.999	357.63
652.339	370.4
652.679	378.06
653.019	416.36
653.359	398.49
653.699	426.57
654.039	421.47
654.379	314.23
654.719	378.06
655.058	421.47
655.398	388.27
655.737	472.53
656.077	434.23
656.416	390.83
656.756	385.72
657.095	441.89
657.435	436.79
657.774	357.63
658.113	406.15
658.452	408.7
658.792	426.57
659.131	444.45
659.47	436.79
659.809	429.13
660.148	416.36
660.487	413.81
660.826	439.34
661.164	434.23
661.503	385.72
661.842	352.53
662.181	362.74
662.519	421.47
662.858	383.17
663.196	398.49
663.535	342.31
663.873	418.91
664.212	426.57
664.55	383.17
664.888	477.64
665.226	393.38
665.565	385.72
665.903	577.22
666.241	434.23
666.579	418.91
666.917	393.38
667.255	342.31
667.593	357.63
667.931	469.98
668.268	401.04
668.606	388.27
668.944	378.06
669.282	416.36
669.619	401.04
669.957	395.93
670.294	401.04
670.632	426.57
670.969	413.81
671.307	426.57
671.644	393.38
671.981	411.25
672.318	444.45
672.656	388.27
672.993	357.63
673.33	418.91
673.667	441.89
674.004	332.1
674.341	360.19
674.678	349.97
675.015	401.04
675.351	385.72
675.688	454.66
676.025	401.04
676.362	360.19
676.698	334.65
677.035	429.13
677.371	342.31
677.708	426.57
678.044	355.08
678.38	337.21
678.717	344.87
679.053	408.7
679.389	434.23
679.725	418.91
680.062	436.79
680.398	408.7
680.734	385.72
681.07	398.49
681.406	426.57
681.742	418.91
682.077	370.4
682.413	332.1
682.749	406.15
683.085	424.02
683.42	431.68
683.756	436.79
684.091	398.49
684.427	367.85
684.762	413.81
685.098	401.04
685.433	383.17
685.768	457.21
686.104	411.25
686.439	403.59
686.774	395.93
687.109	424.02
687.444	424.02
687.779	406.15
688.114	403.59
688.449	434.23
688.784	403.59
689.119	413.81
689.454	378.06
689.789	378.06
690.123	403.59
690.458	413.81
690.792	383.17
691.127	431.68
691.461	416.36
691.796	347.42
692.13	388.27
692.465	439.34
692.799	416.36
693.133	418.91
693.467	339.76
693.802	492.96
694.136	360.19
694.47	393.38
694.804	431.68
695.138	360.19
695.472	339.76
695.806	452.11
696.139	337.21
696.473	411.25
696.807	365.29
697.141	426.57
697.474	431.68
697.808	395.93
698.141	436.79
698.475	424.02
698.808	439.34
699.142	355.08
699.475	367.85
699.808	413.81
700.142	403.59
700.475	380.61
700.808	449.55
701.141	426.57
701.474	378.06
701.807	352.53
702.14	360.19
702.473	380.61
702.806	424.02
703.139	390.83
703.472	398.49
703.804	421.47
704.137	426.57
704.47	383.17
704.802	411.25
705.135	452.11
705.467	441.89
705.8	372.95
706.132	475.09
706.464	401.04
706.797	416.36
707.129	406.15
707.461	408.7
707.793	347.42
708.125	324.44
708.457	398.49
708.789	408.7
709.121	385.72
709.453	375.51
709.785	357.63
710.117	411.25
710.449	431.68
710.781	408.7
711.112	424.02
711.444	436.79
711.775	436.79
712.107	319.33
712.438	344.87
712.77	413.81
713.101	383.17
713.433	383.17
713.764	390.83
714.095	337.21
714.426	449.55
714.757	439.34
715.089	383.17
715.42	452.11
715.751	411.25
716.082	401.04
716.412	339.76
716.743	342.31
717.074	421.47
717.405	487.85
717.736	416.36
718.066	401.04
718.397	362.74
718.727	375.51
719.058	413.81
719.388	424.02
719.719	401.04
720.049	418.91
720.38	362.74
720.71	388.27
721.04	403.59
721.37	314.23
721.7	447
722.031	418.91
722.361	447
722.691	429.13
723.021	388.27
723.35	372.95
723.68	441.89
724.01	413.81
724.34	421.47
724.67	395.93
724.999	367.85
725.329	401.04
725.658	388.27
725.988	462.32
726.317	424.02
726.647	411.25
726.976	426.57
727.306	395.93
727.635	421.47
727.964	408.7
728.293	457.21
728.622	459.77
728.952	413.81
729.281	334.65
729.61	380.61
729.939	332.1
730.267	411.25
730.596	480.19
730.925	449.55
731.254	365.29
731.583	321.89
731.911	426.57
732.24	436.79
732.568	462.32
732.897	383.17
733.225	398.49
733.554	372.95
733.882	398.49
734.21	365.29
734.539	388.27
734.867	503.18
735.195	383.17
735.523	360.19
735.851	388.27
736.179	406.15
736.507	401.04
736.835	378.06
737.163	390.83
737.491	436.79
737.819	459.77
738.147	365.29
738.474	436.79
738.802	375.51
739.13	372.95
739.457	339.76
739.785	403.59
740.112	408.7
740.44	321.89
740.767	362.74
741.094	385.72
741.422	393.38
741.749	447
742.076	378.06
742.403	326.99
742.73	367.85
743.057	388.27
743.384	418.91
743.711	329.55
744.038	360.19
744.365	426.57
744.692	375.51
745.018	421.47
745.345	416.36
745.672	452.11
745.998	372.95
746.325	388.27
746.651	416.36
746.978	378.06
747.304	416.36
747.631	383.17
747.957	401.04
748.283	352.53
748.61	380.61
748.936	408.7
749.262	383.17
749.588	447
749.914	413.81
750.24	462.32
750.566	401.04
750.892	408.7
751.218	429.13
751.543	352.53
751.869	334.65
752.195	482.75
752.521	411.25
752.846	457.21
753.172	321.89
753.497	352.53
753.823	365.29
754.148	385.72
754.473	393.38
754.799	408.7
755.124	378.06
755.449	408.7
755.774	352.53
756.1	388.27
756.425	431.68
756.75	416.36
757.075	395.93
757.4	444.45
757.724	355.08
758.049	355.08
758.374	408.7
758.699	403.59
759.024	444.45
759.348	398.49
759.673	413.81
759.997	380.61
760.322	434.23
760.646	424.02
760.971	380.61
761.295	367.85
761.619	462.32
761.944	352.53
762.268	444.45
762.592	385.72
762.916	426.57
763.24	401.04
763.564	429.13
763.888	367.85
764.212	434.23
764.536	413.81
764.86	370.4
765.184	360.19
765.508	375.51
765.831	418.91
766.155	582.33
766.478	431.68
766.802	339.76
767.126	393.38
767.449	395.93
767.772	492.96
768.096	401.04
768.419	416.36
768.742	454.66
769.066	362.74
769.389	477.64
769.712	314.23
770.035	378.06
770.358	321.89
770.681	311.67
771.004	454.66
771.327	352.53
771.65	477.64
771.972	367.85
772.295	332.1
772.618	347.42
772.941	378.06
773.263	357.63
773.586	416.36
773.908	378.06
774.231	385.72
774.553	355.08
774.875	411.25
775.198	413.81
775.52	380.61
775.842	393.38
776.164	403.59
776.487	349.97
776.809	429.13
777.131	365.29
777.453	367.85
777.775	429.13
778.096	436.79
778.418	431.68
778.74	439.34
779.062	395.93
779.384	380.61
779.705	383.17
780.027	390.83
780.348	395.93
780.67	434.23
780.991	401.04
781.313	413.81
781.634	390.83
781.955	388.27
782.277	398.49
782.598	365.29
782.919	332.1
783.24	339.76
783.561	349.97
783.882	477.64
784.203	429.13
784.524	378.06
784.845	390.83
785.166	441.89
785.487	408.7
785.807	462.32
786.128	401.04
786.449	421.47
786.769	355.08
787.09	375.51
787.41	426.57
787.731	441.89
788.051	360.19
788.372	408.7
788.692	434.23
789.012	378.06
789.332	385.72
789.653	344.87
789.973	395.93
790.293	337.21
790.613	334.65
790.933	316.78
791.253	347.42
791.573	429.13
791.893	334.65
792.212	408.7
792.532	441.89
792.852	309.12
793.171	298.9
793.491	398.49
793.811	375.51
794.13	406.15
794.45	334.65
794.769	426.57
795.088	385.72
795.408	342.31
795.727	434.23
796.046	439.34
796.365	403.59
796.684	459.77
797.004	413.81
797.323	464.87
797.642	401.04
797.96	362.74
798.279	401.04
798.598	352.53
798.917	372.95
799.236	319.33
799.554	367.85
799.873	406.15
800.192	296.35
800.51	357.63
800.829	416.36
801.147	365.29
801.466	434.23
801.784	360.19
802.102	431.68
802.421	367.85
