Data from 2025-12-03_xpw_interference_FLMS141361__8__14-33-17-380.txt Node

Date: Wed Dec 03 14:33:17 MST 2025
User: james
Spectrometer: FLMS14136
Trigger mode: 0
Integration Time (sec): 1.000000E-1
Scans to average: 1
Electric dark correction enabled: true
Nonlinearity correction enabled: false
Boxcar width: 0
XAxis mode: Wavelengths
Number of Pixels in Spectrum: 2048
>>>>>Begin Spectral Data<<<<<
339.315	-75.64
339.697	-75.64
340.079	-75.64
340.461	-149.69
340.843	-119.05
341.225	-67.98
341.607	-73.09
341.989	-159.91
342.371	-131.82
342.752	-70.54
343.134	-19.47
343.516	-52.66
343.897	-50.11
344.279	0.96
344.661	21.38
345.042	77.56
345.423	23.94
345.805	21.38
346.186	138.84
346.567	123.52
346.949	217.99
347.33	246.08
347.711	195.01
348.092	151.61
348.473	220.55
348.854	235.87
349.235	266.51
349.616	246.08
349.997	279.28
350.378	325.24
350.758	251.19
351.139	317.58
351.52	332.9
351.9	317.58
352.281	335.45
352.661	315.02
353.042	358.43
353.422	391.62
353.803	373.75
354.183	478.44
354.563	396.73
354.943	394.18
355.324	363.54
355.704	320.13
356.084	386.52
356.464	320.13
356.844	391.62
357.224	366.09
357.603	389.07
357.983	452.91
358.363	414.6
358.743	368.64
359.122	371.2
359.502	424.82
359.882	363.54
360.261	330.34
360.641	389.07
361.02	373.75
361.399	376.3
361.779	401.84
362.158	394.18
362.537	389.07
362.916	401.84
363.296	386.52
363.675	353.32
364.054	279.28
364.433	353.32
364.812	317.58
365.19	345.66
365.569	396.73
365.948	383.96
366.327	366.09
366.705	302.26
367.084	335.45
367.463	315.02
367.841	192.46
368.22	309.92
368.598	243.53
368.977	340.56
369.355	335.45
369.733	320.13
370.111	353.32
370.49	376.3
370.868	327.79
371.246	335.45
371.624	343.11
372.002	340.56
372.38	325.24
372.758	394.18
373.136	381.41
373.513	320.13
373.891	383.96
374.269	340.56
374.646	355.88
375.024	373.75
375.402	404.39
375.779	376.3
376.157	394.18
376.534	320.13
376.911	366.09
377.289	350.77
377.666	381.41
378.043	289.49
378.42	378.86
378.797	345.66
379.175	332.9
379.552	332.9
379.929	332.9
380.305	363.54
380.682	417.16
381.059	335.45
381.436	304.81
381.813	309.92
382.189	315.02
382.566	386.52
382.943	330.34
383.319	345.66
383.696	327.79
384.072	335.45
384.448	355.88
384.825	276.72
385.201	366.09
385.577	348.22
385.953	335.45
386.329	391.62
386.706	332.9
387.082	299.7
387.458	327.79
387.834	360.98
388.209	424.82
388.585	335.45
388.961	302.26
389.337	353.32
389.713	445.25
390.088	330.34
390.464	376.3
390.839	355.88
391.215	315.02
391.59	335.45
391.966	317.58
392.341	391.62
392.716	386.52
393.092	345.66
393.467	366.09
393.842	297.15
394.217	368.64
394.592	309.92
394.967	350.77
395.342	350.77
395.717	353.32
396.092	338
396.467	358.43
396.841	327.79
397.216	368.64
397.591	386.52
397.965	332.9
398.34	409.5
398.714	404.39
399.089	373.75
399.463	299.7
399.838	386.52
400.212	429.93
400.586	401.84
400.961	335.45
401.335	419.71
401.709	340.56
402.083	389.07
402.457	440.14
402.831	330.34
403.205	383.96
403.579	383.96
403.953	358.43
404.326	363.54
404.7	383.96
405.074	360.98
405.447	427.37
405.821	399.28
406.195	391.62
406.568	335.45
406.942	353.32
407.315	386.52
407.688	373.75
408.062	312.47
408.435	391.62
408.808	386.52
409.181	376.3
409.554	417.16
409.927	294.6
410.3	389.07
410.673	355.88
411.046	396.73
411.419	371.2
411.792	381.41
412.165	373.75
412.537	366.09
412.91	376.3
413.283	465.67
413.655	455.46
414.028	371.2
414.4	355.88
414.773	376.3
415.145	320.13
415.517	330.34
415.889	414.6
416.262	386.52
416.634	391.62
417.006	363.54
417.378	363.54
417.75	350.77
418.122	396.73
418.494	368.64
418.866	294.6
419.238	355.88
419.609	343.11
419.981	401.84
420.353	414.6
420.725	381.41
421.096	350.77
421.468	345.66
421.839	383.96
422.211	371.2
422.582	343.11
422.953	424.82
423.325	427.37
423.696	381.41
424.067	383.96
424.438	391.62
424.809	386.52
425.18	386.52
425.551	332.9
425.922	406.94
426.293	404.39
426.664	350.77
427.035	463.12
427.406	396.73
427.776	371.2
428.147	340.56
428.518	394.18
428.888	419.71
429.259	396.73
429.629	414.6
429.999	378.86
430.37	345.66
430.74	312.47
431.11	366.09
431.481	391.62
431.851	389.07
432.221	417.16
432.591	309.92
432.961	320.13
433.331	373.75
433.701	399.28
434.071	376.3
434.441	332.9
434.81	358.43
435.18	452.91
435.55	414.6
435.919	386.52
436.289	417.16
436.658	383.96
437.028	373.75
437.397	391.62
437.767	376.3
438.136	294.6
438.505	376.3
438.875	396.73
439.244	399.28
439.613	401.84
439.982	360.98
440.351	304.81
440.72	396.73
441.089	404.39
441.458	414.6
441.827	435.03
442.196	381.41
442.564	458.01
442.933	447.8
443.302	381.41
443.67	274.17
444.039	409.5
444.407	422.26
444.776	417.16
445.144	394.18
445.513	391.62
445.881	343.11
446.249	312.47
446.617	391.62
446.986	366.09
447.354	409.5
447.722	432.48
448.09	330.34
448.458	368.64
448.826	412.05
449.194	450.35
449.561	404.39
449.929	455.46
450.297	389.07
450.665	332.9
451.032	414.6
451.4	345.66
451.767	427.37
452.135	368.64
452.502	386.52
452.87	447.8
453.237	452.91
453.604	406.94
453.971	414.6
454.339	376.3
454.706	447.8
455.073	394.18
455.44	412.05
455.807	396.73
456.174	412.05
456.541	406.94
456.908	417.16
457.274	373.75
457.641	391.62
458.008	419.71
458.374	427.37
458.741	437.59
459.108	386.52
459.474	358.43
459.841	383.96
460.207	412.05
460.573	335.45
460.94	355.88
461.306	435.03
461.672	355.88
462.038	363.54
462.404	442.69
462.771	406.94
463.137	366.09
463.503	340.56
463.868	417.16
464.234	409.5
464.6	360.98
464.966	417.16
465.332	389.07
465.697	391.62
466.063	389.07
466.429	373.75
466.794	401.84
467.16	419.71
467.525	378.86
467.89	424.82
468.256	371.2
468.621	409.5
468.986	404.39
469.351	389.07
469.717	355.88
470.082	343.11
470.447	338
470.812	376.3
471.177	445.25
471.542	376.3
471.906	396.73
472.271	440.14
472.636	376.3
473.001	386.52
473.365	417.16
473.73	376.3
474.094	419.71
474.459	381.41
474.823	376.3
475.188	396.73
475.552	360.98
475.917	358.43
476.281	404.39
476.645	406.94
477.009	325.24
477.373	363.54
477.737	368.64
478.101	376.3
478.465	376.3
478.829	396.73
479.193	427.37
479.557	399.28
479.921	417.16
480.284	412.05
480.648	366.09
481.012	427.37
481.375	358.43
481.739	406.94
482.102	399.28
482.466	340.56
482.829	478.44
483.193	460.57
483.556	386.52
483.919	409.5
484.282	414.6
484.645	422.26
485.009	368.64
485.372	386.52
485.735	358.43
486.098	345.66
486.46	343.11
486.823	460.57
487.186	396.73
487.549	409.5
487.912	396.73
488.274	401.84
488.637	389.07
488.999	406.94
489.362	312.47
489.724	417.16
490.087	378.86
490.449	404.39
490.811	396.73
491.174	386.52
491.536	401.84
491.898	399.28
492.26	391.62
492.622	412.05
492.984	396.73
493.346	343.11
493.708	343.11
494.07	338
494.432	373.75
494.794	396.73
495.155	396.73
495.517	371.2
495.879	327.79
496.24	401.84
496.602	386.52
496.963	355.88
497.325	378.86
497.686	399.28
498.048	429.93
498.409	386.52
498.77	427.37
499.131	348.22
499.492	389.07
499.854	450.35
500.215	371.2
500.576	376.3
500.937	378.86
501.298	419.71
501.658	450.35
502.019	460.57
502.38	458.01
502.741	383.96
503.101	348.22
503.462	440.14
503.823	307.36
504.183	422.26
504.543	340.56
504.904	429.93
505.264	373.75
505.625	429.93
505.985	440.14
506.345	409.5
506.705	450.35
507.065	386.52
507.426	389.07
507.786	368.64
508.146	383.96
508.505	450.35
508.865	458.01
509.225	363.54
509.585	460.57
509.945	417.16
510.304	429.93
510.664	381.41
511.024	427.37
511.383	399.28
511.743	401.84
512.102	343.11
512.462	404.39
512.821	488.65
513.18	378.86
513.539	394.18
513.899	396.73
514.258	432.48
514.617	406.94
514.976	399.28
515.335	427.37
515.694	315.02
516.053	271.62
516.412	396.73
516.771	399.28
517.129	447.8
517.488	468.23
517.847	437.59
518.205	381.41
518.564	394.18
518.922	447.8
519.281	376.3
519.639	406.94
519.998	322.68
520.356	371.2
520.714	381.41
521.073	391.62
521.431	406.94
521.789	417.16
522.147	394.18
522.505	332.9
522.863	378.86
523.221	432.48
523.579	396.73
523.937	463.12
524.295	355.88
524.652	389.07
525.01	383.96
525.368	406.94
525.725	409.5
526.083	432.48
526.44	383.96
526.798	396.73
527.155	401.84
527.513	455.46
527.87	465.67
528.227	432.48
528.584	442.69
528.942	460.57
529.299	340.56
529.656	432.48
530.013	440.14
530.37	465.67
530.727	327.79
531.083	348.22
531.44	424.82
531.797	404.39
532.154	350.77
532.511	399.28
532.867	399.28
533.224	458.01
533.58	355.88
533.937	358.43
534.293	404.39
534.65	338
535.006	406.94
535.362	396.73
535.718	363.54
536.075	427.37
536.431	470.78
536.787	391.62
537.143	406.94
537.499	478.44
537.855	417.16
538.211	440.14
538.567	373.75
538.923	386.52
539.278	406.94
539.634	401.84
539.99	465.67
540.345	432.48
540.701	422.26
541.056	442.69
541.412	368.64
541.767	396.73
542.123	383.96
542.478	389.07
542.833	389.07
543.188	383.96
543.544	452.91
543.899	437.59
544.254	368.64
544.609	460.57
544.964	386.52
545.319	409.5
545.674	320.13
546.029	419.71
546.383	404.39
546.738	345.66
547.093	358.43
547.447	389.07
547.802	383.96
548.157	340.56
548.511	406.94
548.866	409.5
549.22	383.96
549.574	401.84
549.929	429.93
550.283	325.24
550.637	399.28
550.991	447.8
551.345	404.39
551.699	307.36
552.053	360.98
552.407	373.75
552.761	437.59
553.115	427.37
553.469	435.03
553.823	389.07
554.176	442.69
554.53	360.98
554.884	345.66
555.237	555.04
555.591	404.39
555.944	373.75
556.298	419.71
556.651	442.69
557.005	358.43
557.358	391.62
557.711	447.8
558.064	455.46
558.417	383.96
558.771	491.21
559.124	424.82
559.477	417.16
559.83	360.98
560.182	355.88
560.535	440.14
560.888	412.05
561.241	417.16
561.594	338
561.946	422.26
562.299	419.71
562.651	399.28
563.004	355.88
563.356	338
563.709	394.18
564.061	332.9
564.413	358.43
564.766	422.26
565.118	414.6
565.47	412.05
565.822	360.98
566.174	399.28
566.526	429.93
566.878	447.8
567.23	404.39
567.582	353.32
567.934	383.96
568.286	450.35
568.638	406.94
568.989	355.88
569.341	406.94
569.693	366.09
570.044	389.07
570.396	355.88
570.747	422.26
571.098	366.09
571.45	360.98
571.801	404.39
572.152	386.52
572.504	399.28
572.855	294.6
573.206	363.54
573.557	396.73
573.908	340.56
574.259	373.75
574.61	422.26
574.961	463.12
575.311	360.98
575.662	414.6
576.013	412.05
576.364	394.18
576.714	435.03
577.065	429.93
577.415	406.94
577.766	368.64
578.116	396.73
578.467	412.05
578.817	378.86
579.167	340.56
579.518	389.07
579.868	406.94
580.218	435.03
580.568	424.82
580.918	455.46
581.268	399.28
581.618	401.84
581.968	355.88
582.318	463.12
582.668	376.3
583.017	358.43
583.367	409.5
583.717	396.73
584.066	389.07
584.416	355.88
584.765	373.75
585.115	455.46
585.464	381.41
585.814	378.86
586.163	381.41
586.512	366.09
586.862	360.98
587.211	404.39
587.56	409.5
587.909	389.07
588.258	422.26
588.607	383.96
588.956	350.77
589.305	368.64
589.654	455.46
590.002	435.03
590.351	452.91
590.7	460.57
591.048	353.32
591.397	386.52
591.746	406.94
592.094	419.71
592.443	383.96
592.791	422.26
593.139	381.41
593.488	401.84
593.836	389.07
594.184	422.26
594.532	394.18
594.88	429.93
595.228	419.71
595.576	424.82
595.924	450.35
596.272	371.2
596.62	404.39
596.968	332.9
597.316	335.45
597.664	338
598.011	404.39
598.359	381.41
598.706	315.02
599.054	340.56
599.402	327.79
599.749	371.2
600.096	343.11
600.444	391.62
600.791	373.75
601.138	378.86
601.485	383.96
601.833	427.37
602.18	440.14
602.527	366.09
602.874	343.11
603.221	417.16
603.568	355.88
603.914	445.25
604.261	468.23
604.608	452.91
604.955	401.84
605.301	422.26
605.648	458.01
605.995	442.69
606.341	419.71
606.688	429.93
607.034	424.82
607.38	371.2
607.727	450.35
608.073	424.82
608.419	317.58
608.765	391.62
609.112	399.28
609.458	302.26
609.804	386.52
610.15	312.47
610.496	353.32
610.842	429.93
611.187	396.73
611.533	447.8
611.879	386.52
612.225	350.77
612.57	440.14
612.916	401.84
613.261	432.48
613.607	427.37
613.952	435.03
614.298	389.07
614.643	429.93
614.989	343.11
615.334	406.94
615.679	366.09
616.024	343.11
616.369	353.32
616.714	432.48
617.059	432.48
617.404	401.84
617.749	381.41
618.094	386.52
618.439	358.43
618.784	424.82
619.129	424.82
619.473	389.07
619.818	401.84
620.163	389.07
620.507	391.62
620.852	396.73
621.196	409.5
621.54	419.71
621.885	363.54
622.229	399.28
622.573	335.45
622.918	480.99
623.262	368.64
623.606	437.59
623.95	373.75
624.294	360.98
624.638	399.28
624.982	378.86
625.326	386.52
625.67	320.13
626.013	343.11
626.357	348.22
626.701	353.32
627.044	417.16
627.388	429.93
627.731	401.84
628.075	414.6
628.418	401.84
628.762	345.66
629.105	383.96
629.448	353.32
629.792	355.88
630.135	368.64
630.478	350.77
630.821	417.16
631.164	386.52
631.507	391.62
631.85	373.75
632.193	419.71
632.536	473.33
632.879	381.41
633.221	353.32
633.564	432.48
633.907	399.28
634.249	429.93
634.592	404.39
634.935	406.94
635.277	389.07
635.619	394.18
635.962	435.03
636.304	360.98
636.646	396.73
636.989	368.64
637.331	437.59
637.673	463.12
638.015	378.86
638.357	355.88
638.699	368.64
639.041	376.3
639.383	363.54
639.725	378.86
640.067	345.66
640.408	378.86
640.75	401.84
641.092	396.73
641.433	332.9
641.775	371.2
642.116	399.28
642.458	358.43
642.799	376.3
643.141	386.52
643.482	455.46
643.823	373.75
644.164	373.75
644.506	463.12
644.847	391.62
645.188	412.05
645.529	437.59
645.87	417.16
646.211	394.18
646.552	429.93
646.893	353.32
647.233	386.52
647.574	376.3
647.915	442.69
648.255	363.54
648.596	335.45
648.937	463.12
649.277	417.16
649.618	409.5
649.958	503.97
650.298	452.91
650.639	389.07
650.979	350.77
651.319	353.32
651.659	363.54
651.999	460.57
652.339	338
652.679	338
653.019	360.98
653.359	371.2
653.699	440.14
654.039	358.43
654.379	343.11
654.719	343.11
655.058	348.22
655.398	419.71
655.737	465.67
656.077	386.52
656.416	417.16
656.756	424.82
657.095	389.07
657.435	335.45
657.774	401.84
658.113	417.16
658.452	488.65
658.792	429.93
659.131	350.77
659.47	394.18
659.809	340.56
660.148	371.2
660.487	322.68
660.826	373.75
661.164	427.37
661.503	404.39
661.842	399.28
662.181	401.84
662.519	396.73
662.858	401.84
663.196	406.94
663.535	460.57
663.873	409.5
664.212	406.94
664.55	419.71
664.888	335.45
665.226	419.71
665.565	450.35
665.903	580.57
666.241	404.39
666.579	432.48
666.917	383.96
667.255	404.39
667.593	376.3
667.931	335.45
668.268	389.07
668.606	391.62
668.944	376.3
669.282	360.98
669.619	330.34
669.957	394.18
670.294	383.96
670.632	309.92
670.969	378.86
671.307	332.9
671.644	376.3
671.981	355.88
672.318	378.86
672.656	368.64
672.993	386.52
673.33	437.59
673.667	422.26
674.004	394.18
674.341	445.25
674.678	376.3
675.015	371.2
675.351	394.18
675.688	412.05
676.025	401.84
676.362	396.73
676.698	414.6
677.035	335.45
677.371	373.75
677.708	409.5
678.044	417.16
678.38	401.84
678.717	488.65
679.053	412.05
679.389	399.28
679.725	350.77
680.062	358.43
680.398	335.45
680.734	378.86
681.07	363.54
681.406	373.75
681.742	383.96
682.077	371.2
682.413	378.86
682.749	366.09
683.085	381.41
683.42	437.59
683.756	394.18
684.091	409.5
684.427	391.62
684.762	394.18
685.098	391.62
685.433	366.09
685.768	368.64
686.104	368.64
686.439	371.2
686.774	373.75
687.109	371.2
687.444	373.75
687.779	429.93
688.114	424.82
688.449	330.34
688.784	424.82
689.119	360.98
689.454	327.79
689.789	442.69
690.123	322.68
690.458	355.88
690.792	317.58
691.127	383.96
691.461	404.39
691.796	432.48
692.13	417.16
692.465	383.96
692.799	371.2
693.133	309.92
693.467	353.32
693.802	320.13
694.136	360.98
694.47	394.18
694.804	399.28
695.138	422.26
695.472	389.07
695.806	389.07
696.139	381.41
696.473	429.93
696.807	383.96
697.141	389.07
697.474	409.5
697.808	389.07
698.141	373.75
698.475	406.94
698.808	465.67
699.142	383.96
699.475	343.11
699.808	417.16
700.142	386.52
700.475	381.41
700.808	396.73
701.141	386.52
701.474	437.59
701.807	335.45
702.14	322.68
702.473	406.94
702.806	412.05
703.139	396.73
703.472	406.94
703.804	366.09
704.137	381.41
704.47	404.39
704.802	376.3
705.135	360.98
705.467	350.77
705.8	348.22
706.132	330.34
706.464	406.94
706.797	373.75
707.129	302.26
707.461	363.54
707.793	429.93
708.125	376.3
708.457	335.45
708.789	391.62
709.121	366.09
709.453	404.39
709.785	396.73
710.117	371.2
710.449	363.54
710.781	396.73
711.112	381.41
711.444	391.62
711.775	424.82
712.107	396.73
712.438	386.52
712.77	399.28
713.101	327.79
713.433	427.37
713.764	381.41
714.095	422.26
714.426	348.22
714.757	404.39
715.089	422.26
715.42	394.18
715.751	394.18
716.082	383.96
716.412	437.59
716.743	332.9
717.074	391.62
717.405	381.41
717.736	376.3
718.066	274.17
718.397	366.09
718.727	307.36
719.058	496.31
719.388	401.84
719.719	360.98
720.049	330.34
720.38	440.14
720.71	417.16
721.04	404.39
721.37	373.75
721.7	460.57
722.031	419.71
722.361	386.52
722.691	371.2
723.021	355.88
723.35	358.43
723.68	424.82
724.01	417.16
724.34	440.14
724.67	422.26
724.999	414.6
725.329	401.84
725.658	401.84
725.988	399.28
726.317	383.96
726.647	381.41
726.976	404.39
727.306	399.28
727.635	343.11
727.964	401.84
728.293	389.07
728.622	463.12
728.952	419.71
729.281	371.2
729.61	363.54
729.939	322.68
730.267	378.86
730.596	338
730.925	409.5
731.254	355.88
731.583	386.52
731.911	440.14
732.24	383.96
732.568	414.6
732.897	468.23
733.225	412.05
733.554	389.07
733.882	345.66
734.21	340.56
734.539	330.34
734.867	327.79
735.195	378.86
735.523	376.3
735.851	419.71
736.179	343.11
736.507	302.26
736.835	378.86
737.163	401.84
737.491	373.75
737.819	350.77
738.147	360.98
738.474	378.86
738.802	419.71
739.13	376.3
739.457	414.6
739.785	424.82
740.112	440.14
740.44	429.93
740.767	422.26
741.094	376.3
741.422	325.24
741.749	383.96
742.076	368.64
742.403	404.39
742.73	432.48
743.057	386.52
743.384	381.41
743.711	414.6
744.038	366.09
744.365	389.07
744.692	325.24
745.018	404.39
745.345	417.16
745.672	422.26
745.998	445.25
746.325	381.41
746.651	463.12
746.978	463.12
747.304	440.14
747.631	463.12
747.957	409.5
748.283	368.64
748.61	358.43
748.936	429.93
749.262	378.86
749.588	383.96
749.914	409.5
750.24	389.07
750.566	338
750.892	460.57
751.218	345.66
751.543	404.39
751.869	353.32
752.195	292.04
752.521	389.07
752.846	422.26
753.172	437.59
753.497	391.62
753.823	345.66
754.148	460.57
754.473	363.54
754.799	355.88
755.124	343.11
755.449	304.81
755.774	404.39
756.1	355.88
756.425	458.01
756.75	391.62
757.075	386.52
757.4	406.94
757.724	381.41
758.049	396.73
758.374	327.79
758.699	320.13
759.024	412.05
759.348	404.39
759.673	432.48
759.997	368.64
760.322	383.96
760.646	383.96
760.971	422.26
761.295	358.43
761.619	399.28
761.944	396.73
762.268	463.12
762.592	465.67
762.916	373.75
763.24	404.39
763.564	447.8
763.888	399.28
764.212	437.59
764.536	458.01
764.86	437.59
765.184	590.79
765.508	552.49
765.831	529.51
766.155	800.16
766.478	636.75
766.802	590.79
767.126	680.16
767.449	733.78
767.772	726.12
768.096	731.22
768.419	687.82
768.742	749.1
769.066	789.95
769.389	864
769.712	830.81
770.035	945.71
770.358	787.4
770.681	915.07
771.004	1065.72
771.327	1231.69
771.65	1213.81
771.972	1328.71
772.295	1254.67
772.618	1369.57
772.941	1346.59
773.263	1361.91
773.586	1405.32
773.908	1428.3
774.231	1390
774.553	1433.4
774.875	1441.06
775.198	1438.51
775.52	1412.98
775.842	1456.38
776.164	1573.84
776.487	1696.4
776.809	1765.34
777.131	1757.68
777.453	1729.59
777.775	1727.04
778.096	1747.47
778.418	1729.59
778.74	1895.56
779.062	2028.34
779.384	2058.98
779.705	2196.86
780.027	2370.49
780.348	2332.19
780.67	2464.97
780.991	2572.21
781.313	2528.8
781.634	2533.91
781.955	2421.56
782.277	2441.99
782.598	2541.57
782.919	3026.71
783.24	2727.97
783.561	2661.58
783.882	2600.3
784.203	2817.33
784.524	2865.85
784.845	3075.22
785.166	3001.18
785.487	2858.19
785.807	3006.28
786.128	2832.65
786.449	2799.46
786.769	2893.93
787.09	2771.37
787.41	2881.17
787.731	3070.12
788.051	3218.21
788.372	3136.51
788.692	3243.75
789.012	3453.12
789.332	3659.95
789.653	4055.72
789.973	3836.13
790.293	3756.98
790.613	3407.16
790.933	3453.12
791.253	3688.04
791.573	3828.47
791.893	3537.39
792.212	3052.24
792.532	2906.7
792.852	2886.27
793.171	2771.37
793.491	2727.97
793.811	2786.69
794.13	2643.7
794.45	2531.36
794.769	2738.18
795.088	2947.56
795.408	3103.31
795.727	3562.92
796.046	3440.36
796.365	3386.74
796.684	3373.97
797.004	3333.12
797.323	3435.25
797.642	3445.46
797.96	3486.32
798.279	3269.28
798.598	2978.2
798.917	2937.34
799.236	2952.66
799.554	3070.12
799.873	2860.74
800.192	2812.23
800.51	2985.86
800.829	2886.27
801.147	2893.93
