Data from 2025-12-03_xpw_interference_FLMS141361__14__14-35-47-181.txt Node

Date: Wed Dec 03 14:35:47 MST 2025
User: james
Spectrometer: FLMS14136
Trigger mode: 0
Integration Time (sec): 1.000000E-1
Scans to average: 1
Electric dark correction enabled: true
Nonlinearity correction enabled: false
Boxcar width: 0
XAxis mode: Wavelengths
Number of Pixels in Spectrum: 2048
>>>>>Begin Spectral Data<<<<<
339.315	-36.07
339.697	-36.07
340.079	-36.07
340.461	-148.42
340.843	-120.33
341.225	-148.42
341.607	-107.56
341.989	-64.15
342.371	-25.85
342.752	-61.6
343.134	-30.96
343.516	4.79
343.897	-59.05
344.279	-15.64
344.661	-38.62
345.042	-18.19
345.423	35.43
345.805	132.46
346.186	117.14
346.567	112.03
346.949	168.2
347.33	157.99
347.711	206.5
348.092	157.99
348.473	247.36
348.854	280.55
349.235	311.19
349.616	265.23
349.997	270.34
350.378	306.09
350.758	352.05
351.139	346.94
351.52	308.64
351.9	321.41
352.281	364.81
352.661	295.87
353.042	420.99
353.422	433.76
353.803	392.9
354.183	354.6
354.563	420.99
354.943	367.37
355.324	418.43
355.704	505.25
356.084	405.67
356.464	413.33
356.844	410.77
357.224	339.28
357.603	260.13
357.983	385.24
358.363	382.69
358.743	408.22
359.122	438.86
359.502	377.58
359.882	364.81
360.261	372.47
360.641	380.13
361.02	323.96
361.399	523.12
361.779	426.09
362.158	398.01
362.537	357.15
362.916	400.56
363.296	377.58
363.675	308.64
364.054	339.28
364.433	369.92
364.812	387.79
365.19	349.49
365.569	367.37
365.948	341.83
366.327	387.79
366.705	380.13
367.084	346.94
367.463	390.35
367.841	398.01
368.22	369.92
368.598	377.58
368.977	344.39
369.355	423.54
369.733	339.28
370.111	326.51
370.49	308.64
370.868	385.24
371.246	387.79
371.624	352.05
372.002	283.11
372.38	352.05
372.758	354.6
373.136	364.81
373.513	382.69
373.891	385.24
374.269	336.73
374.646	354.6
375.024	364.81
375.402	346.94
375.779	385.24
376.157	456.74
376.534	334.17
376.911	334.17
377.289	369.92
377.666	400.56
378.043	344.39
378.42	308.64
378.797	339.28
379.175	367.37
379.552	372.47
379.929	380.13
380.305	372.47
380.682	398.01
381.059	364.81
381.436	413.33
381.813	311.19
382.189	403.11
382.566	369.92
382.943	436.31
383.319	372.47
383.696	352.05
384.072	372.47
384.448	352.05
384.825	390.35
385.201	300.98
385.577	377.58
385.953	346.94
386.329	331.62
386.706	392.9
387.082	403.11
387.458	390.35
387.834	380.13
388.209	372.47
388.585	418.43
388.961	377.58
389.337	377.58
389.713	403.11
390.088	398.01
390.464	446.52
390.839	359.71
391.215	395.45
391.59	443.97
391.966	390.35
392.341	303.53
392.716	362.26
393.092	339.28
393.467	321.41
393.842	346.94
394.217	426.09
394.592	341.83
394.967	418.43
395.342	346.94
395.717	288.21
396.092	400.56
396.467	423.54
396.841	395.45
397.216	405.67
397.591	408.22
397.965	387.79
398.34	300.98
398.714	359.71
399.089	380.13
399.463	369.92
399.838	354.6
400.212	443.97
400.586	433.76
400.961	321.41
401.335	352.05
401.709	375.03
402.083	346.94
402.457	367.37
402.831	331.62
403.205	372.47
403.579	318.85
403.953	359.71
404.326	364.81
404.7	398.01
405.074	408.22
405.447	387.79
405.821	408.22
406.195	431.2
406.568	415.88
406.942	405.67
407.315	364.81
407.688	420.99
408.062	387.79
408.435	390.35
408.808	380.13
409.181	436.31
409.554	372.47
409.927	364.81
410.3	377.58
410.673	398.01
411.046	395.45
411.419	387.79
411.792	385.24
412.165	349.49
412.537	395.45
412.91	344.39
413.283	395.45
413.655	380.13
414.028	423.54
414.4	415.88
414.773	390.35
415.145	410.77
415.517	438.86
415.889	428.65
416.262	369.92
416.634	367.37
417.006	392.9
417.378	420.99
417.75	451.63
418.122	408.22
418.494	431.2
418.866	408.22
419.238	433.76
419.609	392.9
419.981	349.49
420.353	500.14
420.725	420.99
421.096	392.9
421.468	398.01
421.839	377.58
422.211	354.6
422.582	392.9
422.953	321.41
423.325	380.13
423.696	359.71
424.067	415.88
424.438	423.54
424.809	341.83
425.18	408.22
425.551	433.76
425.922	385.24
426.293	398.01
426.664	433.76
427.035	436.31
427.406	346.94
427.776	461.84
428.147	436.31
428.518	377.58
428.888	380.13
429.259	359.71
429.629	464.4
429.999	405.67
430.37	395.45
430.74	336.73
431.11	438.86
431.481	438.86
431.851	380.13
432.221	375.03
432.591	420.99
432.961	380.13
433.331	441.42
433.701	423.54
434.071	405.67
434.441	392.9
434.81	433.76
435.18	495.04
435.55	423.54
435.919	441.42
436.289	392.9
436.658	413.33
437.028	413.33
437.397	377.58
437.767	428.65
438.136	357.15
438.505	346.94
438.875	367.37
439.244	420.99
439.613	400.56
439.982	395.45
440.351	380.13
440.72	385.24
441.089	464.4
441.458	459.29
441.827	390.35
442.196	387.79
442.564	492.48
442.933	443.97
443.302	446.52
443.67	403.11
444.039	410.77
444.407	372.47
444.776	403.11
445.144	441.42
445.513	438.86
445.881	418.43
446.249	387.79
446.617	392.9
446.986	392.9
447.354	375.03
447.722	385.24
448.09	369.92
448.458	382.69
448.826	469.5
449.194	436.31
449.561	395.45
449.929	398.01
450.297	418.43
450.665	405.67
451.032	410.77
451.4	380.13
451.767	390.35
452.135	451.63
452.502	385.24
452.87	433.76
453.237	454.18
453.604	387.79
453.971	418.43
454.339	446.52
454.706	408.22
455.073	408.22
455.44	390.35
455.807	375.03
456.174	410.77
456.541	375.03
456.908	410.77
457.274	398.01
457.641	436.31
458.008	392.9
458.374	461.84
458.741	484.82
459.108	395.45
459.474	446.52
459.841	367.37
460.207	433.76
460.573	408.22
460.94	420.99
461.306	390.35
461.672	461.84
462.038	346.94
462.404	415.88
462.771	372.47
463.137	443.97
463.503	398.01
463.868	410.77
464.234	446.52
464.6	408.22
464.966	336.73
465.332	446.52
465.697	392.9
466.063	400.56
466.429	415.88
466.794	375.03
467.16	436.31
467.525	428.65
467.89	438.86
468.256	426.09
468.621	431.2
468.986	466.95
469.351	410.77
469.717	405.67
470.082	364.81
470.447	438.86
470.812	380.13
471.177	398.01
471.542	482.27
471.906	451.63
472.271	436.31
472.636	403.11
473.001	415.88
473.365	454.18
473.73	469.5
474.094	385.24
474.459	423.54
474.823	436.31
475.188	418.43
475.552	410.77
475.917	451.63
476.281	321.41
476.645	375.03
477.009	410.77
477.373	357.15
477.737	418.43
478.101	433.76
478.465	395.45
478.829	418.43
479.193	441.42
479.557	364.81
479.921	413.33
480.284	369.92
480.648	461.84
481.012	418.43
481.375	405.67
481.739	377.58
482.102	433.76
482.466	454.18
482.829	451.63
483.193	400.56
483.556	400.56
483.919	408.22
484.282	469.5
484.645	459.29
485.009	392.9
485.372	346.94
485.735	390.35
486.098	431.2
486.46	441.42
486.823	443.97
487.186	451.63
487.549	413.33
487.912	438.86
488.274	443.97
488.637	398.01
488.999	418.43
489.362	398.01
489.724	436.31
490.087	438.86
490.449	456.74
490.811	395.45
491.174	492.48
491.536	431.2
491.898	436.31
492.26	446.52
492.622	395.45
492.984	398.01
493.346	464.4
493.708	466.95
494.07	390.35
494.432	436.31
494.794	451.63
495.155	382.69
495.517	400.56
495.879	418.43
496.24	441.42
496.602	408.22
496.963	382.69
497.325	357.15
497.686	380.13
498.048	382.69
498.409	359.71
498.77	403.11
499.131	375.03
499.492	367.37
499.854	392.9
500.215	438.86
500.576	387.79
500.937	492.48
501.298	426.09
501.658	341.83
502.019	354.6
502.38	405.67
502.741	438.86
503.101	400.56
503.462	459.29
503.823	446.52
504.183	380.13
504.543	395.45
504.904	377.58
505.264	466.95
505.625	426.09
505.985	423.54
506.345	466.95
506.705	390.35
507.065	446.52
507.426	405.67
507.786	311.19
508.146	329.07
508.505	341.83
508.865	451.63
509.225	461.84
509.585	500.14
509.945	510.36
510.304	423.54
510.664	438.86
511.024	377.58
511.383	461.84
511.743	359.71
512.102	382.69
512.462	359.71
512.821	431.2
513.18	449.08
513.539	484.82
513.899	449.08
514.258	403.11
514.617	408.22
514.976	446.52
515.335	464.4
515.694	451.63
516.053	459.29
516.412	395.45
516.771	441.42
517.129	413.33
517.488	398.01
517.847	385.24
518.205	400.56
518.564	423.54
518.922	403.11
519.281	420.99
519.639	405.67
519.998	479.72
520.356	403.11
520.714	474.61
521.073	500.14
521.431	390.35
521.789	405.67
522.147	367.37
522.505	367.37
522.863	380.13
523.221	474.61
523.579	415.88
523.937	400.56
524.295	466.95
524.652	433.76
525.01	428.65
525.368	420.99
525.725	459.29
526.083	420.99
526.44	459.29
526.798	395.45
527.155	484.82
527.513	477.16
527.87	459.29
528.227	410.77
528.584	436.31
528.942	433.76
529.299	502.7
529.656	466.95
530.013	413.33
530.37	385.24
530.727	408.22
531.083	479.72
531.44	359.71
531.797	392.9
532.154	395.45
532.511	385.24
532.867	497.59
533.224	479.72
533.58	408.22
533.937	487.38
534.293	385.24
534.65	369.92
535.006	431.2
535.362	410.77
535.718	482.27
536.075	431.2
536.431	464.4
536.787	408.22
537.143	454.18
537.499	443.97
537.855	454.18
538.211	408.22
538.567	492.48
538.923	387.79
539.278	387.79
539.634	398.01
539.99	400.56
540.345	428.65
540.701	385.24
541.056	339.28
541.412	390.35
541.767	413.33
542.123	461.84
542.478	426.09
542.833	408.22
543.188	387.79
543.544	443.97
543.899	423.54
544.254	380.13
544.609	415.88
544.964	420.99
545.319	474.61
545.674	398.01
546.029	459.29
546.383	410.77
546.738	367.37
547.093	372.47
547.447	446.52
547.802	446.52
548.157	372.47
548.511	441.42
548.866	403.11
549.22	426.09
549.574	395.45
549.929	392.9
550.283	387.79
550.637	449.08
550.991	364.81
551.345	334.17
551.699	428.65
552.053	375.03
552.407	395.45
552.761	420.99
553.115	410.77
553.469	410.77
553.823	426.09
554.176	359.71
554.53	423.54
554.884	367.37
555.237	622.71
555.591	380.13
555.944	454.18
556.298	418.43
556.651	395.45
557.005	334.17
557.358	357.15
557.711	403.11
558.064	400.56
558.417	472.06
558.771	528.23
559.124	451.63
559.477	505.25
559.83	474.61
560.182	413.33
560.535	436.31
560.888	428.65
561.241	459.29
561.594	459.29
561.946	443.97
562.299	441.42
562.651	410.77
563.004	436.31
563.356	451.63
563.709	398.01
564.061	372.47
564.413	408.22
564.766	395.45
565.118	392.9
565.47	405.67
565.822	418.43
566.174	426.09
566.526	354.6
566.878	403.11
567.23	410.77
567.582	395.45
567.934	420.99
568.286	395.45
568.638	479.72
568.989	387.79
569.341	380.13
569.693	418.43
570.044	426.09
570.396	415.88
570.747	466.95
571.098	443.97
571.45	426.09
571.801	364.81
572.152	364.81
572.504	410.77
572.855	413.33
573.206	390.35
573.557	431.2
573.908	487.38
574.259	454.18
574.61	449.08
574.961	418.43
575.311	433.76
575.662	431.2
576.013	449.08
576.364	441.42
576.714	385.24
577.065	357.15
577.415	443.97
577.766	410.77
578.116	449.08
578.467	431.2
578.817	426.09
579.167	515.46
579.518	372.47
579.868	385.24
580.218	408.22
580.568	436.31
580.918	398.01
581.268	423.54
581.618	466.95
581.968	369.92
582.318	364.81
582.668	420.99
583.017	443.97
583.367	487.38
583.717	423.54
584.066	359.71
584.416	387.79
584.765	464.4
585.115	431.2
585.464	387.79
585.814	403.11
586.163	441.42
586.512	438.86
586.862	459.29
587.211	451.63
587.56	352.05
587.909	357.15
588.258	446.52
588.607	441.42
588.956	449.08
589.305	403.11
589.654	436.31
590.002	497.59
590.351	428.65
590.7	380.13
591.048	352.05
591.397	400.56
591.746	441.42
592.094	410.77
592.443	403.11
592.791	392.9
593.139	413.33
593.488	474.61
593.836	454.18
594.184	413.33
594.532	438.86
594.88	505.25
595.228	387.79
595.576	352.05
595.924	387.79
596.272	451.63
596.62	413.33
596.968	344.39
597.316	438.86
597.664	400.56
598.011	398.01
598.359	438.86
598.706	446.52
599.054	375.03
599.402	413.33
599.749	410.77
600.096	400.56
600.444	390.35
600.791	420.99
601.138	382.69
601.485	392.9
601.833	413.33
602.18	418.43
602.527	413.33
602.874	346.94
603.221	449.08
603.568	428.65
603.914	415.88
604.261	382.69
604.608	420.99
604.955	415.88
605.301	410.77
605.648	441.42
605.995	413.33
606.341	398.01
606.688	451.63
607.034	418.43
607.38	479.72
607.727	316.3
608.073	400.56
608.419	362.26
608.765	431.2
609.112	431.2
609.458	482.27
609.804	408.22
610.15	403.11
610.496	479.72
610.842	433.76
611.187	398.01
611.533	472.06
611.879	449.08
612.225	466.95
612.57	413.33
612.916	441.42
613.261	392.9
613.607	436.31
613.952	456.74
614.298	392.9
614.643	459.29
614.989	423.54
615.334	364.81
615.679	405.67
616.024	367.37
616.369	364.81
616.714	423.54
617.059	380.13
617.404	395.45
617.749	502.7
618.094	426.09
618.439	398.01
618.784	428.65
619.129	405.67
619.473	449.08
619.818	441.42
620.163	461.84
620.507	415.88
620.852	385.24
621.196	436.31
621.54	408.22
621.885	413.33
622.229	420.99
622.573	354.6
622.918	395.45
623.262	410.77
623.606	398.01
623.95	433.76
624.294	395.45
624.638	436.31
624.982	413.33
625.326	420.99
625.67	357.15
626.013	390.35
626.357	395.45
626.701	321.41
627.044	382.69
627.388	436.31
627.731	357.15
628.075	380.13
628.418	367.37
628.762	387.79
629.105	420.99
629.448	405.67
629.792	398.01
630.135	472.06
630.478	334.17
630.821	403.11
631.164	431.2
631.507	415.88
631.85	367.37
632.193	359.71
632.536	392.9
632.879	479.72
633.221	410.77
633.564	390.35
633.907	479.72
634.249	438.86
634.592	431.2
634.935	382.69
635.277	418.43
635.619	390.35
635.962	420.99
636.304	352.05
636.646	372.47
636.989	420.99
637.331	433.76
637.673	413.33
638.015	352.05
638.357	346.94
638.699	433.76
639.041	423.54
639.383	398.01
639.725	443.97
640.067	375.03
640.408	341.83
640.75	423.54
641.092	400.56
641.433	413.33
641.775	415.88
642.116	321.41
642.458	438.86
642.799	392.9
643.141	443.97
643.482	461.84
643.823	387.79
644.164	369.92
644.506	454.18
644.847	423.54
645.188	392.9
645.529	380.13
645.87	367.37
646.211	443.97
646.552	392.9
646.893	392.9
647.233	300.98
647.574	405.67
647.915	459.29
648.255	464.4
648.596	438.86
648.937	372.47
649.277	405.67
649.618	441.42
649.958	469.5
650.298	354.6
650.639	443.97
650.979	395.45
651.319	459.29
651.659	400.56
651.999	451.63
652.339	438.86
652.679	472.06
653.019	420.99
653.359	295.87
653.699	341.83
654.039	369.92
654.379	367.37
654.719	403.11
655.058	385.24
655.398	398.01
655.737	443.97
656.077	410.77
656.416	489.93
656.756	415.88
657.095	375.03
657.435	408.22
657.774	341.83
658.113	420.99
658.452	420.99
658.792	380.13
659.131	441.42
659.47	459.29
659.809	474.61
660.148	464.4
660.487	382.69
660.826	382.69
661.164	431.2
661.503	372.47
661.842	403.11
662.181	362.26
662.519	438.86
662.858	423.54
663.196	362.26
663.535	408.22
663.873	392.9
664.212	405.67
664.55	326.51
664.888	403.11
665.226	446.52
665.565	408.22
665.903	609.94
666.241	359.71
666.579	290.77
666.917	405.67
667.255	390.35
667.593	410.77
667.931	479.72
668.268	474.61
668.606	410.77
668.944	403.11
669.282	454.18
669.619	390.35
669.957	357.15
670.294	443.97
670.632	392.9
670.969	423.54
671.307	372.47
671.644	426.09
671.981	433.76
672.318	382.69
672.656	392.9
672.993	392.9
673.33	446.52
673.667	459.29
674.004	438.86
674.341	403.11
674.678	382.69
675.015	431.2
675.351	390.35
675.688	441.42
676.025	382.69
676.362	367.37
676.698	433.76
677.035	443.97
677.371	479.72
677.708	362.26
678.044	420.99
678.38	428.65
678.717	362.26
679.053	364.81
679.389	454.18
679.725	382.69
680.062	426.09
680.398	413.33
680.734	344.39
681.07	408.22
681.406	428.65
681.742	426.09
682.077	408.22
682.413	405.67
682.749	380.13
683.085	400.56
683.42	400.56
683.756	385.24
684.091	431.2
684.427	454.18
684.762	443.97
685.098	362.26
685.433	390.35
685.768	392.9
686.104	423.54
686.439	408.22
686.774	418.43
687.109	413.33
687.444	474.61
687.779	413.33
688.114	456.74
688.449	420.99
688.784	459.29
689.119	392.9
689.454	392.9
689.789	369.92
690.123	449.08
690.458	395.45
690.792	438.86
691.127	428.65
691.461	403.11
691.796	390.35
692.13	446.52
692.465	441.42
692.799	420.99
693.133	392.9
693.467	403.11
693.802	415.88
694.136	418.43
694.47	454.18
694.804	438.86
695.138	377.58
695.472	446.52
695.806	472.06
696.139	377.58
696.473	375.03
696.807	390.35
697.141	385.24
697.474	377.58
697.808	354.6
698.141	395.45
698.475	352.05
698.808	375.03
699.142	426.09
699.475	400.56
699.808	400.56
700.142	454.18
700.475	293.32
700.808	390.35
701.141	377.58
701.474	459.29
701.807	484.82
702.14	369.92
702.473	423.54
702.806	385.24
703.139	436.31
703.472	464.4
703.804	382.69
704.137	372.47
704.47	410.77
704.802	390.35
705.135	398.01
705.467	464.4
705.8	408.22
706.132	382.69
706.464	474.61
706.797	451.63
707.129	408.22
707.461	405.67
707.793	387.79
708.125	392.9
708.457	387.79
708.789	390.35
709.121	431.2
709.453	375.03
709.785	428.65
710.117	344.39
710.449	408.22
710.781	382.69
711.112	385.24
711.444	385.24
711.775	410.77
712.107	410.77
712.438	469.5
712.77	390.35
713.101	354.6
713.433	408.22
713.764	403.11
714.095	487.38
714.426	428.65
714.757	405.67
715.089	354.6
715.42	387.79
715.751	359.71
716.082	344.39
716.412	461.84
716.743	431.2
717.074	385.24
717.405	418.43
717.736	451.63
718.066	418.43
718.397	423.54
718.727	461.84
719.058	349.49
719.388	357.15
719.719	431.2
720.049	403.11
720.38	418.43
720.71	413.33
721.04	349.49
721.37	423.54
721.7	413.33
722.031	405.67
722.361	443.97
722.691	454.18
723.021	377.58
723.35	443.97
723.68	415.88
724.01	362.26
724.34	423.54
724.67	364.81
724.999	382.69
725.329	420.99
725.658	489.93
725.988	372.47
726.317	415.88
726.647	438.86
726.976	454.18
727.306	390.35
727.635	392.9
727.964	349.49
728.293	380.13
728.622	449.08
728.952	392.9
729.281	408.22
729.61	382.69
729.939	403.11
730.267	431.2
730.596	362.26
730.925	436.31
731.254	398.01
731.583	423.54
731.911	423.54
732.24	403.11
732.568	369.92
732.897	380.13
733.225	382.69
733.554	336.73
733.882	372.47
734.21	464.4
734.539	408.22
734.867	398.01
735.195	410.77
735.523	372.47
735.851	418.43
736.179	410.77
736.507	446.52
736.835	367.37
737.163	352.05
737.491	364.81
737.819	443.97
738.147	415.88
738.474	395.45
738.802	413.33
739.13	466.95
739.457	418.43
739.785	349.49
740.112	380.13
740.44	372.47
740.767	405.67
741.094	380.13
741.422	382.69
741.749	331.62
742.076	336.73
742.403	349.49
742.73	387.79
743.057	392.9
743.384	413.33
743.711	395.45
744.038	341.83
744.365	400.56
744.692	382.69
745.018	387.79
745.345	375.03
745.672	352.05
745.998	382.69
746.325	433.76
746.651	390.35
746.978	329.07
747.304	428.65
747.631	418.43
747.957	357.15
748.283	341.83
748.61	341.83
748.936	385.24
749.262	466.95
749.588	349.49
749.914	387.79
750.24	377.58
750.566	359.71
750.892	400.56
751.218	443.97
751.543	369.92
751.869	344.39
752.195	398.01
752.521	449.08
752.846	352.05
753.172	438.86
753.497	385.24
753.823	420.99
754.148	380.13
754.473	357.15
754.799	364.81
755.124	323.96
755.449	377.58
755.774	377.58
756.1	410.77
756.425	415.88
756.75	369.92
757.075	451.63
757.4	533.34
757.724	413.33
758.049	436.31
758.374	408.22
758.699	300.98
759.024	398.01
759.348	438.86
759.673	385.24
759.997	364.81
760.322	372.47
760.646	441.42
760.971	420.99
761.295	375.03
761.619	410.77
761.944	377.58
762.268	398.01
762.592	403.11
762.916	431.2
763.24	438.86
763.564	410.77
763.888	375.03
764.212	403.11
764.536	326.51
764.86	390.35
765.184	418.43
765.508	405.67
765.831	423.54
766.155	553.76
766.478	484.82
766.802	405.67
767.126	451.63
767.449	408.22
767.772	398.01
768.096	408.22
768.419	436.31
768.742	443.97
769.066	354.6
769.389	390.35
769.712	400.56
770.035	426.09
770.358	372.47
770.681	359.71
771.004	418.43
771.327	398.01
771.65	364.81
771.972	408.22
772.295	357.15
772.618	369.92
772.941	390.35
773.263	344.39
773.586	446.52
773.908	354.6
774.231	413.33
774.553	408.22
774.875	420.99
775.198	426.09
775.52	390.35
775.842	438.86
776.164	420.99
776.487	459.29
776.809	410.77
777.131	382.69
777.453	400.56
777.775	423.54
778.096	380.13
778.418	438.86
778.74	428.65
779.062	382.69
779.384	362.26
779.705	408.22
780.027	497.59
780.348	400.56
780.67	428.65
780.991	367.37
781.313	385.24
781.634	431.2
781.955	387.79
782.277	385.24
782.598	395.45
782.919	415.88
783.24	326.51
783.561	385.24
783.882	395.45
784.203	431.2
784.524	446.52
784.845	441.42
785.166	380.13
785.487	375.03
785.807	418.43
786.128	400.56
786.449	398.01
786.769	392.9
787.09	415.88
787.41	420.99
787.731	372.47
788.051	451.63
788.372	367.37
788.692	395.45
789.012	413.33
789.332	403.11
789.653	408.22
789.973	431.2
790.293	410.77
790.613	423.54
790.933	403.11
791.253	426.09
791.573	403.11
791.893	346.94
792.212	341.83
792.532	464.4
792.852	375.03
793.171	321.41
793.491	410.77
793.811	438.86
794.13	428.65
794.45	466.95
794.769	443.97
795.088	398.01
795.408	395.45
795.727	405.67
796.046	410.77
796.365	418.43
796.684	400.56
797.004	410.77
797.323	369.92
797.642	367.37
797.96	400.56
798.279	387.79
798.598	352.05
798.917	398.01
799.236	415.88
799.554	362.26
799.873	410.77
800.192	484.82
800.51	349.49
800.829	400.56
801.147	418.43
801.466	418.43
