Data from 2025-12-03_xpw_interference_FLMS141361__28__14-42-20-780.txt Node

Date: Wed Dec 03 14:42:20 MST 2025
User: james
Spectrometer: FLMS14136
Trigger mode: 0
Integration Time (sec): 1.000000E-1
Scans to average: 1
Electric dark correction enabled: true
Nonlinearity correction enabled: false
Boxcar width: 0
XAxis mode: Wavelengths
Number of Pixels in Spectrum: 2048
>>>>>Begin Spectral Data<<<<<
339.315	1.28
339.697	1.28
340.079	1.28
340.461	-169.8
340.843	-151.93
341.225	-54.9
341.607	-67.66
341.989	-151.93
342.371	-70.22
342.752	-116.18
343.134	-77.88
343.516	-75.32
343.897	-34.47
344.279	31.92
344.661	60
345.042	72.77
345.423	8.94
345.805	65.11
346.186	134.05
346.567	111.07
346.949	164.69
347.33	70.22
347.711	98.31
348.092	169.8
348.473	192.78
348.854	220.87
349.235	197.89
349.616	259.17
349.997	305.13
350.378	294.92
350.758	300.02
351.139	297.47
351.52	292.36
351.9	320.45
352.281	376.62
352.661	312.79
353.042	384.28
353.422	340.88
353.803	409.82
354.183	381.73
354.563	376.62
354.943	335.77
355.324	414.92
355.704	409.82
356.084	384.28
356.464	391.94
356.844	397.05
357.224	356.2
357.603	389.39
357.983	402.16
358.363	394.5
358.743	330.66
359.122	427.69
359.502	409.82
359.882	394.5
360.261	366.41
360.641	420.03
361.02	356.2
361.399	358.75
361.779	381.73
362.158	361.3
362.537	358.75
362.916	412.37
363.296	348.54
363.675	368.96
364.054	297.47
364.433	363.86
364.812	358.75
365.19	368.96
365.569	312.79
365.948	343.43
366.327	320.45
366.705	363.86
367.084	302.58
367.463	351.09
367.841	381.73
368.22	379.18
368.598	284.7
368.977	386.84
369.355	333.22
369.733	358.75
370.111	363.86
370.49	371.52
370.868	274.49
371.246	325.56
371.624	374.07
372.002	386.84
372.38	384.28
372.758	391.94
373.136	315.34
373.513	294.92
373.891	315.34
374.269	300.02
374.646	363.86
375.024	386.84
375.402	448.12
375.779	366.41
376.157	420.03
376.534	351.09
376.911	300.02
377.289	361.3
377.666	361.3
378.043	389.39
378.42	404.71
378.797	307.68
379.175	317.9
379.552	261.72
379.929	399.6
380.305	427.69
380.682	425.14
381.059	409.82
381.436	386.84
381.813	384.28
382.189	289.81
382.566	381.73
382.943	312.79
383.319	294.92
383.696	340.88
384.072	343.43
384.448	338.32
384.825	361.3
385.201	381.73
385.577	374.07
385.953	356.2
386.329	374.07
386.706	358.75
387.082	343.43
387.458	356.2
387.834	376.62
388.209	335.77
388.585	368.96
388.961	335.77
389.337	305.13
389.713	386.84
390.088	397.05
390.464	312.79
390.839	330.66
391.215	356.2
391.59	310.24
391.966	345.98
392.341	386.84
392.716	307.68
393.092	315.34
393.467	379.18
393.842	361.3
394.217	391.94
394.592	379.18
394.967	371.52
395.342	353.64
395.717	353.64
396.092	399.6
396.467	374.07
396.841	358.75
397.216	356.2
397.591	366.41
397.965	338.32
398.34	407.26
398.714	363.86
399.089	351.09
399.463	376.62
399.838	348.54
400.212	432.8
400.586	448.12
400.961	363.86
401.335	356.2
401.709	379.18
402.083	363.86
402.457	330.66
402.831	417.48
403.205	376.62
403.579	297.47
403.953	361.3
404.326	343.43
404.7	345.98
405.074	381.73
405.447	440.46
405.821	323
406.195	407.26
406.568	345.98
406.942	435.35
407.315	302.58
407.688	417.48
408.062	381.73
408.435	437.9
408.808	366.41
409.181	402.16
409.554	320.45
409.927	389.39
410.3	386.84
410.673	391.94
411.046	460.88
411.419	384.28
411.792	363.86
412.165	351.09
412.537	333.22
412.91	389.39
413.283	376.62
413.655	340.88
414.028	384.28
414.4	320.45
414.773	317.9
415.145	325.56
415.517	435.35
415.889	386.84
416.262	368.96
416.634	363.86
417.006	386.84
417.378	417.48
417.75	391.94
418.122	399.6
418.494	371.52
418.866	397.05
419.238	345.98
419.609	384.28
419.981	368.96
420.353	333.22
420.725	397.05
421.096	422.58
421.468	381.73
421.839	399.6
422.211	371.52
422.582	371.52
422.953	353.64
423.325	404.71
423.696	368.96
424.067	368.96
424.438	379.18
424.809	417.48
425.18	345.98
425.551	409.82
425.922	420.03
426.293	450.67
426.664	432.8
427.035	432.8
427.406	389.39
427.776	399.6
428.147	368.96
428.518	353.64
428.888	312.79
429.259	312.79
429.629	358.75
429.999	328.11
430.37	376.62
430.74	366.41
431.11	361.3
431.481	389.39
431.851	394.5
432.221	371.52
432.591	371.52
432.961	409.82
433.331	368.96
433.701	335.77
434.071	338.32
434.441	348.54
434.81	394.5
435.18	384.28
435.55	386.84
435.919	363.86
436.289	353.64
436.658	402.16
437.028	391.94
437.397	381.73
437.767	351.09
438.136	371.52
438.505	333.22
438.875	368.96
439.244	363.86
439.613	481.31
439.982	476.2
440.351	366.41
440.72	343.43
441.089	402.16
441.458	425.14
441.827	351.09
442.196	397.05
442.564	468.54
442.933	517.06
443.302	412.37
443.67	399.6
444.039	376.62
444.407	366.41
444.776	402.16
445.144	307.68
445.513	368.96
445.881	386.84
446.249	397.05
446.617	389.39
446.986	374.07
447.354	358.75
447.722	381.73
448.09	402.16
448.458	374.07
448.826	391.94
449.194	368.96
449.561	363.86
449.929	420.03
450.297	422.58
450.665	476.2
451.032	420.03
451.4	340.88
451.767	409.82
452.135	374.07
452.502	300.02
452.87	414.92
453.237	358.75
453.604	460.88
453.971	443.01
454.339	389.39
454.706	448.12
455.073	384.28
455.44	379.18
455.807	404.71
456.174	368.96
456.541	381.73
456.908	366.41
457.274	374.07
457.641	386.84
458.008	404.71
458.374	384.28
458.741	407.26
459.108	386.84
459.474	407.26
459.841	361.3
460.207	402.16
460.573	437.9
460.94	453.22
461.306	381.73
461.672	445.56
462.038	420.03
462.404	417.48
462.771	420.03
463.137	420.03
463.503	376.62
463.868	384.28
464.234	371.52
464.6	425.14
464.966	425.14
465.332	300.02
465.697	361.3
466.063	343.43
466.429	397.05
466.794	366.41
467.16	394.5
467.525	394.5
467.89	422.58
468.256	402.16
468.621	417.48
468.986	437.9
469.351	417.48
469.717	394.5
470.082	353.64
470.447	402.16
470.812	412.37
471.177	366.41
471.542	437.9
471.906	391.94
472.271	353.64
472.636	404.71
473.001	397.05
473.365	325.56
473.73	348.54
474.094	376.62
474.459	381.73
474.823	361.3
475.188	397.05
475.552	394.5
475.917	412.37
476.281	440.46
476.645	404.71
477.009	432.8
477.373	381.73
477.737	435.35
478.101	445.56
478.465	412.37
478.829	348.54
479.193	394.5
479.557	320.45
479.921	335.77
480.284	374.07
480.648	363.86
481.012	340.88
481.375	394.5
481.739	391.94
482.102	458.33
482.466	443.01
482.829	404.71
483.193	366.41
483.556	368.96
483.919	366.41
484.282	460.88
484.645	386.84
485.009	376.62
485.372	414.92
485.735	356.2
486.098	379.18
486.46	397.05
486.823	402.16
487.186	417.48
487.549	427.69
487.912	348.54
488.274	407.26
488.637	368.96
488.999	422.58
489.362	397.05
489.724	471.1
490.087	371.52
490.449	348.54
490.811	348.54
491.174	325.56
491.536	333.22
491.898	363.86
492.26	430.24
492.622	379.18
492.984	366.41
493.346	422.58
493.708	356.2
494.07	409.82
494.432	435.35
494.794	412.37
495.155	409.82
495.517	458.33
495.879	414.92
496.24	427.69
496.602	409.82
496.963	343.43
497.325	417.48
497.686	386.84
498.048	325.56
498.409	399.6
498.77	356.2
499.131	443.01
499.492	432.8
499.854	371.52
500.215	368.96
500.576	361.3
500.937	435.35
501.298	363.86
501.658	430.24
502.019	409.82
502.38	409.82
502.741	351.09
503.101	407.26
503.462	353.64
503.823	430.24
504.183	379.18
504.543	358.75
504.904	376.62
505.264	386.84
505.625	430.24
505.985	445.56
506.345	440.46
506.705	407.26
507.065	381.73
507.426	404.71
507.786	422.58
508.146	394.5
508.505	427.69
508.865	440.46
509.225	453.22
509.585	455.78
509.945	381.73
510.304	361.3
510.664	425.14
511.024	379.18
511.383	391.94
511.743	374.07
512.102	348.54
512.462	412.37
512.821	409.82
513.18	358.75
513.539	335.77
513.899	455.78
514.258	399.6
514.617	348.54
514.976	348.54
515.335	351.09
515.694	443.01
516.053	368.96
516.412	414.92
516.771	394.5
517.129	409.82
517.488	465.99
517.847	343.43
518.205	356.2
518.564	325.56
518.922	394.5
519.281	345.98
519.639	376.62
519.998	386.84
520.356	366.41
520.714	391.94
521.073	407.26
521.431	391.94
521.789	361.3
522.147	356.2
522.505	379.18
522.863	432.8
523.221	374.07
523.579	363.86
523.937	417.48
524.295	379.18
524.652	399.6
525.01	417.48
525.368	458.33
525.725	397.05
526.083	409.82
526.44	394.5
526.798	335.77
527.155	325.56
527.513	427.69
527.87	394.5
528.227	356.2
528.584	371.52
528.942	407.26
529.299	361.3
529.656	366.41
530.013	407.26
530.37	425.14
530.727	448.12
531.083	404.71
531.44	381.73
531.797	351.09
532.154	432.8
532.511	371.52
532.867	366.41
533.224	440.46
533.58	317.9
533.937	368.96
534.293	404.71
534.65	437.9
535.006	368.96
535.362	404.71
535.718	333.22
536.075	386.84
536.431	463.44
536.787	343.43
537.143	402.16
537.499	361.3
537.855	386.84
538.211	358.75
538.567	325.56
538.923	425.14
539.278	430.24
539.634	361.3
539.99	409.82
540.345	397.05
540.701	391.94
541.056	363.86
541.412	414.92
541.767	471.1
542.123	391.94
542.478	399.6
542.833	345.98
543.188	397.05
543.544	425.14
543.899	440.46
544.254	409.82
544.609	458.33
544.964	422.58
545.319	356.2
545.674	353.64
546.029	343.43
546.383	371.52
546.738	374.07
547.093	417.48
547.447	391.94
547.802	402.16
548.157	379.18
548.511	499.19
548.866	443.01
549.22	363.86
549.574	435.35
549.929	379.18
550.283	381.73
550.637	379.18
550.991	371.52
551.345	391.94
551.699	379.18
552.053	358.75
552.407	455.78
552.761	414.92
553.115	389.39
553.469	455.78
553.823	379.18
554.176	320.45
554.53	417.48
554.884	363.86
555.237	621.75
555.591	471.1
555.944	440.46
556.298	361.3
556.651	386.84
557.005	412.37
557.358	425.14
557.711	353.64
558.064	358.75
558.417	351.09
558.771	435.35
559.124	356.2
559.477	427.69
559.83	414.92
560.182	399.6
560.535	371.52
560.888	345.98
561.241	397.05
561.594	391.94
561.946	374.07
562.299	425.14
562.651	402.16
563.004	381.73
563.356	389.39
563.709	422.58
564.061	371.52
564.413	420.03
564.766	414.92
565.118	348.54
565.47	394.5
565.822	384.28
566.174	368.96
566.526	417.48
566.878	450.67
567.23	381.73
567.582	427.69
567.934	348.54
568.286	412.37
568.638	414.92
568.989	450.67
569.341	427.69
569.693	404.71
570.044	394.5
570.396	356.2
570.747	379.18
571.098	483.87
571.45	356.2
571.801	325.56
572.152	325.56
572.504	379.18
572.855	384.28
573.206	422.58
573.557	386.84
573.908	376.62
574.259	384.28
574.61	361.3
574.961	404.71
575.311	397.05
575.662	356.2
576.013	417.48
576.364	404.71
576.714	397.05
577.065	371.52
577.415	407.26
577.766	432.8
578.116	427.69
578.467	371.52
578.817	358.75
579.167	376.62
579.518	317.9
579.868	371.52
580.218	358.75
580.568	404.71
580.918	402.16
581.268	399.6
581.618	425.14
581.968	450.67
582.318	432.8
582.668	384.28
583.017	394.5
583.367	463.44
583.717	425.14
584.066	435.35
584.416	417.48
584.765	402.16
585.115	374.07
585.464	463.44
585.814	330.66
586.163	422.58
586.512	425.14
586.862	376.62
587.211	414.92
587.56	404.71
587.909	471.1
588.258	432.8
588.607	366.41
588.956	417.48
589.305	417.48
589.654	445.56
590.002	435.35
590.351	427.69
590.7	391.94
591.048	427.69
591.397	366.41
591.746	366.41
592.094	371.52
592.443	379.18
592.791	325.56
593.139	381.73
593.488	376.62
593.836	409.82
594.184	430.24
594.532	432.8
594.88	379.18
595.228	478.76
595.576	409.82
595.924	420.03
596.272	414.92
596.62	368.96
596.968	381.73
597.316	445.56
597.664	353.64
598.011	366.41
598.359	389.39
598.706	374.07
599.054	356.2
599.402	361.3
599.749	330.66
600.096	348.54
600.444	386.84
600.791	345.98
601.138	409.82
601.485	420.03
601.833	374.07
602.18	391.94
602.527	417.48
602.874	399.6
603.221	404.71
603.568	427.69
603.914	435.35
604.261	407.26
604.608	394.5
604.955	437.9
605.301	351.09
605.648	422.58
605.995	351.09
606.341	417.48
606.688	427.69
607.034	425.14
607.38	358.75
607.727	420.03
608.073	381.73
608.419	453.22
608.765	407.26
609.112	399.6
609.458	333.22
609.804	384.28
610.15	348.54
610.496	361.3
610.842	389.39
611.187	427.69
611.533	412.37
611.879	394.5
612.225	363.86
612.57	404.71
612.916	422.58
613.261	420.03
613.607	402.16
613.952	402.16
614.298	483.87
614.643	389.39
614.989	409.82
615.334	399.6
615.679	348.54
616.024	425.14
616.369	348.54
616.714	425.14
617.059	338.32
617.404	374.07
617.749	397.05
618.094	409.82
618.439	443.01
618.784	389.39
619.129	366.41
619.473	310.24
619.818	414.92
620.163	420.03
620.507	389.39
620.852	361.3
621.196	379.18
621.54	417.48
621.885	394.5
622.229	374.07
622.573	404.71
622.918	425.14
623.262	397.05
623.606	402.16
623.95	345.98
624.294	391.94
624.638	361.3
624.982	340.88
625.326	384.28
625.67	356.2
626.013	389.39
626.357	348.54
626.701	358.75
627.044	397.05
627.388	443.01
627.731	450.67
628.075	455.78
628.418	440.46
628.762	376.62
629.105	389.39
629.448	420.03
629.792	381.73
630.135	414.92
630.478	407.26
630.821	414.92
631.164	389.39
631.507	394.5
631.85	463.44
632.193	417.48
632.536	412.37
632.879	409.82
633.221	330.66
633.564	384.28
633.907	422.58
634.249	379.18
634.592	389.39
634.935	465.99
635.277	386.84
635.619	414.92
635.962	455.78
636.304	338.32
636.646	371.52
636.989	437.9
637.331	432.8
637.673	402.16
638.015	440.46
638.357	440.46
638.699	412.37
639.041	394.5
639.383	368.96
639.725	379.18
640.067	399.6
640.408	435.35
640.75	361.3
641.092	450.67
641.433	404.71
641.775	414.92
642.116	412.37
642.458	409.82
642.799	450.67
643.141	371.52
643.482	345.98
643.823	420.03
644.164	430.24
644.506	506.85
644.847	394.5
645.188	437.9
645.529	399.6
645.87	363.86
646.211	437.9
646.552	381.73
646.893	468.54
647.233	425.14
647.574	351.09
647.915	432.8
648.255	425.14
648.596	407.26
648.937	407.26
649.277	420.03
649.618	455.78
649.958	402.16
650.298	402.16
650.639	386.84
650.979	450.67
651.319	417.48
651.659	455.78
651.999	414.92
652.339	351.09
652.679	379.18
653.019	391.94
653.359	356.2
653.699	335.77
654.039	435.35
654.379	374.07
654.719	435.35
655.058	417.48
655.398	453.22
655.737	437.9
656.077	402.16
656.416	422.58
656.756	391.94
657.095	445.56
657.435	432.8
657.774	445.56
658.113	425.14
658.452	374.07
658.792	422.58
659.131	363.86
659.47	340.88
659.809	443.01
660.148	412.37
660.487	450.67
660.826	391.94
661.164	389.39
661.503	379.18
661.842	414.92
662.181	384.28
662.519	435.35
662.858	389.39
663.196	363.86
663.535	391.94
663.873	407.26
664.212	422.58
664.55	368.96
664.888	386.84
665.226	348.54
665.565	488.97
665.903	563.02
666.241	348.54
666.579	356.2
666.917	379.18
667.255	376.62
667.593	389.39
667.931	394.5
668.268	335.77
668.606	333.22
668.944	366.41
669.282	389.39
669.619	381.73
669.957	371.52
670.294	361.3
670.632	448.12
670.969	399.6
671.307	389.39
671.644	420.03
671.981	353.64
672.318	448.12
672.656	455.78
672.993	399.6
673.33	348.54
673.667	397.05
674.004	397.05
674.341	356.2
674.678	389.39
675.015	338.32
675.351	330.66
675.688	325.56
676.025	402.16
676.362	394.5
676.698	420.03
677.035	420.03
677.371	351.09
677.708	353.64
678.044	381.73
678.38	302.58
678.717	435.35
679.053	430.24
679.389	412.37
679.725	430.24
680.062	432.8
680.398	289.81
680.734	389.39
681.07	343.43
681.406	379.18
681.742	450.67
682.077	368.96
682.413	368.96
682.749	402.16
683.085	430.24
683.42	374.07
683.756	389.39
684.091	379.18
684.427	435.35
684.762	399.6
685.098	340.88
685.433	333.22
685.768	379.18
686.104	376.62
686.439	343.43
686.774	379.18
687.109	432.8
687.444	374.07
687.779	386.84
688.114	397.05
688.449	379.18
688.784	414.92
689.119	366.41
689.454	422.58
689.789	376.62
690.123	343.43
690.458	345.98
690.792	340.88
691.127	414.92
691.461	448.12
691.796	325.56
692.13	376.62
692.465	302.58
692.799	335.77
693.133	397.05
693.467	432.8
693.802	335.77
694.136	335.77
694.47	463.44
694.804	407.26
695.138	430.24
695.472	391.94
695.806	371.52
696.139	292.36
696.473	376.62
696.807	476.2
697.141	404.71
697.474	404.71
697.808	391.94
698.141	371.52
698.475	417.48
698.808	376.62
699.142	371.52
699.475	282.15
699.808	425.14
700.142	345.98
700.475	417.48
700.808	348.54
701.141	345.98
701.474	376.62
701.807	356.2
702.14	427.69
702.473	420.03
702.806	376.62
703.139	371.52
703.472	381.73
703.804	391.94
704.137	399.6
704.47	366.41
704.802	394.5
705.135	348.54
705.467	450.67
705.8	343.43
706.132	381.73
706.464	417.48
706.797	374.07
707.129	384.28
707.461	412.37
707.793	384.28
708.125	422.58
708.457	386.84
708.789	345.98
709.121	420.03
709.453	437.9
709.785	501.74
710.117	397.05
710.449	391.94
710.781	394.5
711.112	402.16
711.444	394.5
711.775	361.3
712.107	409.82
712.438	417.48
712.77	450.67
713.101	345.98
713.433	394.5
713.764	409.82
714.095	448.12
714.426	399.6
714.757	402.16
715.089	386.84
715.42	358.75
715.751	412.37
716.082	384.28
716.412	414.92
716.743	376.62
717.074	348.54
717.405	420.03
717.736	463.44
718.066	412.37
718.397	310.24
718.727	338.32
719.058	368.96
719.388	363.86
719.719	374.07
720.049	333.22
720.38	317.9
720.71	384.28
721.04	397.05
721.37	448.12
721.7	412.37
722.031	343.43
722.361	315.34
722.691	345.98
723.021	468.54
723.35	353.64
723.68	351.09
724.01	412.37
724.34	361.3
724.67	391.94
724.999	361.3
725.329	374.07
725.658	374.07
725.988	353.64
726.317	302.58
726.647	481.31
726.976	422.58
727.306	402.16
727.635	330.66
727.964	397.05
728.293	425.14
728.622	297.47
728.952	317.9
729.281	363.86
729.61	366.41
729.939	371.52
730.267	374.07
730.596	425.14
730.925	391.94
731.254	453.22
731.583	358.75
731.911	335.77
732.24	397.05
732.568	317.9
732.897	399.6
733.225	379.18
733.554	488.97
733.882	432.8
734.21	358.75
734.539	399.6
734.867	333.22
735.195	361.3
735.523	358.75
735.851	435.35
736.179	420.03
736.507	376.62
736.835	389.39
737.163	384.28
737.491	345.98
737.819	414.92
738.147	366.41
738.474	358.75
738.802	402.16
739.13	422.58
739.457	402.16
739.785	458.33
740.112	399.6
740.44	430.24
740.767	368.96
741.094	302.58
741.422	335.77
741.749	409.82
742.076	368.96
742.403	414.92
742.73	335.77
743.057	356.2
743.384	414.92
743.711	389.39
744.038	340.88
744.365	381.73
744.692	407.26
745.018	453.22
745.345	323
745.672	307.68
745.998	338.32
746.325	381.73
746.651	394.5
746.978	371.52
747.304	302.58
747.631	353.64
747.957	358.75
748.283	361.3
748.61	430.24
748.936	366.41
749.262	371.52
749.588	394.5
749.914	409.82
750.24	358.75
750.566	397.05
750.892	409.82
751.218	381.73
751.543	399.6
751.869	399.6
752.195	448.12
752.521	440.46
752.846	399.6
753.172	302.58
753.497	358.75
753.823	422.58
754.148	343.43
754.473	379.18
754.799	376.62
755.124	394.5
755.449	430.24
755.774	412.37
756.1	450.67
756.425	417.48
756.75	391.94
757.075	399.6
757.4	527.27
757.724	374.07
758.049	376.62
758.374	323
758.699	368.96
759.024	366.41
759.348	412.37
759.673	407.26
759.997	437.9
760.322	363.86
760.646	386.84
760.971	384.28
761.295	397.05
761.619	407.26
761.944	361.3
762.268	386.84
762.592	458.33
762.916	371.52
763.24	432.8
763.564	368.96
763.888	458.33
764.212	448.12
764.536	425.14
764.86	409.82
765.184	389.39
765.508	468.54
765.831	453.22
766.155	570.68
766.478	450.67
766.802	542.59
767.126	448.12
767.449	491.53
767.772	417.48
768.096	517.06
768.419	557.91
768.742	499.19
769.066	532.38
769.389	560.47
769.712	570.68
770.035	580.89
770.358	586
770.681	552.81
771.004	596.21
771.327	647.28
771.65	555.36
771.972	614.09
772.295	634.51
772.618	711.12
772.941	741.76
773.263	746.86
773.586	757.08
773.908	813.25
774.231	744.31
774.553	774.95
774.875	889.85
775.198	874.53
775.52	831.12
775.842	866.87
776.164	841.34
776.487	823.46
776.809	826.02
777.131	838.78
777.453	984.33
777.775	900.07
778.096	851.55
778.418	856.66
778.74	935.81
779.062	1007.31
779.384	1089.02
779.705	1247.33
780.027	1209.02
780.348	1163.06
780.67	1239.67
780.991	1234.56
781.313	1298.39
781.634	1288.18
781.955	1219.24
782.277	1160.51
782.598	1321.37
782.919	1461.81
783.24	1400.53
783.561	1318.82
783.882	1224.34
784.203	1232
784.524	1145.19
784.845	1339.25
785.166	1395.42
785.487	1403.08
785.807	1546.07
786.128	1543.52
786.449	1517.98
786.769	1454.15
787.09	1533.3
787.41	1752.89
787.731	1793.75
788.051	1740.13
788.372	1768.21
788.692	1722.25
789.012	1740.13
789.332	1729.91
789.653	1783.53
789.973	2120.58
790.293	2066.96
790.613	1998.02
790.933	2013.34
791.253	2026.11
791.573	2082.28
791.893	2105.26
792.212	2000.57
792.532	1977.59
792.852	2018.45
793.171	1944.4
793.491	1880.56
793.811	1694.17
794.13	1683.95
794.45	1561.39
794.769	1441.38
795.088	1436.28
795.408	1464.36
795.727	1469.47
796.046	1632.89
796.365	1671.19
796.684	1673.74
797.004	1972.48
797.323	2072.07
797.642	2051.64
797.96	2148.67
798.279	2112.92
798.598	2110.37
798.917	2072.07
799.236	2056.75
799.554	1916.31
799.873	1770.77
800.192	1832.05
800.51	1750.34
800.829	1742.68
801.147	1770.77
801.466	1655.87
801.784	1655.87
802.102	1732.47
