Data from 2025-11-25_spectrum_FLMS141361__1__14-25-55-710.txt Node

Date: Tue Nov 25 14:25:55 MST 2025
User: james
Spectrometer: FLMS14136
Trigger mode: 0
Integration Time (sec): 1.000000E-1
Scans to average: 1
Electric dark correction enabled: true
Nonlinearity correction enabled: false
Boxcar width: 0
XAxis mode: Wavelengths
Number of Pixels in Spectrum: 2048
>>>>>Begin Spectral Data<<<<<
339.315	2.23
339.697	2.23
340.079	2.23
340.461	-138.2
340.843	-87.13
341.225	-82.03
341.607	-79.47
341.989	-171.4
342.371	-61.6
342.752	-87.13
343.134	-28.41
343.516	-87.13
343.897	35.43
344.279	-28.41
344.661	35.43
345.042	55.86
345.423	117.14
345.805	66.07
346.186	50.75
346.567	81.39
346.949	183.52
347.33	163.1
347.711	209.06
348.092	252.47
348.473	191.18
348.854	247.36
349.235	252.47
349.616	229.48
349.997	339.28
350.378	369.92
350.758	362.26
351.139	329.07
351.52	300.98
351.9	357.15
352.281	362.26
352.661	392.9
353.042	403.11
353.422	382.69
353.803	431.2
354.183	413.33
354.563	418.43
354.943	398.01
355.324	398.01
355.704	372.47
356.084	387.79
356.464	400.56
356.844	410.77
357.224	359.71
357.603	362.26
357.983	385.24
358.363	443.97
358.743	408.22
359.122	341.83
359.502	372.47
359.882	390.35
360.261	387.79
360.641	339.28
361.02	382.69
361.399	367.37
361.779	433.76
362.158	369.92
362.537	352.05
362.916	336.73
363.296	344.39
363.675	295.87
364.054	357.15
364.433	403.11
364.812	344.39
365.19	369.92
365.569	385.24
365.948	359.71
366.327	367.37
366.705	390.35
367.084	438.86
367.463	364.81
367.841	362.26
368.22	344.39
368.598	316.3
368.977	278
369.355	339.28
369.733	362.26
370.111	298.43
370.49	339.28
370.868	285.66
371.246	377.58
371.624	346.94
372.002	316.3
372.38	321.41
372.758	344.39
373.136	349.49
373.513	334.17
373.891	385.24
374.269	357.15
374.646	385.24
375.024	336.73
375.402	364.81
375.779	380.13
376.157	420.99
376.534	400.56
376.911	390.35
377.289	369.92
377.666	357.15
378.043	357.15
378.42	341.83
378.797	392.9
379.175	316.3
379.552	313.75
379.929	344.39
380.305	331.62
380.682	336.73
381.059	369.92
381.436	385.24
381.813	395.45
382.189	341.83
382.566	344.39
382.943	311.19
383.319	431.2
383.696	431.2
384.072	306.09
384.448	405.67
384.825	336.73
385.201	403.11
385.577	372.47
385.953	385.24
386.329	375.03
386.706	329.07
387.082	438.86
387.458	290.77
387.834	364.81
388.209	334.17
388.585	346.94
388.961	349.49
389.337	398.01
389.713	313.75
390.088	410.77
390.464	420.99
390.839	403.11
391.215	466.95
391.59	359.71
391.966	346.94
392.341	357.15
392.716	367.37
393.092	415.88
393.467	387.79
393.842	446.52
394.217	410.77
394.592	446.52
394.967	431.2
395.342	400.56
395.717	415.88
396.092	418.43
396.467	431.2
396.841	357.15
397.216	398.01
397.591	359.71
397.965	349.49
398.34	413.33
398.714	395.45
399.089	415.88
399.463	449.08
399.838	443.97
400.212	367.37
400.586	339.28
400.961	426.09
401.335	400.56
401.709	362.26
402.083	318.85
402.457	357.15
402.831	359.71
403.205	377.58
403.579	474.61
403.953	382.69
404.326	405.67
404.7	341.83
405.074	410.77
405.447	362.26
405.821	362.26
406.195	405.67
406.568	398.01
406.942	541
407.315	357.15
407.688	367.37
408.062	375.03
408.435	400.56
408.808	456.74
409.181	415.88
409.554	426.09
409.927	339.28
410.3	398.01
410.673	375.03
411.046	431.2
411.419	364.81
411.792	479.72
412.165	400.56
412.537	339.28
412.91	341.83
413.283	298.43
413.655	375.03
414.028	413.33
414.4	469.5
414.773	408.22
415.145	387.79
415.517	400.56
415.889	403.11
416.262	420.99
416.634	354.6
417.006	451.63
417.378	464.4
417.75	398.01
418.122	387.79
418.494	441.42
418.866	362.26
419.238	341.83
419.609	359.71
419.981	349.49
420.353	403.11
420.725	408.22
421.096	428.65
421.468	341.83
421.839	418.43
422.211	382.69
422.582	395.45
422.953	400.56
423.325	398.01
423.696	364.81
424.067	367.37
424.438	395.45
424.809	398.01
425.18	359.71
425.551	380.13
425.922	441.42
426.293	385.24
426.664	410.77
427.035	449.08
427.406	418.43
427.776	392.9
428.147	431.2
428.518	403.11
428.888	405.67
429.259	334.17
429.629	382.69
429.999	392.9
430.37	357.15
430.74	426.09
431.11	395.45
431.481	408.22
431.851	403.11
432.221	446.52
432.591	492.48
432.961	420.99
433.331	405.67
433.701	459.29
434.071	375.03
434.441	387.79
434.81	392.9
435.18	385.24
435.55	461.84
435.919	441.42
436.289	405.67
436.658	387.79
437.028	405.67
437.397	387.79
437.767	454.18
438.136	477.16
438.505	420.99
438.875	456.74
439.244	426.09
439.613	403.11
439.982	415.88
440.351	474.61
440.72	446.52
441.089	451.63
441.458	495.04
441.827	436.31
442.196	438.86
442.564	461.84
442.933	428.65
443.302	443.97
443.67	415.88
444.039	410.77
444.407	413.33
444.776	334.17
445.144	449.08
445.513	380.13
445.881	449.08
446.249	443.97
446.617	538.44
446.986	456.74
447.354	403.11
447.722	441.42
448.09	413.33
448.458	395.45
448.826	477.16
449.194	357.15
449.561	443.97
449.929	464.4
450.297	415.88
450.665	472.06
451.032	441.42
451.4	398.01
451.767	387.79
452.135	375.03
452.502	413.33
452.87	423.54
453.237	385.24
453.604	420.99
453.971	451.63
454.339	408.22
454.706	398.01
455.073	431.2
455.44	464.4
455.807	449.08
456.174	395.45
456.541	405.67
456.908	387.79
457.274	449.08
457.641	395.45
458.008	436.31
458.374	461.84
458.741	431.2
459.108	441.42
459.474	451.63
459.841	426.09
460.207	469.5
460.573	459.29
460.94	387.79
461.306	454.18
461.672	431.2
462.038	420.99
462.404	359.71
462.771	415.88
463.137	433.76
463.503	408.22
463.868	443.97
464.234	489.93
464.6	446.52
464.966	443.97
465.332	420.99
465.697	454.18
466.063	410.77
466.429	426.09
466.794	418.43
467.16	449.08
467.525	454.18
467.89	408.22
468.256	426.09
468.621	415.88
468.986	400.56
469.351	459.29
469.717	436.31
470.082	385.24
470.447	441.42
470.812	377.58
471.177	441.42
471.542	385.24
471.906	405.67
472.271	418.43
472.636	441.42
473.001	423.54
473.365	415.88
473.73	497.59
474.094	461.84
474.459	469.5
474.823	449.08
475.188	375.03
475.552	385.24
475.917	392.9
476.281	359.71
476.645	354.6
477.009	415.88
477.373	472.06
477.737	454.18
478.101	459.29
478.465	405.67
478.829	420.99
479.193	438.86
479.557	418.43
479.921	339.28
480.284	385.24
480.648	459.29
481.012	426.09
481.375	400.56
481.739	398.01
482.102	441.42
482.466	461.84
482.829	472.06
483.193	428.65
483.556	492.48
483.919	418.43
484.282	357.15
484.645	423.54
485.009	466.95
485.372	454.18
485.735	385.24
486.098	441.42
486.46	387.79
486.823	390.35
487.186	413.33
487.549	400.56
487.912	372.47
488.274	431.2
488.637	474.61
488.999	336.73
489.362	408.22
489.724	382.69
490.087	428.65
490.449	392.9
490.811	426.09
491.174	426.09
491.536	454.18
491.898	487.38
492.26	443.97
492.622	420.99
492.984	451.63
493.346	357.15
493.708	426.09
494.07	367.37
494.432	398.01
494.794	469.5
495.155	400.56
495.517	456.74
495.879	349.49
496.24	492.48
496.602	390.35
496.963	398.01
497.325	385.24
497.686	382.69
498.048	362.26
498.409	479.72
498.77	446.52
499.131	461.84
499.492	484.82
499.854	413.33
500.215	405.67
500.576	441.42
500.937	346.94
501.298	387.79
501.658	438.86
502.019	364.81
502.38	392.9
502.741	461.84
503.101	385.24
503.462	431.2
503.823	375.03
504.183	443.97
504.543	428.65
504.904	426.09
505.264	408.22
505.625	410.77
505.985	510.36
506.345	461.84
506.705	466.95
507.065	451.63
507.426	459.29
507.786	415.88
508.146	418.43
508.505	400.56
508.865	418.43
509.225	451.63
509.585	456.74
509.945	349.49
510.304	408.22
510.664	446.52
511.024	372.47
511.383	420.99
511.743	408.22
512.102	364.81
512.462	405.67
512.821	464.4
513.18	387.79
513.539	415.88
513.899	400.56
514.258	446.52
514.617	479.72
514.976	426.09
515.335	466.95
515.694	392.9
516.053	426.09
516.412	436.31
516.771	472.06
517.129	507.8
517.488	438.86
517.847	426.09
518.205	354.6
518.564	392.9
518.922	451.63
519.281	477.16
519.639	441.42
519.998	395.45
520.356	346.94
520.714	489.93
521.073	441.42
521.431	464.4
521.789	420.99
522.147	431.2
522.505	512.91
522.863	398.01
523.221	484.82
523.579	500.14
523.937	392.9
524.295	413.33
524.652	380.13
525.01	433.76
525.368	512.91
525.725	418.43
526.083	423.54
526.44	438.86
526.798	408.22
527.155	433.76
527.513	400.56
527.87	387.79
528.227	390.35
528.584	385.24
528.942	398.01
529.299	459.29
529.656	385.24
530.013	413.33
530.37	441.42
530.727	375.03
531.083	441.42
531.44	395.45
531.797	408.22
532.154	474.61
532.511	385.24
532.867	474.61
533.224	472.06
533.58	477.16
533.937	413.33
534.293	436.31
534.65	505.25
535.006	423.54
535.362	507.8
535.718	474.61
536.075	441.42
536.431	408.22
536.787	454.18
537.143	354.6
537.499	423.54
537.855	428.65
538.211	456.74
538.567	454.18
538.923	441.42
539.278	428.65
539.634	431.2
539.99	451.63
540.345	484.82
540.701	346.94
541.056	451.63
541.412	454.18
541.767	454.18
542.123	398.01
542.478	436.31
542.833	454.18
543.188	433.76
543.544	413.33
543.899	451.63
544.254	461.84
544.609	423.54
544.964	428.65
545.319	438.86
545.674	367.37
546.029	392.9
546.383	443.97
546.738	487.38
547.093	451.63
547.447	431.2
547.802	495.04
548.157	408.22
548.511	415.88
548.866	484.82
549.22	443.97
549.574	428.65
549.929	477.16
550.283	456.74
550.637	423.54
550.991	398.01
551.345	375.03
551.699	390.35
552.053	369.92
552.407	464.4
552.761	415.88
553.115	456.74
553.469	449.08
553.823	428.65
554.176	459.29
554.53	431.2
554.884	431.2
555.237	604.83
555.591	477.16
555.944	477.16
556.298	489.93
556.651	423.54
557.005	418.43
557.358	431.2
557.711	436.31
558.064	436.31
558.417	428.65
558.771	543.55
559.124	464.4
559.477	441.42
559.83	446.52
560.182	446.52
560.535	500.14
560.888	479.72
561.241	418.43
561.594	410.77
561.946	400.56
562.299	477.16
562.651	487.38
563.004	446.52
563.356	438.86
563.709	479.72
564.061	487.38
564.413	446.52
564.766	441.42
565.118	354.6
565.47	477.16
565.822	451.63
566.174	426.09
566.526	479.72
566.878	446.52
567.23	456.74
567.582	428.65
567.934	436.31
568.286	477.16
568.638	451.63
568.989	431.2
569.341	385.24
569.693	436.31
570.044	451.63
570.396	418.43
570.747	479.72
571.098	461.84
571.45	410.77
571.801	413.33
572.152	431.2
572.504	466.95
572.855	454.18
573.206	484.82
573.557	413.33
573.908	433.76
574.259	420.99
574.61	469.5
574.961	433.76
575.311	484.82
575.662	443.97
576.013	464.4
576.364	426.09
576.714	449.08
577.065	433.76
577.415	459.29
577.766	454.18
578.116	472.06
578.467	420.99
578.817	392.9
579.167	466.95
579.518	449.08
579.868	433.76
580.218	438.86
580.568	484.82
580.918	451.63
581.268	456.74
581.618	464.4
581.968	410.77
582.318	387.79
582.668	403.11
583.017	380.13
583.367	449.08
583.717	433.76
584.066	415.88
584.416	357.15
584.765	454.18
585.115	451.63
585.464	428.65
585.814	431.2
586.163	375.03
586.512	484.82
586.862	479.72
587.211	426.09
587.56	443.97
587.909	472.06
588.258	418.43
588.607	472.06
588.956	472.06
589.305	443.97
589.654	423.54
590.002	420.99
590.351	464.4
590.7	454.18
591.048	443.97
591.397	403.11
591.746	387.79
592.094	413.33
592.443	433.76
592.791	489.93
593.139	443.97
593.488	400.56
593.836	387.79
594.184	449.08
594.532	426.09
594.88	484.82
595.228	433.76
595.576	405.67
595.924	420.99
596.272	451.63
596.62	464.4
596.968	438.86
597.316	359.71
597.664	382.69
598.011	352.05
598.359	382.69
598.706	420.99
599.054	464.4
599.402	449.08
599.749	464.4
600.096	382.69
600.444	454.18
600.791	474.61
601.138	451.63
601.485	433.76
601.833	357.15
602.18	438.86
602.527	438.86
602.874	428.65
603.221	474.61
603.568	400.56
603.914	431.2
604.261	395.45
604.608	405.67
604.955	403.11
605.301	443.97
605.648	428.65
605.995	420.99
606.341	482.27
606.688	505.25
607.034	408.22
607.38	400.56
607.727	484.82
608.073	489.93
608.419	474.61
608.765	400.56
609.112	392.9
609.458	408.22
609.804	477.16
610.15	418.43
610.496	382.69
610.842	408.22
611.187	415.88
611.533	446.52
611.879	456.74
612.225	387.79
612.57	410.77
612.916	426.09
613.261	410.77
613.607	339.28
613.952	380.13
614.298	428.65
614.643	446.52
614.989	454.18
615.334	423.54
615.679	413.33
616.024	390.35
616.369	420.99
616.714	367.37
617.059	428.65
617.404	377.58
617.749	449.08
618.094	377.58
618.439	420.99
618.784	492.48
619.129	518.02
619.473	380.13
619.818	431.2
620.163	418.43
620.507	423.54
620.852	405.67
621.196	443.97
621.54	408.22
621.885	456.74
622.229	418.43
622.573	420.99
622.918	377.58
623.262	385.24
623.606	410.77
623.95	431.2
624.294	459.29
624.638	436.31
624.982	405.67
625.326	392.9
625.67	433.76
626.013	446.52
626.357	456.74
626.701	400.56
627.044	392.9
627.388	484.82
627.731	420.99
628.075	431.2
628.418	438.86
628.762	428.65
629.105	387.79
629.448	423.54
629.792	408.22
630.135	456.74
630.478	410.77
630.821	420.99
631.164	382.69
631.507	436.31
631.85	410.77
632.193	428.65
632.536	438.86
632.879	367.37
633.221	436.31
633.564	454.18
633.907	395.45
634.249	390.35
634.592	446.52
634.935	334.17
635.277	423.54
635.619	410.77
635.962	408.22
636.304	446.52
636.646	385.24
636.989	357.15
637.331	362.26
637.673	431.2
638.015	390.35
638.357	405.67
638.699	415.88
639.041	438.86
639.383	433.76
639.725	357.15
640.067	400.56
640.408	405.67
640.75	349.49
641.092	438.86
641.433	461.84
641.775	449.08
642.116	456.74
642.458	464.4
642.799	441.42
643.141	459.29
643.482	451.63
643.823	446.52
644.164	408.22
644.506	423.54
644.847	395.45
645.188	449.08
645.529	405.67
645.87	415.88
646.211	428.65
646.552	466.95
646.893	466.95
647.233	369.92
647.574	385.24
647.915	385.24
648.255	405.67
648.596	415.88
648.937	336.73
649.277	415.88
649.618	451.63
649.958	461.84
650.298	364.81
650.639	390.35
650.979	400.56
651.319	459.29
651.659	372.47
651.999	420.99
652.339	454.18
652.679	433.76
653.019	395.45
653.359	413.33
653.699	484.82
654.039	454.18
654.379	423.54
654.719	375.03
655.058	362.26
655.398	443.97
655.737	541
656.077	443.97
656.416	420.99
656.756	392.9
657.095	398.01
657.435	456.74
657.774	392.9
658.113	352.05
658.452	321.41
658.792	461.84
659.131	431.2
659.47	484.82
659.809	408.22
660.148	443.97
660.487	367.37
660.826	392.9
661.164	443.97
661.503	415.88
661.842	331.62
662.181	415.88
662.519	362.26
662.858	413.33
663.196	410.77
663.535	433.76
663.873	441.42
664.212	387.79
664.55	459.29
664.888	469.5
665.226	331.62
665.565	387.79
665.903	661.01
666.241	431.2
666.579	441.42
666.917	362.26
667.255	466.95
667.593	420.99
667.931	387.79
668.268	398.01
668.606	423.54
668.944	431.2
669.282	372.47
669.619	375.03
669.957	395.45
670.294	454.18
670.632	408.22
670.969	382.69
671.307	410.77
671.644	436.31
671.981	418.43
672.318	405.67
672.656	398.01
672.993	423.54
673.33	359.71
673.667	400.56
674.004	395.45
674.341	405.67
674.678	449.08
675.015	413.33
675.351	408.22
675.688	461.84
676.025	451.63
676.362	436.31
676.698	438.86
677.035	395.45
677.371	377.58
677.708	392.9
678.044	431.2
678.38	477.16
678.717	420.99
679.053	400.56
679.389	377.58
679.725	438.86
680.062	451.63
680.398	377.58
680.734	449.08
681.07	466.95
681.406	385.24
681.742	449.08
682.077	436.31
682.413	446.52
682.749	461.84
683.085	446.52
683.42	410.77
683.756	359.71
684.091	426.09
684.427	408.22
684.762	400.56
685.098	377.58
685.433	408.22
685.768	380.13
686.104	380.13
686.439	382.69
686.774	400.56
687.109	436.31
687.444	423.54
687.779	352.05
688.114	392.9
688.449	387.79
688.784	380.13
689.119	321.41
689.454	392.9
689.789	372.47
690.123	395.45
690.458	403.11
690.792	479.72
691.127	352.05
691.461	392.9
691.796	426.09
692.13	454.18
692.465	380.13
692.799	433.76
693.133	443.97
693.467	487.38
693.802	449.08
694.136	392.9
694.47	377.58
694.804	413.33
695.138	441.42
695.472	415.88
695.806	367.37
696.139	420.99
696.473	403.11
696.807	469.5
697.141	390.35
697.474	364.81
697.808	392.9
698.141	438.86
698.475	446.52
698.808	362.26
699.142	410.77
699.475	372.47
699.808	390.35
700.142	344.39
700.475	392.9
700.808	459.29
701.141	459.29
701.474	403.11
701.807	451.63
702.14	408.22
702.473	359.71
702.806	390.35
703.139	346.94
703.472	423.54
703.804	385.24
704.137	454.18
704.47	433.76
704.802	415.88
705.135	408.22
705.467	426.09
705.8	362.26
706.132	382.69
706.464	436.31
706.797	415.88
707.129	431.2
707.461	377.58
707.793	362.26
708.125	375.03
708.457	441.42
708.789	433.76
709.121	456.74
709.453	474.61
709.785	420.99
710.117	443.97
710.449	495.04
710.781	400.56
711.112	398.01
711.444	367.37
711.775	413.33
712.107	413.33
712.438	398.01
712.77	456.74
713.101	395.45
713.433	387.79
713.764	423.54
714.095	436.31
714.426	380.13
714.757	400.56
715.089	375.03
715.42	418.43
715.751	395.45
716.082	352.05
716.412	413.33
716.743	472.06
717.074	400.56
717.405	426.09
717.736	423.54
718.066	413.33
718.397	408.22
718.727	377.58
719.058	441.42
719.388	418.43
719.719	382.69
720.049	354.6
720.38	446.52
720.71	433.76
721.04	426.09
721.37	413.33
721.7	364.81
722.031	390.35
722.361	505.25
722.691	375.03
723.021	387.79
723.35	446.52
723.68	438.86
724.01	428.65
724.34	431.2
724.67	405.67
724.999	431.2
725.329	400.56
725.658	400.56
725.988	469.5
726.317	441.42
726.647	413.33
726.976	428.65
727.306	469.5
727.635	359.71
727.964	392.9
728.293	413.33
728.622	395.45
728.952	456.74
729.281	428.65
729.61	362.26
729.939	403.11
730.267	395.45
730.596	313.75
730.925	420.99
731.254	413.33
731.583	398.01
731.911	420.99
732.24	415.88
732.568	382.69
732.897	489.93
733.225	426.09
733.554	362.26
733.882	482.27
734.21	443.97
734.539	426.09
734.867	390.35
735.195	398.01
735.523	408.22
735.851	367.37
736.179	415.88
736.507	377.58
736.835	395.45
737.163	405.67
737.491	390.35
737.819	436.31
738.147	410.77
738.474	426.09
738.802	420.99
739.13	423.54
739.457	456.74
739.785	408.22
740.112	354.6
740.44	372.47
740.767	433.76
741.094	405.67
741.422	477.16
741.749	405.67
742.076	454.18
742.403	510.36
742.73	400.56
743.057	385.24
743.384	369.92
743.711	362.26
744.038	431.2
744.365	443.97
744.692	446.52
745.018	403.11
745.345	438.86
745.672	357.15
745.998	398.01
746.325	359.71
746.651	443.97
746.978	415.88
747.304	385.24
747.631	446.52
747.957	438.86
748.283	392.9
748.61	426.09
748.936	415.88
749.262	456.74
749.588	410.77
749.914	428.65
750.24	405.67
750.566	385.24
750.892	359.71
751.218	398.01
751.543	472.06
751.869	426.09
752.195	369.92
752.521	398.01
752.846	410.77
753.172	346.94
753.497	405.67
753.823	377.58
754.148	431.2
754.473	398.01
754.799	375.03
755.124	329.07
755.449	405.67
755.774	423.54
756.1	400.56
756.425	426.09
756.75	367.37
757.075	461.84
757.4	505.25
757.724	418.43
758.049	466.95
758.374	380.13
758.699	459.29
759.024	469.5
759.348	477.16
759.673	426.09
759.997	418.43
760.322	385.24
760.646	359.71
760.971	395.45
761.295	497.59
761.619	431.2
761.944	441.42
762.268	362.26
762.592	420.99
762.916	405.67
763.24	403.11
763.564	423.54
763.888	408.22
764.212	413.33
764.536	395.45
764.86	433.76
765.184	428.65
765.508	482.27
765.831	423.54
766.155	625.26
766.478	459.29
766.802	441.42
767.126	474.61
767.449	474.61
767.772	449.08
768.096	339.28
768.419	464.4
768.742	403.11
769.066	428.65
769.389	375.03
769.712	413.33
770.035	489.93
770.358	433.76
770.681	420.99
771.004	461.84
771.327	495.04
771.65	456.74
771.972	479.72
772.295	530.78
772.618	541
772.941	535.89
773.263	548.66
773.586	589.51
773.908	553.76
774.231	625.26
774.553	735.05
774.875	834.64
775.198	829.53
775.52	832.08
775.842	796.33
776.164	783.57
776.487	936.77
776.809	944.43
777.131	1107.85
777.453	1130.83
777.775	1033.8
778.096	1079.76
778.418	1240.62
778.74	1562.35
779.062	1917.27
779.384	2185.37
779.705	2555.61
780.027	2583.7
780.348	2606.68
780.67	2688.39
780.991	2780.31
781.313	2879.89
781.634	3229.7
781.955	3523.34
782.277	3783.79
782.598	3686.76
782.919	3515.68
783.24	3482.49
783.561	3970.18
783.882	4789.82
784.203	5206.02
784.524	5315.81
784.845	5476.68
785.166	5379.65
785.487	5512.42
785.807	5849.47
786.128	6132.89
786.449	6618.04
786.769	6707.4
787.09	6283.54
787.41	6625.7
787.731	7470.86
788.051	8116.87
788.372	9076.94
788.692	9748.48
789.012	10149.36
789.332	9835.29
789.653	9924.66
789.973	10608.97
790.293	12235.47
790.613	12769.12
790.933	13213.41
791.253	12043.96
791.573	10312.77
791.893	9638.68
792.212	10575.77
792.532	12457.61
792.852	13992.19
793.171	16042.55
793.491	15598.27
793.811	14783.74
794.13	14444.14
794.45	15588.05
794.769	18299.74
795.088	22908.59
795.408	24272.09
795.727	27019.53
796.046	26590.56
796.365	25617.72
796.684	23692.48
797.004	22842.2
797.323	24782.77
797.642	25952.21
797.96	24241.45
798.279	22967.32
798.598	21182.5
798.917	21442.95
799.236	24330.82
799.554	28694.54
799.873	30142.31
800.192	29749.09
