Data from 2025-11-25_spectrum_w_ND_FLMS141361__6__15-33-10-549.txt Node

Date: Tue Nov 25 15:33:10 MST 2025
User: james
Spectrometer: FLMS14136
Trigger mode: 0
Integration Time (sec): 1.000000E-1
Scans to average: 1
Electric dark correction enabled: true
Nonlinearity correction enabled: false
Boxcar width: 0
XAxis mode: Wavelengths
Number of Pixels in Spectrum: 2048
>>>>>Begin Spectral Data<<<<<
339.315	-72.93
339.697	-72.93
340.079	-72.93
340.461	-83.14
340.843	-83.14
341.225	-88.25
341.607	-83.14
341.989	-95.91
342.371	-52.5
342.752	-52.5
343.134	-39.74
343.516	-42.29
343.897	34.31
344.279	-52.5
344.661	13.88
345.042	47.08
345.423	64.95
345.805	52.18
346.186	85.38
346.567	118.57
346.949	90.49
347.33	108.36
347.711	195.17
348.092	230.92
348.473	187.51
348.854	253.9
349.235	253.9
349.616	271.78
349.997	335.61
350.378	322.84
350.758	310.08
351.139	284.54
351.52	310.08
351.9	386.68
352.281	371.36
352.661	379.02
353.042	340.72
353.422	409.66
353.803	504.13
354.183	384.12
354.563	348.38
354.943	368.8
355.324	379.02
355.704	338.16
356.084	361.14
356.464	373.91
356.844	389.23
357.224	358.59
357.603	353.48
357.983	399.44
358.363	376.46
358.743	373.91
359.122	358.59
359.502	335.61
359.882	419.87
360.261	361.14
360.641	361.14
361.02	435.19
361.399	320.29
361.779	394.34
362.158	312.63
362.537	348.38
362.916	294.76
363.296	333.06
363.675	371.36
364.054	376.46
364.433	373.91
364.812	361.14
365.19	366.25
365.569	353.48
365.948	345.82
366.327	315.18
366.705	368.8
367.084	366.25
367.463	376.46
367.841	335.61
368.22	412.21
368.598	322.84
368.977	350.93
369.355	381.57
369.733	304.97
370.111	399.44
370.49	386.68
370.868	404.55
371.246	414.76
371.624	335.61
372.002	343.27
372.38	356.04
372.758	447.96
373.136	366.25
373.513	386.68
373.891	304.97
374.269	310.08
374.646	345.82
375.024	442.85
375.402	396.89
375.779	325.4
376.157	358.59
376.534	391.78
376.911	343.27
377.289	442.85
377.666	386.68
378.043	322.84
378.42	353.48
378.797	361.14
379.175	363.7
379.552	320.29
379.929	376.46
380.305	325.4
380.682	435.19
381.059	366.25
381.436	281.99
381.813	315.18
382.189	366.25
382.566	361.14
382.943	437.74
383.319	391.78
383.696	463.28
384.072	396.89
384.448	363.7
384.825	381.57
385.201	384.12
385.577	394.34
385.953	340.72
386.329	356.04
386.706	307.52
387.082	350.93
387.458	345.82
387.834	419.87
388.209	463.28
388.585	424.98
388.961	358.59
389.337	304.97
389.713	414.76
390.088	394.34
390.464	376.46
390.839	389.23
391.215	427.53
391.59	350.93
391.966	356.04
392.341	325.4
392.716	348.38
393.092	345.82
393.467	384.12
393.842	386.68
394.217	356.04
394.592	373.91
394.967	340.72
395.342	396.89
395.717	396.89
396.092	386.68
396.467	376.46
396.841	363.7
397.216	335.61
397.591	412.21
397.965	345.82
398.34	310.08
398.714	315.18
399.089	340.72
399.463	373.91
399.838	402
400.212	389.23
400.586	386.68
400.961	333.06
401.335	335.61
401.709	353.48
402.083	358.59
402.457	427.53
402.831	335.61
403.205	391.78
403.579	356.04
403.953	373.91
404.326	350.93
404.7	386.68
405.074	363.7
405.447	386.68
405.821	371.36
406.195	373.91
406.568	371.36
406.942	442.85
407.315	391.78
407.688	368.8
408.062	310.08
408.435	404.55
408.808	384.12
409.181	399.44
409.554	348.38
409.927	414.76
410.3	473.49
410.673	356.04
411.046	424.98
411.419	414.76
411.792	386.68
412.165	414.76
412.537	447.96
412.91	488.81
413.283	458.17
413.655	340.72
414.028	432.64
414.4	417.32
414.773	402
415.145	407.1
415.517	348.38
415.889	363.7
416.262	386.68
416.634	379.02
417.006	391.78
417.378	435.19
417.75	381.57
418.122	468.39
418.494	384.12
418.866	348.38
419.238	315.18
419.609	450.51
419.981	366.25
420.353	407.1
420.725	363.7
421.096	458.17
421.468	394.34
421.839	422.42
422.211	391.78
422.582	407.1
422.953	345.82
423.325	361.14
423.696	409.66
424.067	430.08
424.438	386.68
424.809	447.96
425.18	399.44
425.551	384.12
425.922	353.48
426.293	432.64
426.664	437.74
427.035	445.4
427.406	468.39
427.776	371.36
428.147	338.16
428.518	335.61
428.888	381.57
429.259	427.53
429.629	424.98
429.999	379.02
430.37	422.42
430.74	353.48
431.11	340.72
431.481	396.89
431.851	419.87
432.221	399.44
432.591	391.78
432.961	399.44
433.331	356.04
433.701	424.98
434.071	363.7
434.441	445.4
434.81	435.19
435.18	366.25
435.55	412.21
435.919	402
436.289	402
436.658	437.74
437.028	427.53
437.397	379.02
437.767	353.48
438.136	353.48
438.505	402
438.875	386.68
439.244	445.4
439.613	412.21
439.982	453.07
440.351	445.4
440.72	371.36
441.089	396.89
441.458	399.44
441.827	348.38
442.196	391.78
442.564	465.83
442.933	396.89
443.302	414.76
443.67	470.94
444.039	430.08
444.407	402
444.776	402
445.144	473.49
445.513	373.91
445.881	363.7
446.249	363.7
446.617	435.19
446.986	476.05
447.354	447.96
447.722	417.32
448.09	432.64
448.458	407.1
448.826	376.46
449.194	442.85
449.561	402
449.929	373.91
450.297	391.78
450.665	381.57
451.032	440.3
451.4	409.66
451.767	361.14
452.135	358.59
452.502	470.94
452.87	445.4
453.237	373.91
453.604	389.23
453.971	481.15
454.339	440.3
454.706	427.53
455.073	407.1
455.44	424.98
455.807	404.55
456.174	419.87
456.541	386.68
456.908	417.32
457.274	458.17
457.641	402
458.008	363.7
458.374	417.32
458.741	427.53
459.108	412.21
459.474	424.98
459.841	396.89
460.207	407.1
460.573	325.4
460.94	409.66
461.306	422.42
461.672	376.46
462.038	371.36
462.404	340.72
462.771	379.02
463.137	368.8
463.503	361.14
463.868	445.4
464.234	430.08
464.6	414.76
464.966	343.27
465.332	430.08
465.697	442.85
466.063	373.91
466.429	427.53
466.794	432.64
467.16	430.08
467.525	414.76
467.89	468.39
468.256	473.49
468.621	384.12
468.986	358.59
469.351	412.21
469.717	407.1
470.082	435.19
470.447	407.1
470.812	470.94
471.177	373.91
471.542	407.1
471.906	453.07
472.271	407.1
472.636	440.3
473.001	458.17
473.365	447.96
473.73	399.44
474.094	447.96
474.459	389.23
474.823	417.32
475.188	402
475.552	404.55
475.917	463.28
476.281	486.26
476.645	458.17
477.009	470.94
477.373	386.68
477.737	424.98
478.101	432.64
478.465	361.14
478.829	399.44
479.193	376.46
479.557	468.39
479.921	384.12
480.284	373.91
480.648	379.02
481.012	473.49
481.375	417.32
481.739	417.32
482.102	396.89
482.466	379.02
482.829	399.44
483.193	432.64
483.556	442.85
483.919	442.85
484.282	440.3
484.645	445.4
485.009	445.4
485.372	363.7
485.735	373.91
486.098	404.55
486.46	412.21
486.823	402
487.186	381.57
487.549	422.42
487.912	402
488.274	404.55
488.637	389.23
488.999	419.87
489.362	333.06
489.724	450.51
490.087	412.21
490.449	338.16
490.811	419.87
491.174	422.42
491.536	373.91
491.898	404.55
492.26	384.12
492.622	379.02
492.984	419.87
493.346	361.14
493.708	427.53
494.07	417.32
494.432	440.3
494.794	419.87
495.155	399.44
495.517	468.39
495.879	407.1
496.24	440.3
496.602	424.98
496.963	465.83
497.325	478.6
497.686	468.39
498.048	404.55
498.409	442.85
498.77	417.32
499.131	376.46
499.492	391.78
499.854	432.64
500.215	399.44
500.576	391.78
500.937	371.36
501.298	419.87
501.658	399.44
502.019	470.94
502.38	435.19
502.741	338.16
503.101	450.51
503.462	419.87
503.823	368.8
504.183	396.89
504.543	445.4
504.904	384.12
505.264	491.37
505.625	424.98
505.985	417.32
506.345	381.57
506.705	396.89
507.065	424.98
507.426	407.1
507.786	402
508.146	399.44
508.505	417.32
508.865	427.53
509.225	396.89
509.585	445.4
509.945	476.05
510.304	422.42
510.664	458.17
511.024	396.89
511.383	381.57
511.743	458.17
512.102	409.66
512.462	463.28
512.821	340.72
513.18	389.23
513.539	458.17
513.899	414.76
514.258	424.98
514.617	373.91
514.976	414.76
515.335	422.42
515.694	473.49
516.053	381.57
516.412	366.25
516.771	432.64
517.129	379.02
517.488	333.06
517.847	414.76
518.205	453.07
518.564	435.19
518.922	486.26
519.281	468.39
519.639	376.46
519.998	419.87
520.356	437.74
520.714	412.21
521.073	437.74
521.431	463.28
521.789	419.87
522.147	381.57
522.505	435.19
522.863	356.04
523.221	389.23
523.579	379.02
523.937	368.8
524.295	453.07
524.652	447.96
525.01	435.19
525.368	516.9
525.725	379.02
526.083	455.62
526.44	376.46
526.798	427.53
527.155	422.42
527.513	424.98
527.87	402
528.227	386.68
528.584	412.21
528.942	450.51
529.299	442.85
529.656	414.76
530.013	432.64
530.37	450.51
530.727	440.3
531.083	455.62
531.44	412.21
531.797	399.44
532.154	435.19
532.511	419.87
532.867	453.07
533.224	399.44
533.58	450.51
533.937	447.96
534.293	465.83
534.65	491.37
535.006	409.66
535.362	404.55
535.718	371.36
536.075	412.21
536.431	440.3
536.787	424.98
537.143	402
537.499	430.08
537.855	353.48
538.211	414.76
538.567	442.85
538.923	440.3
539.278	476.05
539.634	447.96
539.99	499.03
540.345	424.98
540.701	404.55
541.056	483.71
541.412	417.32
541.767	442.85
542.123	453.07
542.478	376.46
542.833	399.44
543.188	407.1
543.544	414.76
543.899	465.83
544.254	504.13
544.609	450.51
544.964	458.17
545.319	396.89
545.674	499.03
546.029	440.3
546.383	455.62
546.738	422.42
547.093	488.81
547.447	473.49
547.802	419.87
548.157	417.32
548.511	424.98
548.866	391.78
549.22	424.98
549.574	399.44
549.929	437.74
550.283	356.04
550.637	394.34
550.991	402
551.345	424.98
551.699	504.13
552.053	412.21
552.407	442.85
552.761	384.12
553.115	381.57
553.469	450.51
553.823	430.08
554.176	455.62
554.53	391.78
554.884	368.8
555.237	613.93
555.591	404.55
555.944	417.32
556.298	379.02
556.651	465.83
557.005	373.91
557.358	381.57
557.711	381.57
558.064	394.34
558.417	412.21
558.771	453.07
559.124	435.19
559.477	389.23
559.83	437.74
560.182	501.58
560.535	450.51
560.888	437.74
561.241	455.62
561.594	432.64
561.946	460.73
562.299	353.48
562.651	356.04
563.004	493.92
563.356	409.66
563.709	419.87
564.061	407.1
564.413	396.89
564.766	373.91
565.118	363.7
565.47	399.44
565.822	407.1
566.174	386.68
566.526	386.68
566.878	396.89
567.23	404.55
567.582	463.28
567.934	483.71
568.286	468.39
568.638	407.1
568.989	340.72
569.341	424.98
569.693	430.08
570.044	366.25
570.396	391.78
570.747	373.91
571.098	432.64
571.45	399.44
571.801	391.78
572.152	419.87
572.504	432.64
572.855	455.62
573.206	358.59
573.557	435.19
573.908	384.12
574.259	501.58
574.61	458.17
574.961	281.99
575.311	473.49
575.662	422.42
576.013	445.4
576.364	442.85
576.714	427.53
577.065	424.98
577.415	389.23
577.766	453.07
578.116	409.66
578.467	381.57
578.817	361.14
579.167	445.4
579.518	481.15
579.868	435.19
580.218	384.12
580.568	440.3
580.918	396.89
581.268	399.44
581.618	499.03
581.968	396.89
582.318	404.55
582.668	376.46
583.017	404.55
583.367	422.42
583.717	396.89
584.066	417.32
584.416	412.21
584.765	427.53
585.115	435.19
585.464	432.64
585.814	422.42
586.163	394.34
586.512	427.53
586.862	391.78
587.211	394.34
587.56	440.3
587.909	468.39
588.258	447.96
588.607	424.98
588.956	402
589.305	430.08
589.654	417.32
590.002	402
590.351	417.32
590.7	404.55
591.048	389.23
591.397	478.6
591.746	435.19
592.094	376.46
592.443	386.68
592.791	394.34
593.139	376.46
593.488	381.57
593.836	458.17
594.184	391.78
594.532	356.04
594.88	427.53
595.228	348.38
595.576	381.57
595.924	404.55
596.272	432.64
596.62	402
596.968	409.66
597.316	373.91
597.664	396.89
598.011	399.44
598.359	394.34
598.706	373.91
599.054	356.04
599.402	325.4
599.749	399.44
600.096	396.89
600.444	386.68
600.791	417.32
601.138	361.14
601.485	333.06
601.833	391.78
602.18	422.42
602.527	437.74
602.874	424.98
603.221	442.85
603.568	312.63
603.914	455.62
604.261	427.53
604.608	442.85
604.955	450.51
605.301	391.78
605.648	386.68
605.995	458.17
606.341	465.83
606.688	440.3
607.034	424.98
607.38	442.85
607.727	407.1
608.073	478.6
608.419	430.08
608.765	381.57
609.112	435.19
609.458	402
609.804	376.46
610.15	414.76
610.496	501.58
610.842	417.32
611.187	435.19
611.533	417.32
611.879	381.57
612.225	368.8
612.57	453.07
612.916	422.42
613.261	412.21
613.607	399.44
613.952	327.95
614.298	368.8
614.643	424.98
614.989	379.02
615.334	419.87
615.679	465.83
616.024	384.12
616.369	391.78
616.714	394.34
617.059	373.91
617.404	442.85
617.749	427.53
618.094	414.76
618.439	407.1
618.784	407.1
619.129	440.3
619.473	412.21
619.818	412.21
620.163	391.78
620.507	345.82
620.852	373.91
621.196	404.55
621.54	373.91
621.885	435.19
622.229	402
622.573	417.32
622.918	376.46
623.262	376.46
623.606	402
623.95	414.76
624.294	458.17
624.638	427.53
624.982	407.1
625.326	404.55
625.67	417.32
626.013	422.42
626.357	499.03
626.701	432.64
627.044	422.42
627.388	432.64
627.731	363.7
628.075	371.36
628.418	481.15
628.762	399.44
629.105	414.76
629.448	407.1
629.792	368.8
630.135	373.91
630.478	476.05
630.821	432.64
631.164	402
631.507	424.98
631.85	437.74
632.193	483.71
632.536	424.98
632.879	414.76
633.221	417.32
633.564	463.28
633.907	394.34
634.249	442.85
634.592	437.74
634.935	412.21
635.277	409.66
635.619	407.1
635.962	373.91
636.304	371.36
636.646	430.08
636.989	348.38
637.331	407.1
637.673	437.74
638.015	414.76
638.357	292.2
638.699	419.87
639.041	468.39
639.383	422.42
639.725	396.89
640.067	437.74
640.408	414.76
640.75	422.42
641.092	399.44
641.433	386.68
641.775	371.36
642.116	361.14
642.458	409.66
642.799	424.98
643.141	417.32
643.482	389.23
643.823	363.7
644.164	419.87
644.506	473.49
644.847	422.42
645.188	389.23
645.529	432.64
645.87	404.55
646.211	430.08
646.552	445.4
646.893	440.3
647.233	399.44
647.574	315.18
647.915	460.73
648.255	412.21
648.596	419.87
648.937	424.98
649.277	396.89
649.618	465.83
649.958	389.23
650.298	389.23
650.639	432.64
650.979	437.74
651.319	437.74
651.659	389.23
651.999	424.98
652.339	419.87
652.679	376.46
653.019	396.89
653.359	368.8
653.699	417.32
654.039	409.66
654.379	391.78
654.719	427.53
655.058	394.34
655.398	386.68
655.737	486.26
656.077	491.37
656.416	381.57
656.756	371.36
657.095	422.42
657.435	402
657.774	348.38
658.113	368.8
658.452	379.02
658.792	419.87
659.131	373.91
659.47	445.4
659.809	389.23
660.148	419.87
660.487	424.98
660.826	356.04
661.164	376.46
661.503	368.8
661.842	363.7
662.181	396.89
662.519	402
662.858	432.64
663.196	373.91
663.535	391.78
663.873	432.64
664.212	379.02
664.55	445.4
664.888	427.53
665.226	414.76
665.565	363.7
665.903	557.75
666.241	468.39
666.579	412.21
666.917	350.93
667.255	417.32
667.593	442.85
667.931	396.89
668.268	430.08
668.606	379.02
668.944	361.14
669.282	322.84
669.619	427.53
669.957	373.91
670.294	399.44
670.632	384.12
670.969	356.04
671.307	468.39
671.644	432.64
671.981	450.51
672.318	453.07
672.656	402
672.993	427.53
673.33	394.34
673.667	414.76
674.004	440.3
674.341	389.23
674.678	335.61
675.015	447.96
675.351	504.13
675.688	419.87
676.025	424.98
676.362	412.21
676.698	442.85
677.035	430.08
677.371	389.23
677.708	453.07
678.044	363.7
678.38	343.27
678.717	389.23
679.053	379.02
679.389	389.23
679.725	402
680.062	396.89
680.398	399.44
680.734	389.23
681.07	399.44
681.406	419.87
681.742	340.72
682.077	414.76
682.413	419.87
682.749	373.91
683.085	450.51
683.42	302.42
683.756	366.25
684.091	404.55
684.427	361.14
684.762	384.12
685.098	345.82
685.433	310.08
685.768	391.78
686.104	414.76
686.439	391.78
686.774	350.93
687.109	394.34
687.444	379.02
687.779	356.04
688.114	404.55
688.449	368.8
688.784	345.82
689.119	312.63
689.454	381.57
689.789	376.46
690.123	419.87
690.458	350.93
690.792	412.21
691.127	445.4
691.461	432.64
691.796	419.87
692.13	384.12
692.465	363.7
692.799	396.89
693.133	419.87
693.467	343.27
693.802	488.81
694.136	376.46
694.47	407.1
694.804	414.76
695.138	442.85
695.472	386.68
695.806	386.68
696.139	396.89
696.473	356.04
696.807	353.48
697.141	356.04
697.474	442.85
697.808	437.74
698.141	432.64
698.475	371.36
698.808	366.25
699.142	414.76
699.475	386.68
699.808	379.02
700.142	307.52
700.475	432.64
700.808	396.89
701.141	376.46
701.474	430.08
701.807	404.55
702.14	322.84
702.473	381.57
702.806	437.74
703.139	394.34
703.472	422.42
703.804	437.74
704.137	404.55
704.47	407.1
704.802	381.57
705.135	353.48
705.467	371.36
705.8	376.46
706.132	458.17
706.464	419.87
706.797	412.21
707.129	481.15
707.461	453.07
707.793	432.64
708.125	379.02
708.457	389.23
708.789	363.7
709.121	445.4
709.453	435.19
709.785	414.76
710.117	384.12
710.449	427.53
710.781	376.46
711.112	356.04
711.444	345.82
711.775	442.85
712.107	432.64
712.438	356.04
712.77	402
713.101	453.07
713.433	373.91
713.764	414.76
714.095	391.78
714.426	358.59
714.757	353.48
715.089	396.89
715.42	356.04
715.751	384.12
716.082	338.16
716.412	361.14
716.743	412.21
717.074	366.25
717.405	386.68
717.736	394.34
718.066	394.34
718.397	394.34
718.727	356.04
719.058	371.36
719.388	310.08
719.719	325.4
720.049	447.96
720.38	386.68
720.71	384.12
721.04	409.66
721.37	396.89
721.7	361.14
722.031	376.46
722.361	371.36
722.691	368.8
723.021	396.89
723.35	379.02
723.68	391.78
724.01	287.1
724.34	399.44
724.67	381.57
724.999	389.23
725.329	404.55
725.658	373.91
725.988	343.27
726.317	419.87
726.647	419.87
726.976	396.89
727.306	330.5
727.635	442.85
727.964	312.63
728.293	348.38
728.622	427.53
728.952	389.23
729.281	348.38
729.61	422.42
729.939	445.4
730.267	417.32
730.596	353.48
730.925	394.34
731.254	389.23
731.583	417.32
731.911	437.74
732.24	386.68
732.568	391.78
732.897	379.02
733.225	381.57
733.554	391.78
733.882	402
734.21	384.12
734.539	445.4
734.867	363.7
735.195	394.34
735.523	404.55
735.851	371.36
736.179	350.93
736.507	427.53
736.835	412.21
737.163	402
737.491	440.3
737.819	317.74
738.147	417.32
738.474	389.23
738.802	435.19
739.13	353.48
739.457	389.23
739.785	391.78
740.112	348.38
740.44	402
740.767	417.32
741.094	414.76
741.422	430.08
741.749	409.66
742.076	358.59
742.403	468.39
742.73	478.6
743.057	491.37
743.384	399.44
743.711	343.27
744.038	335.61
744.365	376.46
744.692	358.59
745.018	312.63
745.345	422.42
745.672	427.53
745.998	442.85
746.325	445.4
746.651	396.89
746.978	348.38
747.304	330.5
747.631	343.27
747.957	381.57
748.283	381.57
748.61	394.34
748.936	399.44
749.262	330.5
749.588	389.23
749.914	379.02
750.24	386.68
750.566	419.87
750.892	445.4
751.218	440.3
751.543	399.44
751.869	391.78
752.195	363.7
752.521	371.36
752.846	389.23
753.172	368.8
753.497	379.02
753.823	407.1
754.148	414.76
754.473	379.02
754.799	363.7
755.124	373.91
755.449	294.76
755.774	345.82
756.1	404.55
756.425	386.68
756.75	320.29
757.075	366.25
757.4	402
757.724	437.74
758.049	402
758.374	440.3
758.699	386.68
759.024	379.02
759.348	381.57
759.673	384.12
759.997	384.12
760.322	432.64
760.646	333.06
760.971	368.8
761.295	432.64
761.619	468.39
761.944	424.98
762.268	468.39
762.592	399.44
762.916	435.19
763.24	407.1
763.564	345.82
763.888	371.36
764.212	363.7
764.536	371.36
764.86	391.78
765.184	402
765.508	343.27
765.831	376.46
766.155	629.25
766.478	465.83
766.802	394.34
767.126	442.85
767.449	376.46
767.772	396.89
768.096	371.36
768.419	396.89
768.742	363.7
769.066	412.21
769.389	402
769.712	358.59
770.035	386.68
770.358	386.68
770.681	389.23
771.004	379.02
771.327	404.55
771.65	432.64
771.972	376.46
772.295	389.23
772.618	409.66
772.941	442.85
773.263	460.73
773.586	427.53
773.908	404.55
774.231	450.51
774.553	343.27
774.875	312.63
775.198	396.89
775.52	335.61
775.842	373.91
776.164	407.1
776.487	350.93
776.809	391.78
777.131	402
777.453	391.78
777.775	356.04
778.096	379.02
778.418	363.7
778.74	363.7
779.062	399.44
779.384	412.21
779.705	343.27
780.027	473.49
780.348	427.53
780.67	450.51
780.991	399.44
781.313	417.32
781.634	353.48
781.955	396.89
782.277	348.38
782.598	363.7
782.919	396.89
783.24	366.25
783.561	402
783.882	389.23
784.203	371.36
784.524	427.53
784.845	350.93
785.166	414.76
785.487	409.66
785.807	363.7
786.128	356.04
786.449	399.44
786.769	396.89
787.09	333.06
787.41	361.14
787.731	371.36
788.051	435.19
788.372	407.1
788.692	412.21
789.012	419.87
789.332	450.51
789.653	396.89
789.973	468.39
790.293	317.74
790.613	399.44
790.933	389.23
791.253	391.78
791.573	402
791.893	384.12
792.212	409.66
792.532	399.44
792.852	348.38
793.171	384.12
793.491	417.32
793.811	394.34
794.13	404.55
794.45	384.12
794.769	391.78
795.088	356.04
795.408	432.64
795.727	488.81
796.046	483.71
796.365	419.87
796.684	442.85
797.004	327.95
797.323	447.96
797.642	409.66
797.96	399.44
798.279	384.12
798.598	384.12
798.917	381.57
799.236	363.7
799.554	343.27
799.873	391.78
800.192	422.42
800.51	430.08
800.829	432.64
801.147	356.04
801.466	435.19
801.784	368.8
802.102	445.4
802.421	440.3
802.739	371.36
803.057	391.78
803.375	424.98
803.693	371.36
804.011	455.62
804.329	307.52
804.647	394.34
804.965	376.46
