Data from 2025-11-25_spectrum_w_ND_FLMS141361__5__15-33-08-849.txt Node

Date: Tue Nov 25 15:33:08 MST 2025
User: james
Spectrometer: FLMS14136
Trigger mode: 0
Integration Time (sec): 1.000000E-1
Scans to average: 1
Electric dark correction enabled: true
Nonlinearity correction enabled: false
Boxcar width: 0
XAxis mode: Wavelengths
Number of Pixels in Spectrum: 2048
>>>>>Begin Spectral Data<<<<<
339.315	-81.55
339.697	-81.55
340.079	-81.55
340.461	-142.83
340.843	-84.1
341.225	-81.55
341.607	-84.1
341.989	-158.15
342.371	-107.08
342.752	-94.32
343.134	-66.23
343.516	-53.46
343.897	7.82
344.279	43.57
344.661	7.82
345.042	7.82
345.423	104.85
345.805	74.21
346.186	117.61
346.567	109.95
346.949	171.24
347.33	153.36
347.711	168.68
348.092	217.2
348.473	268.26
348.854	252.94
349.235	270.82
349.616	314.23
349.997	265.71
350.378	342.31
350.758	339.76
351.139	344.87
351.52	293.8
351.9	352.53
352.281	334.65
352.661	418.91
353.042	406.15
353.422	293.8
353.803	395.93
354.183	421.47
354.563	403.59
354.943	390.83
355.324	329.55
355.704	360.19
356.084	383.17
356.464	401.04
356.844	372.95
357.224	393.38
357.603	367.85
357.983	380.61
358.363	449.55
358.743	426.57
359.122	452.11
359.502	378.06
359.882	383.17
360.261	378.06
360.641	426.57
361.02	347.42
361.399	362.74
361.779	334.65
362.158	388.27
362.537	441.89
362.916	372.95
363.296	329.55
363.675	344.87
364.054	326.99
364.433	388.27
364.812	344.87
365.19	296.35
365.569	334.65
365.948	260.6
366.327	306.56
366.705	401.04
367.084	367.85
367.463	395.93
367.841	344.87
368.22	352.53
368.598	352.53
368.977	306.56
369.355	370.4
369.733	370.4
370.111	344.87
370.49	375.51
370.868	326.99
371.246	321.89
371.624	393.38
372.002	390.83
372.38	349.97
372.758	321.89
373.136	375.51
373.513	334.65
373.891	388.27
374.269	342.31
374.646	406.15
375.024	401.04
375.402	329.55
375.779	367.85
376.157	329.55
376.534	390.83
376.911	393.38
377.289	337.21
377.666	316.78
378.043	347.42
378.42	337.21
378.797	339.76
379.175	454.66
379.552	383.17
379.929	383.17
380.305	342.31
380.682	388.27
381.059	375.51
381.436	360.19
381.813	380.61
382.189	411.25
382.566	332.1
382.943	344.87
383.319	342.31
383.696	347.42
384.072	367.85
384.448	395.93
384.825	375.51
385.201	360.19
385.577	383.17
385.953	342.31
386.329	370.4
386.706	324.44
387.082	342.31
387.458	380.61
387.834	349.97
388.209	367.85
388.585	375.51
388.961	390.83
389.337	383.17
389.713	388.27
390.088	342.31
390.464	401.04
390.839	357.63
391.215	390.83
391.59	408.7
391.966	268.26
392.341	378.06
392.716	291.24
393.092	326.99
393.467	362.74
393.842	413.81
394.217	372.95
394.592	416.36
394.967	383.17
395.342	375.51
395.717	385.72
396.092	380.61
396.467	339.76
396.841	360.19
397.216	416.36
397.591	380.61
397.965	418.91
398.34	398.49
398.714	408.7
399.089	365.29
399.463	337.21
399.838	352.53
400.212	362.74
400.586	393.38
400.961	370.4
401.335	332.1
401.709	421.47
402.083	426.57
402.457	360.19
402.831	413.81
403.205	344.87
403.579	372.95
403.953	436.79
404.326	418.91
404.7	431.68
405.074	370.4
405.447	380.61
405.821	385.72
406.195	403.59
406.568	398.49
406.942	424.02
407.315	398.49
407.688	375.51
408.062	421.47
408.435	352.53
408.808	431.68
409.181	388.27
409.554	385.72
409.927	449.55
410.3	513.39
410.673	306.56
411.046	398.49
411.419	355.08
411.792	347.42
412.165	362.74
412.537	490.41
412.91	418.91
413.283	339.76
413.655	291.24
414.028	309.12
414.4	347.42
414.773	362.74
415.145	352.53
415.517	401.04
415.889	367.85
416.262	378.06
416.634	401.04
417.006	390.83
417.378	352.53
417.75	342.31
418.122	372.95
418.494	383.17
418.866	347.42
419.238	385.72
419.609	339.76
419.981	385.72
420.353	390.83
420.725	326.99
421.096	385.72
421.468	398.49
421.839	431.68
422.211	362.74
422.582	372.95
422.953	395.93
423.325	367.85
423.696	362.74
424.067	349.97
424.438	390.83
424.809	416.36
425.18	321.89
425.551	401.04
425.922	398.49
426.293	357.63
426.664	375.51
427.035	390.83
427.406	413.81
427.776	398.49
428.147	398.49
428.518	390.83
428.888	454.66
429.259	385.72
429.629	362.74
429.999	424.02
430.37	383.17
430.74	390.83
431.11	380.61
431.481	431.68
431.851	375.51
432.221	462.32
432.591	342.31
432.961	352.53
433.331	378.06
433.701	426.57
434.071	418.91
434.441	441.89
434.81	431.68
435.18	383.17
435.55	380.61
435.919	367.85
436.289	342.31
436.658	378.06
437.028	401.04
437.397	398.49
437.767	418.91
438.136	395.93
438.505	444.45
438.875	296.35
439.244	439.34
439.613	398.49
439.982	401.04
440.351	416.36
440.72	398.49
441.089	372.95
441.458	424.02
441.827	372.95
442.196	380.61
442.564	485.3
442.933	452.11
443.302	421.47
443.67	416.36
444.039	413.81
444.407	375.51
444.776	444.45
445.144	434.23
445.513	390.83
445.881	426.57
446.249	390.83
446.617	370.4
446.986	385.72
447.354	398.49
447.722	380.61
448.09	444.45
448.458	357.63
448.826	416.36
449.194	367.85
449.561	403.59
449.929	462.32
450.297	408.7
450.665	416.36
451.032	418.91
451.4	334.65
451.767	424.02
452.135	367.85
452.502	431.68
452.87	424.02
453.237	416.36
453.604	401.04
453.971	393.38
454.339	398.49
454.706	406.15
455.073	324.44
455.44	413.81
455.807	447
456.174	393.38
456.541	416.36
456.908	390.83
457.274	431.68
457.641	401.04
458.008	441.89
458.374	436.79
458.741	434.23
459.108	424.02
459.474	398.49
459.841	403.59
460.207	447
460.573	411.25
460.94	436.79
461.306	418.91
461.672	406.15
462.038	395.93
462.404	408.7
462.771	462.32
463.137	495.51
463.503	421.47
463.868	436.79
464.234	403.59
464.6	393.38
464.966	401.04
465.332	398.49
465.697	390.83
466.063	365.29
466.429	411.25
466.794	439.34
467.16	480.19
467.525	378.06
467.89	447
468.256	464.87
468.621	413.81
468.986	454.66
469.351	388.27
469.717	421.47
470.082	395.93
470.447	385.72
470.812	431.68
471.177	434.23
471.542	434.23
471.906	492.96
472.271	385.72
472.636	418.91
473.001	401.04
473.365	441.89
473.73	408.7
474.094	441.89
474.459	434.23
474.823	372.95
475.188	378.06
475.552	352.53
475.917	398.49
476.281	390.83
476.645	441.89
477.009	464.87
477.373	401.04
477.737	388.27
478.101	393.38
478.465	418.91
478.829	477.64
479.193	454.66
479.557	424.02
479.921	447
480.284	413.81
480.648	370.4
481.012	385.72
481.375	401.04
481.739	436.79
482.102	487.85
482.466	449.55
482.829	421.47
483.193	464.87
483.556	406.15
483.919	411.25
484.282	464.87
484.645	469.98
485.009	482.75
485.372	447
485.735	413.81
486.098	334.65
486.46	403.59
486.823	388.27
487.186	436.79
487.549	441.89
487.912	385.72
488.274	426.57
488.637	429.13
488.999	436.79
489.362	357.63
489.724	431.68
490.087	447
490.449	403.59
490.811	472.53
491.174	403.59
491.536	449.55
491.898	375.51
492.26	406.15
492.622	367.85
492.984	436.79
493.346	424.02
493.708	401.04
494.07	390.83
494.432	393.38
494.794	401.04
495.155	395.93
495.517	347.42
495.879	449.55
496.24	487.85
496.602	383.17
496.963	467.43
497.325	439.34
497.686	413.81
498.048	365.29
498.409	441.89
498.77	426.57
499.131	444.45
499.492	380.61
499.854	421.47
500.215	393.38
500.576	477.64
500.937	355.08
501.298	413.81
501.658	383.17
502.019	390.83
502.38	436.79
502.741	365.29
503.101	431.68
503.462	462.32
503.823	403.59
504.183	436.79
504.543	390.83
504.904	429.13
505.264	429.13
505.625	416.36
505.985	426.57
506.345	372.95
506.705	393.38
507.065	352.53
507.426	344.87
507.786	360.19
508.146	395.93
508.505	421.47
508.865	401.04
509.225	426.57
509.585	526.16
509.945	503.18
510.304	454.66
510.664	424.02
511.024	365.29
511.383	452.11
511.743	372.95
512.102	421.47
512.462	385.72
512.821	441.89
513.18	439.34
513.539	441.89
513.899	408.7
514.258	401.04
514.617	424.02
514.976	403.59
515.335	383.17
515.694	439.34
516.053	393.38
516.412	411.25
516.771	395.93
517.129	426.57
517.488	418.91
517.847	487.85
518.205	393.38
518.564	314.23
518.922	513.39
519.281	398.49
519.639	395.93
519.998	411.25
520.356	401.04
520.714	418.91
521.073	372.95
521.431	360.19
521.789	424.02
522.147	413.81
522.505	439.34
522.863	401.04
523.221	378.06
523.579	380.61
523.937	365.29
524.295	490.41
524.652	449.55
525.01	372.95
525.368	372.95
525.725	426.57
526.083	424.02
526.44	429.13
526.798	421.47
527.155	482.75
527.513	487.85
527.87	406.15
528.227	464.87
528.584	449.55
528.942	398.49
529.299	344.87
529.656	329.55
530.013	395.93
530.37	424.02
530.727	418.91
531.083	482.75
531.44	454.66
531.797	431.68
532.154	416.36
532.511	403.59
532.867	434.23
533.224	472.53
533.58	449.55
533.937	426.57
534.293	431.68
534.65	401.04
535.006	469.98
535.362	378.06
535.718	421.47
536.075	459.77
536.431	439.34
536.787	439.34
537.143	393.38
537.499	403.59
537.855	459.77
538.211	444.45
538.567	475.09
538.923	533.82
539.278	457.21
539.634	454.66
539.99	523.6
540.345	477.64
540.701	459.77
541.056	380.61
541.412	421.47
541.767	434.23
542.123	436.79
542.478	454.66
542.833	398.49
543.188	444.45
543.544	416.36
543.899	416.36
544.254	406.15
544.609	413.81
544.964	441.89
545.319	380.61
545.674	365.29
546.029	416.36
546.383	436.79
546.738	413.81
547.093	413.81
547.447	406.15
547.802	395.93
548.157	416.36
548.511	349.97
548.866	395.93
549.22	390.83
549.574	431.68
549.929	390.83
550.283	500.62
550.637	421.47
550.991	372.95
551.345	393.38
551.699	367.85
552.053	352.53
552.407	454.66
552.761	411.25
553.115	390.83
553.469	434.23
553.823	421.47
554.176	411.25
554.53	485.3
554.884	362.74
555.237	518.5
555.591	383.17
555.944	372.95
556.298	401.04
556.651	477.64
557.005	452.11
557.358	365.29
557.711	339.76
558.064	393.38
558.417	447
558.771	561.9
559.124	462.32
559.477	413.81
559.83	385.72
560.182	324.44
560.535	424.02
560.888	367.85
561.241	498.07
561.594	487.85
561.946	426.57
562.299	447
562.651	449.55
563.004	370.4
563.356	334.65
563.709	395.93
564.061	401.04
564.413	444.45
564.766	459.77
565.118	370.4
565.47	431.68
565.822	296.35
566.174	375.51
566.526	362.74
566.878	398.49
567.23	434.23
567.582	418.91
567.934	431.68
568.286	406.15
568.638	408.7
568.989	436.79
569.341	475.09
569.693	357.63
570.044	426.57
570.396	388.27
570.747	349.97
571.098	416.36
571.45	449.55
571.801	457.21
572.152	403.59
572.504	367.85
572.855	436.79
573.206	429.13
573.557	426.57
573.908	431.68
574.259	388.27
574.61	375.51
574.961	383.17
575.311	441.89
575.662	434.23
576.013	424.02
576.364	395.93
576.714	452.11
577.065	475.09
577.415	365.29
577.766	406.15
578.116	401.04
578.467	424.02
578.817	477.64
579.167	477.64
579.518	431.68
579.868	413.81
580.218	385.72
580.568	426.57
580.918	482.75
581.268	449.55
581.618	441.89
581.968	457.21
582.318	426.57
582.668	347.42
583.017	342.31
583.367	434.23
583.717	406.15
584.066	401.04
584.416	418.91
584.765	395.93
585.115	457.21
585.464	411.25
585.814	408.7
586.163	444.45
586.512	416.36
586.862	441.89
587.211	378.06
587.56	413.81
587.909	426.57
588.258	452.11
588.607	408.7
588.956	449.55
589.305	390.83
589.654	472.53
590.002	469.98
590.351	434.23
590.7	383.17
591.048	403.59
591.397	469.98
591.746	378.06
592.094	390.83
592.443	385.72
592.791	401.04
593.139	454.66
593.488	418.91
593.836	342.31
594.184	411.25
594.532	424.02
594.88	462.32
595.228	393.38
595.576	370.4
595.924	413.81
596.272	411.25
596.62	439.34
596.968	365.29
597.316	444.45
597.664	385.72
598.011	357.63
598.359	418.91
598.706	380.61
599.054	441.89
599.402	390.83
599.749	439.34
600.096	439.34
600.444	403.59
600.791	378.06
601.138	398.49
601.485	398.49
601.833	408.7
602.18	380.61
602.527	418.91
602.874	398.49
603.221	357.63
603.568	418.91
603.914	398.49
604.261	424.02
604.608	434.23
604.955	378.06
605.301	378.06
605.648	398.49
605.995	370.4
606.341	401.04
606.688	413.81
607.034	454.66
607.38	413.81
607.727	485.3
608.073	408.7
608.419	365.29
608.765	385.72
609.112	401.04
609.458	385.72
609.804	393.38
610.15	385.72
610.496	365.29
610.842	475.09
611.187	406.15
611.533	467.43
611.879	370.4
612.225	390.83
612.57	426.57
612.916	380.61
613.261	462.32
613.607	434.23
613.952	424.02
614.298	431.68
614.643	439.34
614.989	398.49
615.334	416.36
615.679	421.47
616.024	383.17
616.369	413.81
616.714	321.89
617.059	355.08
617.404	362.74
617.749	441.89
618.094	457.21
618.439	477.64
618.784	467.43
619.129	395.93
619.473	418.91
619.818	421.47
620.163	395.93
620.507	375.51
620.852	385.72
621.196	403.59
621.54	469.98
621.885	477.64
622.229	431.68
622.573	380.61
622.918	401.04
623.262	485.3
623.606	492.96
623.95	464.87
624.294	439.34
624.638	424.02
624.982	416.36
625.326	398.49
625.67	395.93
626.013	383.17
626.357	380.61
626.701	375.51
627.044	388.27
627.388	431.68
627.731	447
628.075	408.7
628.418	411.25
628.762	393.38
629.105	439.34
629.448	385.72
629.792	459.77
630.135	393.38
630.478	431.68
630.821	429.13
631.164	426.57
631.507	337.21
631.85	380.61
632.193	388.27
632.536	403.59
632.879	385.72
633.221	413.81
633.564	383.17
633.907	362.74
634.249	385.72
634.592	390.83
634.935	416.36
635.277	385.72
635.619	406.15
635.962	416.36
636.304	362.74
636.646	395.93
636.989	401.04
637.331	370.4
637.673	401.04
638.015	401.04
638.357	426.57
638.699	403.59
639.041	495.51
639.383	434.23
639.725	449.55
640.067	360.19
640.408	472.53
640.75	380.61
641.092	426.57
641.433	403.59
641.775	393.38
642.116	398.49
642.458	413.81
642.799	395.93
643.141	401.04
643.482	416.36
643.823	372.95
644.164	344.87
644.506	452.11
644.847	408.7
645.188	431.68
645.529	436.79
645.87	503.18
646.211	408.7
646.552	459.77
646.893	372.95
647.233	431.68
647.574	408.7
647.915	439.34
648.255	444.45
648.596	349.97
648.937	418.91
649.277	439.34
649.618	439.34
649.958	426.57
650.298	464.87
650.639	332.1
650.979	393.38
651.319	413.81
651.659	380.61
651.999	411.25
652.339	441.89
652.679	401.04
653.019	360.19
653.359	424.02
653.699	393.38
654.039	429.13
654.379	388.27
654.719	413.81
655.058	395.93
655.398	452.11
655.737	459.77
656.077	464.87
656.416	375.51
656.756	390.83
657.095	444.45
657.435	378.06
657.774	390.83
658.113	452.11
658.452	434.23
658.792	365.29
659.131	398.49
659.47	418.91
659.809	408.7
660.148	375.51
660.487	334.65
660.826	367.85
661.164	429.13
661.503	444.45
661.842	390.83
662.181	395.93
662.519	469.98
662.858	485.3
663.196	421.47
663.535	434.23
663.873	390.83
664.212	403.59
664.55	365.29
664.888	378.06
665.226	365.29
665.565	357.63
665.903	574.67
666.241	431.68
666.579	424.02
666.917	401.04
667.255	378.06
667.593	357.63
667.931	408.7
668.268	395.93
668.606	367.85
668.944	342.31
669.282	434.23
669.619	357.63
669.957	380.61
670.294	388.27
670.632	441.89
670.969	401.04
671.307	449.55
671.644	408.7
671.981	393.38
672.318	352.53
672.656	362.74
672.993	398.49
673.33	454.66
673.667	390.83
674.004	360.19
674.341	426.57
674.678	413.81
675.015	431.68
675.351	403.59
675.688	408.7
676.025	416.36
676.362	411.25
676.698	434.23
677.035	467.43
677.371	367.85
677.708	390.83
678.044	393.38
678.38	385.72
678.717	385.72
679.053	383.17
679.389	398.49
679.725	390.83
680.062	431.68
680.398	401.04
680.734	406.15
681.07	388.27
681.406	464.87
681.742	434.23
682.077	337.21
682.413	355.08
682.749	424.02
683.085	401.04
683.42	492.96
683.756	439.34
684.091	421.47
684.427	365.29
684.762	383.17
685.098	408.7
685.433	434.23
685.768	388.27
686.104	390.83
686.439	355.08
686.774	388.27
687.109	349.97
687.444	449.55
687.779	301.46
688.114	360.19
688.449	393.38
688.784	408.7
689.119	393.38
689.454	355.08
689.789	342.31
690.123	355.08
690.458	403.59
690.792	441.89
691.127	431.68
691.461	395.93
691.796	401.04
692.13	390.83
692.465	413.81
692.799	464.87
693.133	390.83
693.467	393.38
693.802	434.23
694.136	457.21
694.47	385.72
694.804	367.85
695.138	380.61
695.472	375.51
695.806	401.04
696.139	452.11
696.473	408.7
696.807	403.59
697.141	411.25
697.474	393.38
697.808	454.66
698.141	418.91
698.475	370.4
698.808	464.87
699.142	385.72
699.475	447
699.808	413.81
700.142	439.34
700.475	385.72
700.808	334.65
701.141	365.29
701.474	441.89
701.807	454.66
702.14	390.83
702.473	421.47
702.806	426.57
703.139	444.45
703.472	457.21
703.804	398.49
704.137	449.55
704.47	426.57
704.802	411.25
705.135	355.08
705.467	342.31
705.8	357.63
706.132	385.72
706.464	388.27
706.797	401.04
707.129	406.15
707.461	398.49
707.793	395.93
708.125	413.81
708.457	459.77
708.789	329.55
709.121	403.59
709.453	441.89
709.785	447
710.117	413.81
710.449	429.13
710.781	360.19
711.112	367.85
711.444	360.19
711.775	416.36
712.107	424.02
712.438	459.77
712.77	434.23
713.101	444.45
713.433	344.87
713.764	370.4
714.095	372.95
714.426	344.87
714.757	426.57
715.089	431.68
715.42	434.23
715.751	385.72
716.082	411.25
716.412	375.51
716.743	372.95
717.074	390.83
717.405	395.93
717.736	475.09
718.066	411.25
718.397	380.61
718.727	413.81
719.058	390.83
719.388	401.04
719.719	403.59
720.049	403.59
720.38	447
720.71	398.49
721.04	398.49
721.37	416.36
721.7	375.51
722.031	421.47
722.361	469.98
722.691	424.02
723.021	283.58
723.35	355.08
723.68	342.31
724.01	403.59
724.34	385.72
724.67	304.01
724.999	385.72
725.329	385.72
725.658	380.61
725.988	385.72
726.317	365.29
726.647	385.72
726.976	447
727.306	429.13
727.635	411.25
727.964	390.83
728.293	339.76
728.622	436.79
728.952	429.13
729.281	393.38
729.61	429.13
729.939	352.53
730.267	380.61
730.596	347.42
730.925	406.15
731.254	383.17
731.583	365.29
731.911	342.31
732.24	444.45
732.568	395.93
732.897	452.11
733.225	375.51
733.554	324.44
733.882	472.53
734.21	395.93
734.539	388.27
734.867	390.83
735.195	441.89
735.523	403.59
735.851	411.25
736.179	393.38
736.507	378.06
736.835	459.77
737.163	411.25
737.491	439.34
737.819	406.15
738.147	403.59
738.474	418.91
738.802	367.85
739.13	424.02
739.457	385.72
739.785	416.36
740.112	388.27
740.44	434.23
740.767	436.79
741.094	355.08
741.422	457.21
741.749	429.13
742.076	375.51
742.403	421.47
742.73	390.83
743.057	426.57
743.384	367.85
743.711	482.75
744.038	383.17
744.365	439.34
744.692	355.08
745.018	469.98
745.345	418.91
745.672	385.72
745.998	459.77
746.325	385.72
746.651	388.27
746.978	337.21
747.304	360.19
747.631	372.95
747.957	395.93
748.283	418.91
748.61	413.81
748.936	398.49
749.262	375.51
749.588	421.47
749.914	372.95
750.24	395.93
750.566	434.23
750.892	416.36
751.218	424.02
751.543	355.08
751.869	370.4
752.195	390.83
752.521	395.93
752.846	365.29
753.172	365.29
753.497	378.06
753.823	378.06
754.148	395.93
754.473	401.04
754.799	401.04
755.124	357.63
755.449	403.59
755.774	334.65
756.1	480.19
756.425	449.55
756.75	449.55
757.075	472.53
757.4	447
757.724	449.55
758.049	393.38
758.374	393.38
758.699	383.17
759.024	339.76
759.348	388.27
759.673	426.57
759.997	452.11
760.322	360.19
760.646	367.85
760.971	418.91
761.295	436.79
761.619	454.66
761.944	403.59
762.268	316.78
762.592	357.63
762.916	360.19
763.24	385.72
763.564	380.61
763.888	337.21
764.212	332.1
764.536	378.06
764.86	406.15
765.184	439.34
765.508	413.81
765.831	421.47
766.155	531.26
766.478	401.04
766.802	383.17
767.126	467.43
767.449	403.59
767.772	429.13
768.096	403.59
768.419	360.19
768.742	329.55
769.066	349.97
769.389	388.27
769.712	431.68
770.035	418.91
770.358	306.56
770.681	403.59
771.004	342.31
771.327	393.38
771.65	403.59
771.972	418.91
772.295	360.19
772.618	390.83
772.941	421.47
773.263	447
773.586	439.34
773.908	408.7
774.231	429.13
774.553	459.77
774.875	370.4
775.198	434.23
775.52	469.98
775.842	434.23
776.164	357.63
776.487	424.02
776.809	375.51
777.131	403.59
777.453	375.51
777.775	439.34
778.096	349.97
778.418	360.19
778.74	406.15
779.062	339.76
779.384	398.49
779.705	429.13
780.027	454.66
780.348	462.32
780.67	383.17
780.991	383.17
781.313	367.85
781.634	365.29
781.955	372.95
782.277	401.04
782.598	395.93
782.919	418.91
783.24	421.47
783.561	411.25
783.882	372.95
784.203	360.19
784.524	362.74
784.845	388.27
785.166	408.7
785.487	421.47
785.807	337.21
786.128	395.93
786.449	321.89
786.769	347.42
787.09	367.85
787.41	352.53
787.731	431.68
788.051	395.93
788.372	444.45
788.692	454.66
789.012	477.64
789.332	383.17
789.653	477.64
789.973	401.04
790.293	365.29
790.613	380.61
790.933	421.47
791.253	385.72
791.573	418.91
791.893	503.18
792.212	413.81
792.532	398.49
792.852	334.65
793.171	429.13
793.491	418.91
793.811	447
794.13	429.13
794.45	375.51
794.769	393.38
795.088	408.7
795.408	395.93
795.727	408.7
796.046	395.93
796.365	426.57
796.684	372.95
797.004	390.83
797.323	352.53
797.642	441.89
797.96	447
798.279	436.79
798.598	413.81
798.917	334.65
799.236	362.74
799.554	344.87
799.873	390.83
800.192	390.83
800.51	385.72
800.829	426.57
801.147	365.29
801.466	347.42
801.784	464.87
802.102	426.57
