Data from 2025-11-25_spectrum_w_ND_FLMS141361__1__15-21-52-448.txt Node

Date: Tue Nov 25 15:21:52 MST 2025
User: james
Spectrometer: FLMS14136
Trigger mode: 0
Integration Time (sec): 1.000000E-1
Scans to average: 1
Electric dark correction enabled: true
Nonlinearity correction enabled: false
Boxcar width: 0
XAxis mode: Wavelengths
Number of Pixels in Spectrum: 2048
>>>>>Begin Spectral Data<<<<<
339.315	-62.24
339.697	-62.24
340.079	-62.24
340.461	-87.77
340.843	-105.65
341.225	-95.43
341.607	-115.86
341.989	-172.03
342.371	-82.67
342.752	-34.15
343.134	-75.01
343.516	-49.47
343.897	-52.03
344.279	47.56
344.661	32.24
345.042	47.56
345.423	65.43
345.805	124.16
346.186	108.84
346.567	136.92
346.949	113.94
347.33	152.25
347.711	187.99
348.092	190.55
348.473	198.21
348.854	254.38
349.235	236.51
349.616	228.85
349.997	302.89
350.378	305.45
350.758	277.36
351.139	290.13
351.52	325.87
351.9	262.04
352.281	297.79
352.661	371.84
353.042	351.41
353.422	410.14
353.803	384.6
354.183	310.55
354.563	412.69
354.943	341.2
355.324	341.2
355.704	430.56
356.084	412.69
356.464	336.09
356.844	438.22
357.224	376.94
357.603	346.3
357.983	351.41
358.363	399.92
358.743	384.6
359.122	359.07
359.502	415.24
359.882	330.98
360.261	366.73
360.641	348.86
361.02	387.16
361.399	364.18
361.779	371.84
362.158	323.32
362.537	371.84
362.916	359.07
363.296	313.11
363.675	361.62
364.054	328.43
364.433	351.41
364.812	376.94
365.19	364.18
365.569	305.45
365.948	382.05
366.327	397.37
366.705	323.32
367.084	359.07
367.463	338.64
367.841	305.45
368.22	343.75
368.598	313.11
368.977	366.73
369.355	315.66
369.733	338.64
370.111	338.64
370.49	277.36
370.868	313.11
371.246	348.86
371.624	290.13
372.002	320.77
372.38	330.98
372.758	343.75
373.136	366.73
373.513	325.87
373.891	305.45
374.269	285.02
374.646	359.07
375.024	369.28
375.402	328.43
375.779	333.54
376.157	338.64
376.534	428.01
376.911	376.94
377.289	371.84
377.666	399.92
378.043	315.66
378.42	384.6
378.797	353.96
379.175	346.3
379.552	341.2
379.929	267.15
380.305	405.03
380.682	338.64
381.059	313.11
381.436	285.02
381.813	325.87
382.189	359.07
382.566	371.84
382.943	333.54
383.319	292.68
383.696	323.32
384.072	336.09
384.448	310.55
384.825	353.96
385.201	359.07
385.577	369.28
385.953	384.6
386.329	402.48
386.706	333.54
387.082	387.16
387.458	412.69
387.834	333.54
388.209	438.22
388.585	338.64
388.961	420.35
389.337	356.52
389.713	389.71
390.088	405.03
390.464	315.66
390.839	305.45
391.215	348.86
391.59	356.52
391.966	425.46
392.341	399.92
392.716	333.54
393.092	341.2
393.467	364.18
393.842	359.07
394.217	392.26
394.592	359.07
394.967	376.94
395.342	379.5
395.717	361.62
396.092	310.55
396.467	310.55
396.841	369.28
397.216	346.3
397.591	320.77
397.965	351.41
398.34	356.52
398.714	422.9
399.089	435.67
399.463	325.87
399.838	361.62
400.212	379.5
400.586	371.84
400.961	348.86
401.335	405.03
401.709	356.52
402.083	336.09
402.457	392.26
402.831	376.94
403.205	364.18
403.579	359.07
403.953	328.43
404.326	407.58
404.7	369.28
405.074	369.28
405.447	387.16
405.821	371.84
406.195	338.64
406.568	382.05
406.942	422.9
407.315	343.75
407.688	392.26
408.062	412.69
408.435	366.73
408.808	428.01
409.181	410.14
409.554	438.22
409.927	407.58
410.3	353.96
410.673	435.67
411.046	382.05
411.419	338.64
411.792	399.92
412.165	415.24
412.537	389.71
412.91	392.26
413.283	382.05
413.655	371.84
414.028	359.07
414.4	433.12
414.773	407.58
415.145	392.26
415.517	376.94
415.889	382.05
416.262	382.05
416.634	440.78
417.006	387.16
417.378	399.92
417.75	341.2
418.122	361.62
418.494	417.8
418.866	399.92
419.238	356.52
419.609	376.94
419.981	346.3
420.353	374.39
420.725	290.13
421.096	420.35
421.468	384.6
421.839	410.14
422.211	399.92
422.582	443.33
422.953	397.37
423.325	420.35
423.696	407.58
424.067	376.94
424.438	463.76
424.809	394.82
425.18	346.3
425.551	338.64
425.922	389.71
426.293	356.52
426.664	374.39
427.035	379.5
427.406	376.94
427.776	422.9
428.147	374.39
428.518	430.56
428.888	428.01
429.259	384.6
429.629	412.69
429.999	318.21
430.37	371.84
430.74	364.18
431.11	394.82
431.481	392.26
431.851	387.16
432.221	341.2
432.591	348.86
432.961	369.28
433.331	412.69
433.701	410.14
434.071	305.45
434.441	382.05
434.81	407.58
435.18	351.41
435.55	412.69
435.919	374.39
436.289	417.8
436.658	415.24
437.028	407.58
437.397	412.69
437.767	348.86
438.136	384.6
438.505	405.03
438.875	405.03
439.244	417.8
439.613	330.98
439.982	277.36
440.351	394.82
440.72	379.5
441.089	364.18
441.458	330.98
441.827	310.55
442.196	384.6
442.564	494.4
442.933	435.67
443.302	387.16
443.67	330.98
444.039	389.71
444.407	376.94
444.776	384.6
445.144	359.07
445.513	356.52
445.881	387.16
446.249	389.71
446.617	353.96
446.986	407.58
447.354	430.56
447.722	374.39
448.09	376.94
448.458	369.28
448.826	379.5
449.194	397.37
449.561	384.6
449.929	450.99
450.297	422.9
450.665	392.26
451.032	405.03
451.4	389.71
451.767	320.77
452.135	407.58
452.502	351.41
452.87	394.82
453.237	402.48
453.604	412.69
453.971	440.78
454.339	402.48
454.706	348.86
455.073	351.41
455.44	433.12
455.807	402.48
456.174	402.48
456.541	371.84
456.908	479.08
457.274	453.54
457.641	387.16
458.008	392.26
458.374	387.16
458.741	435.67
459.108	407.58
459.474	430.56
459.841	371.84
460.207	389.71
460.573	379.5
460.94	353.96
461.306	417.8
461.672	433.12
462.038	356.52
462.404	433.12
462.771	410.14
463.137	430.56
463.503	382.05
463.868	399.92
464.234	361.62
464.6	382.05
464.966	376.94
465.332	361.62
465.697	366.73
466.063	346.3
466.429	397.37
466.794	399.92
467.16	428.01
467.525	384.6
467.89	384.6
468.256	374.39
468.621	443.33
468.986	425.46
469.351	415.24
469.717	399.92
470.082	389.71
470.447	417.8
470.812	420.35
471.177	374.39
471.542	402.48
471.906	382.05
472.271	450.99
472.636	402.48
473.001	405.03
473.365	422.9
473.73	356.52
474.094	392.26
474.459	417.8
474.823	466.31
475.188	484.18
475.552	420.35
475.917	336.09
476.281	389.71
476.645	405.03
477.009	382.05
477.373	320.77
477.737	348.86
478.101	366.73
478.465	369.28
478.829	392.26
479.193	397.37
479.557	428.01
479.921	471.42
480.284	346.3
480.648	412.69
481.012	364.18
481.375	369.28
481.739	417.8
482.102	384.6
482.466	366.73
482.829	450.99
483.193	351.41
483.556	496.95
483.919	440.78
484.282	430.56
484.645	387.16
485.009	366.73
485.372	440.78
485.735	417.8
486.098	387.16
486.46	389.71
486.823	410.14
487.186	443.33
487.549	364.18
487.912	471.42
488.274	392.26
488.637	458.65
488.999	397.37
489.362	435.67
489.724	376.94
490.087	382.05
490.449	394.82
490.811	313.11
491.174	333.54
491.536	389.71
491.898	422.9
492.26	420.35
492.622	440.78
492.984	353.96
493.346	351.41
493.708	433.12
494.07	422.9
494.432	412.69
494.794	374.39
495.155	387.16
495.517	448.44
495.879	422.9
496.24	422.9
496.602	389.71
496.963	405.03
497.325	364.18
497.686	341.2
498.048	376.94
498.409	351.41
498.77	379.5
499.131	415.24
499.492	468.86
499.854	374.39
500.215	438.22
500.576	382.05
500.937	333.54
501.298	379.5
501.658	430.56
502.019	445.88
502.38	382.05
502.741	415.24
503.101	397.37
503.462	407.58
503.823	425.46
504.183	407.58
504.543	405.03
504.904	435.67
505.264	384.6
505.625	328.43
505.985	369.28
506.345	384.6
506.705	389.71
507.065	379.5
507.426	458.65
507.786	387.16
508.146	399.92
508.505	448.44
508.865	412.69
509.225	466.31
509.585	461.2
509.945	361.62
510.304	338.64
510.664	417.8
511.024	440.78
511.383	397.37
511.743	361.62
512.102	371.84
512.462	399.92
512.821	371.84
513.18	471.42
513.539	448.44
513.899	407.58
514.258	402.48
514.617	443.33
514.976	463.76
515.335	461.2
515.694	364.18
516.053	300.34
516.412	351.41
516.771	438.22
517.129	417.8
517.488	415.24
517.847	412.69
518.205	407.58
518.564	435.67
518.922	389.71
519.281	384.6
519.639	530.15
519.998	410.14
520.356	415.24
520.714	433.12
521.073	379.5
521.431	405.03
521.789	407.58
522.147	430.56
522.505	428.01
522.863	366.73
523.221	420.35
523.579	353.96
523.937	412.69
524.295	430.56
524.652	379.5
525.01	407.58
525.368	394.82
525.725	407.58
526.083	382.05
526.44	361.62
526.798	410.14
527.155	399.92
527.513	410.14
527.87	361.62
528.227	422.9
528.584	438.22
528.942	412.69
529.299	382.05
529.656	366.73
530.013	422.9
530.37	440.78
530.727	463.76
531.083	371.84
531.44	338.64
531.797	356.52
532.154	361.62
532.511	407.58
532.867	417.8
533.224	376.94
533.58	456.1
533.937	407.58
534.293	384.6
534.65	435.67
535.006	359.07
535.362	420.35
535.718	430.56
536.075	420.35
536.431	405.03
536.787	412.69
537.143	402.48
537.499	412.69
537.855	412.69
538.211	399.92
538.567	407.58
538.923	463.76
539.278	402.48
539.634	376.94
539.99	463.76
540.345	374.39
540.701	392.26
541.056	407.58
541.412	379.5
541.767	382.05
542.123	420.35
542.478	412.69
542.833	384.6
543.188	376.94
543.544	407.58
543.899	473.97
544.254	336.09
544.609	389.71
544.964	379.5
545.319	384.6
545.674	392.26
546.029	369.28
546.383	407.58
546.738	422.9
547.093	430.56
547.447	392.26
547.802	392.26
548.157	405.03
548.511	387.16
548.866	417.8
549.22	458.65
549.574	392.26
549.929	466.31
550.283	379.5
550.637	384.6
550.991	435.67
551.345	356.52
551.699	405.03
552.053	351.41
552.407	364.18
552.761	420.35
553.115	348.86
553.469	379.5
553.823	443.33
554.176	379.5
554.53	433.12
554.884	371.84
555.237	479.08
555.591	433.12
555.944	376.94
556.298	397.37
556.651	438.22
557.005	420.35
557.358	356.52
557.711	420.35
558.064	333.54
558.417	415.24
558.771	525.04
559.124	415.24
559.477	443.33
559.83	394.82
560.182	338.64
560.535	417.8
560.888	399.92
561.241	438.22
561.594	369.28
561.946	371.84
562.299	430.56
562.651	330.98
563.004	405.03
563.356	412.69
563.709	356.52
564.061	361.62
564.413	356.52
564.766	374.39
565.118	402.48
565.47	394.82
565.822	479.08
566.174	410.14
566.526	399.92
566.878	433.12
567.23	476.52
567.582	415.24
567.934	336.09
568.286	376.94
568.638	325.87
568.989	405.03
569.341	384.6
569.693	399.92
570.044	384.6
570.396	410.14
570.747	394.82
571.098	389.71
571.45	376.94
571.801	384.6
572.152	366.73
572.504	471.42
572.855	402.48
573.206	389.71
573.557	379.5
573.908	399.92
574.259	428.01
574.61	397.37
574.961	407.58
575.311	438.22
575.662	468.86
576.013	369.28
576.364	379.5
576.714	420.35
577.065	359.07
577.415	435.67
577.766	433.12
578.116	417.8
578.467	468.86
578.817	376.94
579.167	405.03
579.518	422.9
579.868	405.03
580.218	425.46
580.568	425.46
580.918	425.46
581.268	351.41
581.618	399.92
581.968	415.24
582.318	456.1
582.668	333.54
583.017	392.26
583.367	422.9
583.717	405.03
584.066	374.39
584.416	415.24
584.765	443.33
585.115	448.44
585.464	420.35
585.814	435.67
586.163	440.78
586.512	397.37
586.862	348.86
587.211	428.01
587.56	348.86
587.909	433.12
588.258	384.6
588.607	422.9
588.956	323.32
589.305	407.58
589.654	361.62
590.002	384.6
590.351	428.01
590.7	425.46
591.048	435.67
591.397	392.26
591.746	405.03
592.094	425.46
592.443	374.39
592.791	420.35
593.139	417.8
593.488	353.96
593.836	394.82
594.184	384.6
594.532	417.8
594.88	384.6
595.228	394.82
595.576	399.92
595.924	440.78
596.272	379.5
596.62	374.39
596.968	318.21
597.316	402.48
597.664	371.84
598.011	341.2
598.359	405.03
598.706	422.9
599.054	407.58
599.402	382.05
599.749	351.41
600.096	353.96
600.444	376.94
600.791	348.86
601.138	382.05
601.485	336.09
601.833	379.5
602.18	399.92
602.527	361.62
602.874	392.26
603.221	476.52
603.568	428.01
603.914	438.22
604.261	417.8
604.608	422.9
604.955	420.35
605.301	476.52
605.648	440.78
605.995	405.03
606.341	402.48
606.688	397.37
607.034	405.03
607.38	433.12
607.727	389.71
608.073	407.58
608.419	399.92
608.765	343.75
609.112	382.05
609.458	382.05
609.804	389.71
610.15	407.58
610.496	461.2
610.842	366.73
611.187	295.23
611.533	346.3
611.879	389.71
612.225	376.94
612.57	415.24
612.916	410.14
613.261	450.99
613.607	417.8
613.952	374.39
614.298	374.39
614.643	402.48
614.989	341.2
615.334	435.67
615.679	389.71
616.024	410.14
616.369	397.37
616.714	397.37
617.059	379.5
617.404	356.52
617.749	387.16
618.094	369.28
618.439	364.18
618.784	371.84
619.129	425.46
619.473	405.03
619.818	402.48
620.163	348.86
620.507	433.12
620.852	415.24
621.196	338.64
621.54	417.8
621.885	407.58
622.229	428.01
622.573	364.18
622.918	382.05
623.262	338.64
623.606	399.92
623.95	430.56
624.294	394.82
624.638	392.26
624.982	402.48
625.326	382.05
625.67	443.33
626.013	369.28
626.357	295.23
626.701	397.37
627.044	371.84
627.388	320.77
627.731	387.16
628.075	364.18
628.418	384.6
628.762	422.9
629.105	448.44
629.448	389.71
629.792	415.24
630.135	338.64
630.478	417.8
630.821	353.96
631.164	376.94
631.507	379.5
631.85	376.94
632.193	461.2
632.536	461.2
632.879	394.82
633.221	382.05
633.564	410.14
633.907	376.94
634.249	438.22
634.592	359.07
634.935	397.37
635.277	402.48
635.619	425.46
635.962	353.96
636.304	325.87
636.646	359.07
636.989	428.01
637.331	353.96
637.673	364.18
638.015	384.6
638.357	422.9
638.699	384.6
639.041	486.74
639.383	440.78
639.725	445.88
640.067	494.4
640.408	359.07
640.75	420.35
641.092	412.69
641.433	379.5
641.775	448.44
642.116	361.62
642.458	361.62
642.799	387.16
643.141	397.37
643.482	308
643.823	376.94
644.164	407.58
644.506	471.42
644.847	399.92
645.188	397.37
645.529	389.71
645.87	425.46
646.211	341.2
646.552	402.48
646.893	389.71
647.233	371.84
647.574	415.24
647.915	422.9
648.255	417.8
648.596	371.84
648.937	382.05
649.277	425.46
649.618	382.05
649.958	348.86
650.298	382.05
650.639	366.73
650.979	430.56
651.319	382.05
651.659	382.05
651.999	361.62
652.339	374.39
652.679	443.33
653.019	443.33
653.359	448.44
653.699	397.37
654.039	420.35
654.379	325.87
654.719	402.48
655.058	384.6
655.398	379.5
655.737	489.29
656.077	445.88
656.416	453.54
656.756	379.5
657.095	382.05
657.435	410.14
657.774	313.11
658.113	315.66
658.452	392.26
658.792	392.26
659.131	448.44
659.47	410.14
659.809	384.6
660.148	341.2
660.487	361.62
660.826	379.5
661.164	376.94
661.503	399.92
661.842	412.69
662.181	468.86
662.519	387.16
662.858	353.96
663.196	366.73
663.535	351.41
663.873	348.86
664.212	394.82
664.55	374.39
664.888	399.92
665.226	387.16
665.565	356.52
665.903	532.7
666.241	405.03
666.579	443.33
666.917	338.64
667.255	374.39
667.593	407.58
667.931	471.42
668.268	397.37
668.606	346.3
668.944	338.64
669.282	328.43
669.619	382.05
669.957	343.75
670.294	384.6
670.632	330.98
670.969	336.09
671.307	376.94
671.644	389.71
671.981	374.39
672.318	371.84
672.656	450.99
672.993	379.5
673.33	310.55
673.667	430.56
674.004	397.37
674.341	382.05
674.678	361.62
675.015	407.58
675.351	392.26
675.688	348.86
676.025	392.26
676.362	412.69
676.698	364.18
677.035	336.09
677.371	356.52
677.708	397.37
678.044	392.26
678.38	379.5
678.717	359.07
679.053	338.64
679.389	348.86
679.725	438.22
680.062	382.05
680.398	407.58
680.734	402.48
681.07	351.41
681.406	384.6
681.742	371.84
682.077	369.28
682.413	382.05
682.749	341.2
683.085	348.86
683.42	376.94
683.756	371.84
684.091	387.16
684.427	366.73
684.762	336.09
685.098	359.07
685.433	417.8
685.768	394.82
686.104	394.82
686.439	440.78
686.774	402.48
687.109	394.82
687.444	359.07
687.779	384.6
688.114	397.37
688.449	371.84
688.784	359.07
689.119	402.48
689.454	328.43
689.789	425.46
690.123	422.9
690.458	361.62
690.792	376.94
691.127	402.48
691.461	435.67
691.796	392.26
692.13	325.87
692.465	435.67
692.799	382.05
693.133	410.14
693.467	407.58
693.802	384.6
694.136	353.96
694.47	433.12
694.804	382.05
695.138	343.75
695.472	410.14
695.806	410.14
696.139	356.52
696.473	346.3
696.807	338.64
697.141	346.3
697.474	433.12
697.808	389.71
698.141	420.35
698.475	382.05
698.808	466.31
699.142	356.52
699.475	387.16
699.808	382.05
700.142	392.26
700.475	343.75
700.808	359.07
701.141	425.46
701.474	407.58
701.807	397.37
702.14	425.46
702.473	412.69
702.806	359.07
703.139	328.43
703.472	389.71
703.804	384.6
704.137	371.84
704.47	341.2
704.802	428.01
705.135	412.69
705.467	425.46
705.8	402.48
706.132	366.73
706.464	364.18
706.797	428.01
707.129	364.18
707.461	428.01
707.793	359.07
708.125	328.43
708.457	343.75
708.789	348.86
709.121	445.88
709.453	402.48
709.785	387.16
710.117	415.24
710.449	428.01
710.781	389.71
711.112	417.8
711.444	410.14
711.775	379.5
712.107	430.56
712.438	382.05
712.77	374.39
713.101	417.8
713.433	356.52
713.764	361.62
714.095	376.94
714.426	389.71
714.757	440.78
715.089	394.82
715.42	407.58
715.751	399.92
716.082	422.9
716.412	397.37
716.743	374.39
717.074	353.96
717.405	402.48
717.736	417.8
718.066	384.6
718.397	348.86
718.727	353.96
719.058	361.62
719.388	374.39
719.719	399.92
720.049	407.58
720.38	496.95
720.71	407.58
721.04	364.18
721.37	361.62
721.7	415.24
722.031	410.14
722.361	399.92
722.691	435.67
723.021	351.41
723.35	415.24
723.68	382.05
724.01	428.01
724.34	313.11
724.67	366.73
724.999	410.14
725.329	453.54
725.658	379.5
725.988	379.5
726.317	384.6
726.647	387.16
726.976	366.73
727.306	407.58
727.635	382.05
727.964	456.1
728.293	420.35
728.622	333.54
728.952	359.07
729.281	458.65
729.61	328.43
729.939	351.41
730.267	328.43
730.596	387.16
730.925	445.88
731.254	387.16
731.583	402.48
731.911	387.16
732.24	394.82
732.568	364.18
732.897	353.96
733.225	412.69
733.554	435.67
733.882	364.18
734.21	374.39
734.539	359.07
734.867	356.52
735.195	348.86
735.523	364.18
735.851	364.18
736.179	448.44
736.507	415.24
736.835	417.8
737.163	348.86
737.491	333.54
737.819	323.32
738.147	425.46
738.474	415.24
738.802	366.73
739.13	410.14
739.457	389.71
739.785	456.1
740.112	389.71
740.44	374.39
740.767	402.48
741.094	361.62
741.422	374.39
741.749	428.01
742.076	369.28
742.403	305.45
742.73	417.8
743.057	379.5
743.384	415.24
743.711	392.26
744.038	420.35
744.365	364.18
744.692	351.41
745.018	389.71
745.345	346.3
745.672	341.2
745.998	369.28
746.325	376.94
746.651	387.16
746.978	338.64
747.304	330.98
747.631	387.16
747.957	425.46
748.283	461.2
748.61	392.26
748.936	417.8
749.262	369.28
749.588	359.07
749.914	361.62
750.24	382.05
750.566	399.92
750.892	428.01
751.218	494.4
751.543	422.9
751.869	300.34
752.195	341.2
752.521	328.43
752.846	310.55
753.172	330.98
753.497	382.05
753.823	417.8
754.148	392.26
754.473	428.01
754.799	382.05
755.124	356.52
755.449	308
755.774	356.52
756.1	318.21
756.425	351.41
756.75	389.71
757.075	305.45
757.4	399.92
757.724	382.05
758.049	397.37
758.374	341.2
758.699	410.14
759.024	438.22
759.348	392.26
759.673	379.5
759.997	371.84
760.322	382.05
760.646	379.5
760.971	438.22
761.295	422.9
761.619	438.22
761.944	366.73
762.268	376.94
762.592	323.32
762.916	376.94
763.24	364.18
763.564	359.07
763.888	466.31
764.212	415.24
764.536	389.71
764.86	399.92
765.184	402.48
765.508	410.14
765.831	420.35
766.155	525.04
766.478	422.9
766.802	422.9
767.126	366.73
767.449	392.26
767.772	463.76
768.096	448.44
768.419	402.48
768.742	343.75
769.066	341.2
769.389	448.44
769.712	450.99
770.035	341.2
770.358	430.56
770.681	397.37
771.004	348.86
771.327	371.84
771.65	422.9
771.972	366.73
772.295	353.96
772.618	392.26
772.941	371.84
773.263	443.33
773.586	379.5
773.908	369.28
774.231	417.8
774.553	484.18
774.875	371.84
775.198	392.26
775.52	412.69
775.842	394.82
776.164	458.65
776.487	397.37
776.809	448.44
777.131	463.76
777.453	394.82
777.775	456.1
778.096	399.92
778.418	410.14
778.74	448.44
779.062	405.03
779.384	425.46
779.705	473.97
780.027	509.72
780.348	486.74
780.67	512.27
780.991	563.34
781.313	530.15
781.634	481.63
781.955	491.84
782.277	489.29
782.598	514.82
782.919	496.95
783.24	540.36
783.561	438.22
783.882	563.34
784.203	571
784.524	604.19
784.845	624.62
785.166	604.19
785.487	642.49
785.807	747.18
786.128	734.42
786.449	662.92
786.769	673.13
787.09	716.54
787.41	698.67
787.731	675.69
788.051	691.01
788.372	777.82
788.692	790.59
789.012	759.95
789.332	872.3
789.653	859.53
789.973	969.33
790.293	923.37
790.613	979.54
790.933	1051.03
791.253	1158.28
791.573	1140.4
791.893	1178.7
792.212	1079.12
792.532	1181.26
792.852	1219.56
793.171	1405.95
793.491	1474.89
793.811	1640.86
794.13	1620.44
794.45	1663.84
794.769	1661.29
795.088	1735.34
795.408	1880.88
795.727	2013.66
796.046	2131.11
796.365	2299.64
796.684	2503.91
797.004	2828.19
797.323	3057.99
797.642	3509.94
797.96	3854.64
798.279	4007.85
798.598	4352.55
798.917	4778.97
799.236	5144.1
799.554	5570.51
799.873	5989.27
800.192	6438.66
800.51	7401.29
800.829	8024.31
801.147	7827.7
801.466	7914.51
801.784	7848.13
802.102	8111.12
802.421	8320.5
802.739	8700.95
