Data from 2025-11-25_spectrum_FLMS141361__9__14-44-05-182.txt Node

Date: Tue Nov 25 14:44:05 MST 2025
User: james
Spectrometer: FLMS14136
Trigger mode: 0
Integration Time (sec): 1.000000E-1
Scans to average: 1
Electric dark correction enabled: true
Nonlinearity correction enabled: false
Boxcar width: 0
XAxis mode: Wavelengths
Number of Pixels in Spectrum: 2048
>>>>>Begin Spectral Data<<<<<
339.315	-30
339.697	-30
340.079	-30
340.461	-101.5
340.843	-152.56
341.225	-114.26
341.607	-106.6
341.989	-96.39
342.371	-68.3
342.752	-27.45
343.134	-83.62
343.516	0.64
343.897	-55.54
344.279	5.75
344.661	21.07
345.042	49.15
345.423	-1.92
345.805	133.41
346.186	72.13
346.567	135.97
346.949	135.97
347.33	110.43
347.711	166.61
348.092	207.46
348.473	250.87
348.854	301.94
349.235	273.85
349.616	317.26
349.997	296.83
350.378	276.4
350.758	337.68
351.139	319.81
351.52	375.98
351.9	386.2
352.281	319.81
352.661	406.63
353.042	353
353.422	427.05
353.803	365.77
354.183	404.07
354.563	432.16
354.943	429.61
355.324	386.2
355.704	370.88
356.084	383.65
356.464	342.79
356.844	386.2
357.224	381.09
357.603	347.9
357.983	358.11
358.363	439.82
358.743	391.31
359.122	373.43
359.502	324.92
359.882	391.31
360.261	442.37
360.641	414.29
361.02	424.5
361.399	335.13
361.779	296.83
362.158	363.22
362.537	373.43
362.916	327.47
363.296	319.81
363.675	365.77
364.054	353
364.433	378.54
364.812	335.13
365.19	388.75
365.569	401.52
365.948	378.54
366.327	350.45
366.705	324.92
367.084	355.56
367.463	368.32
367.841	391.31
368.22	353
368.598	370.88
368.977	335.13
369.355	319.81
369.733	307.04
370.111	286.62
370.49	393.86
370.868	335.13
371.246	363.22
371.624	401.52
372.002	396.41
372.38	296.83
372.758	375.98
373.136	363.22
373.513	388.75
373.891	386.2
374.269	391.31
374.646	375.98
375.024	450.03
375.402	319.81
375.779	375.98
376.157	327.47
376.534	375.98
376.911	335.13
377.289	327.47
377.666	319.81
378.043	335.13
378.42	401.52
378.797	330.02
379.175	350.45
379.552	347.9
379.929	391.31
380.305	322.36
380.682	419.39
381.059	398.97
381.436	386.2
381.813	353
382.189	393.86
382.566	381.09
382.943	360.66
383.319	340.24
383.696	373.43
384.072	322.36
384.448	363.22
384.825	358.11
385.201	383.65
385.577	353
385.953	368.32
386.329	393.86
386.706	437.27
387.082	383.65
387.458	398.97
387.834	335.13
388.209	322.36
388.585	360.66
388.961	322.36
389.337	396.41
389.713	406.63
390.088	388.75
390.464	429.61
390.839	439.82
391.215	432.16
391.59	411.73
391.966	411.73
392.341	360.66
392.716	278.96
393.092	450.03
393.467	312.15
393.842	312.15
394.217	404.07
394.592	444.93
394.967	355.56
395.342	358.11
395.717	347.9
396.092	373.43
396.467	393.86
396.841	386.2
397.216	375.98
397.591	406.63
397.965	347.9
398.34	368.32
398.714	401.52
399.089	411.73
399.463	416.84
399.838	375.98
400.212	375.98
400.586	393.86
400.961	353
401.335	406.63
401.709	381.09
402.083	411.73
402.457	419.39
402.831	353
403.205	386.2
403.579	460.25
403.953	398.97
404.326	427.05
404.7	450.03
405.074	421.95
405.447	355.56
405.821	386.2
406.195	340.24
406.568	391.31
406.942	429.61
407.315	386.2
407.688	391.31
408.062	368.32
408.435	388.75
408.808	365.77
409.181	386.2
409.554	332.58
409.927	370.88
410.3	462.8
410.673	401.52
411.046	381.09
411.419	358.11
411.792	353
412.165	347.9
412.537	373.43
412.91	363.22
413.283	437.27
413.655	383.65
414.028	381.09
414.4	414.29
414.773	409.18
415.145	421.95
415.517	398.97
415.889	353
416.262	404.07
416.634	401.52
417.006	378.54
417.378	319.81
417.75	368.32
418.122	358.11
418.494	347.9
418.866	360.66
419.238	404.07
419.609	355.56
419.981	360.66
420.353	365.77
420.725	378.54
421.096	444.93
421.468	360.66
421.839	465.35
422.211	401.52
422.582	457.69
422.953	388.75
423.325	465.35
423.696	388.75
424.067	429.61
424.438	391.31
424.809	365.77
425.18	398.97
425.551	401.52
425.922	406.63
426.293	404.07
426.664	457.69
427.035	467.91
427.406	388.75
427.776	401.52
428.147	373.43
428.518	375.98
428.888	411.73
429.259	391.31
429.629	347.9
429.999	337.68
430.37	391.31
430.74	470.46
431.11	470.46
431.481	401.52
431.851	462.8
432.221	393.86
432.591	442.37
432.961	360.66
433.331	373.43
433.701	383.65
434.071	383.65
434.441	409.18
434.81	368.32
435.18	383.65
435.55	347.9
435.919	398.97
436.289	355.56
436.658	462.8
437.028	393.86
437.397	411.73
437.767	350.45
438.136	416.84
438.505	393.86
438.875	373.43
439.244	455.14
439.613	373.43
439.982	406.63
440.351	490.89
440.72	444.93
441.089	424.5
441.458	414.29
441.827	391.31
442.196	401.52
442.564	470.46
442.933	429.61
443.302	373.43
443.67	414.29
444.039	373.43
444.407	427.05
444.776	365.77
445.144	388.75
445.513	419.39
445.881	424.5
446.249	427.05
446.617	462.8
446.986	544.51
447.354	478.12
447.722	322.36
448.09	396.41
448.458	429.61
448.826	485.78
449.194	488.33
449.561	429.61
449.929	442.37
450.297	309.6
450.665	358.11
451.032	478.12
451.4	391.31
451.767	460.25
452.135	409.18
452.502	396.41
452.87	427.05
453.237	450.03
453.604	401.52
453.971	437.27
454.339	421.95
454.706	416.84
455.073	391.31
455.44	434.71
455.807	421.95
456.174	460.25
456.541	462.8
456.908	393.86
457.274	373.43
457.641	393.86
458.008	391.31
458.374	378.54
458.741	434.71
459.108	429.61
459.474	414.29
459.841	404.07
460.207	401.52
460.573	388.75
460.94	432.16
461.306	414.29
461.672	429.61
462.038	465.35
462.404	427.05
462.771	439.82
463.137	419.39
463.503	483.23
463.868	409.18
464.234	406.63
464.6	360.66
464.966	432.16
465.332	450.03
465.697	401.52
466.063	381.09
466.429	439.82
466.794	455.14
467.16	457.69
467.525	398.97
467.89	414.29
468.256	437.27
468.621	398.97
468.986	411.73
469.351	452.59
469.717	465.35
470.082	421.95
470.447	386.2
470.812	393.86
471.177	511.31
471.542	470.46
471.906	424.5
472.271	493.44
472.636	444.93
473.001	447.48
473.365	432.16
473.73	434.71
474.094	444.93
474.459	434.71
474.823	421.95
475.188	398.97
475.552	383.65
475.917	465.35
476.281	475.57
476.645	444.93
477.009	391.31
477.373	398.97
477.737	347.9
478.101	444.93
478.465	460.25
478.829	404.07
479.193	416.84
479.557	442.37
479.921	383.65
480.284	416.84
480.648	398.97
481.012	427.05
481.375	373.43
481.739	393.86
482.102	375.98
482.466	411.73
482.829	452.59
483.193	429.61
483.556	353
483.919	370.88
484.282	398.97
484.645	414.29
485.009	381.09
485.372	409.18
485.735	409.18
486.098	411.73
486.46	434.71
486.823	388.75
487.186	355.56
487.549	386.2
487.912	434.71
488.274	332.58
488.637	427.05
488.999	396.41
489.362	406.63
489.724	388.75
490.087	383.65
490.449	421.95
490.811	493.44
491.174	391.31
491.536	421.95
491.898	393.86
492.26	393.86
492.622	383.65
492.984	424.5
493.346	444.93
493.708	398.97
494.07	383.65
494.432	398.97
494.794	455.14
495.155	429.61
495.517	406.63
495.879	388.75
496.24	345.34
496.602	393.86
496.963	427.05
497.325	488.33
497.686	432.16
498.048	375.98
498.409	439.82
498.77	488.33
499.131	473.01
499.492	434.71
499.854	411.73
500.215	411.73
500.576	442.37
500.937	424.5
501.298	404.07
501.658	398.97
502.019	414.29
502.38	409.18
502.741	429.61
503.101	368.32
503.462	513.87
503.823	450.03
504.183	391.31
504.543	386.2
504.904	350.45
505.264	434.71
505.625	401.52
505.985	404.07
506.345	442.37
506.705	429.61
507.065	388.75
507.426	460.25
507.786	439.82
508.146	373.43
508.505	432.16
508.865	442.37
509.225	452.59
509.585	447.48
509.945	434.71
510.304	419.39
510.664	465.35
511.024	450.03
511.383	427.05
511.743	404.07
512.102	488.33
512.462	470.46
512.821	488.33
513.18	421.95
513.539	419.39
513.899	370.88
514.258	462.8
514.617	447.48
514.976	347.9
515.335	416.84
515.694	444.93
516.053	378.54
516.412	396.41
516.771	427.05
517.129	421.95
517.488	347.9
517.847	391.31
518.205	447.48
518.564	437.27
518.922	398.97
519.281	513.87
519.639	475.57
519.998	442.37
520.356	442.37
520.714	467.91
521.073	398.97
521.431	404.07
521.789	460.25
522.147	465.35
522.505	432.16
522.863	447.48
523.221	429.61
523.579	457.69
523.937	414.29
524.295	455.14
524.652	427.05
525.01	416.84
525.368	391.31
525.725	419.39
526.083	398.97
526.44	452.59
526.798	386.2
527.155	460.25
527.513	467.91
527.87	457.69
528.227	434.71
528.584	457.69
528.942	396.41
529.299	401.52
529.656	483.23
530.013	460.25
530.37	462.8
530.727	473.01
531.083	398.97
531.44	429.61
531.797	488.33
532.154	419.39
532.511	414.29
532.867	437.27
533.224	381.09
533.58	421.95
533.937	421.95
534.293	414.29
534.65	421.95
535.006	465.35
535.362	490.89
535.718	455.14
536.075	480.67
536.431	414.29
536.787	444.93
537.143	370.88
537.499	439.82
537.855	350.45
538.211	485.78
538.567	424.5
538.923	424.5
539.278	447.48
539.634	358.11
539.99	342.79
540.345	460.25
540.701	414.29
541.056	447.48
541.412	442.37
541.767	429.61
542.123	391.31
542.478	434.71
542.833	452.59
543.188	480.67
543.544	473.01
543.899	490.89
544.254	450.03
544.609	424.5
544.964	447.48
545.319	429.61
545.674	421.95
546.029	421.95
546.383	419.39
546.738	462.8
547.093	478.12
547.447	388.75
547.802	414.29
548.157	381.09
548.511	490.89
548.866	396.41
549.22	488.33
549.574	419.39
549.929	439.82
550.283	473.01
550.637	447.48
550.991	416.84
551.345	401.52
551.699	406.63
552.053	414.29
552.407	442.37
552.761	421.95
553.115	455.14
553.469	442.37
553.823	409.18
554.176	373.43
554.53	393.86
554.884	388.75
555.237	536.85
555.591	503.65
555.944	450.03
556.298	465.35
556.651	467.91
557.005	490.89
557.358	455.14
557.711	421.95
558.064	450.03
558.417	493.44
558.771	575.15
559.124	393.86
559.477	404.07
559.83	365.77
560.182	444.93
560.535	429.61
560.888	495.99
561.241	444.93
561.594	457.69
561.946	455.14
562.299	411.73
562.651	434.71
563.004	465.35
563.356	391.31
563.709	404.07
564.061	434.71
564.413	419.39
564.766	383.65
565.118	404.07
565.47	460.25
565.822	404.07
566.174	381.09
566.526	444.93
566.878	429.61
567.23	432.16
567.582	450.03
567.934	516.42
568.286	480.67
568.638	488.33
568.989	465.35
569.341	452.59
569.693	373.43
570.044	442.37
570.396	478.12
570.747	455.14
571.098	434.71
571.45	424.5
571.801	383.65
572.152	488.33
572.504	414.29
572.855	444.93
573.206	444.93
573.557	465.35
573.908	483.23
574.259	439.82
574.61	439.82
574.961	465.35
575.311	501.1
575.662	419.39
576.013	365.77
576.364	381.09
576.714	444.93
577.065	447.48
577.415	406.63
577.766	452.59
578.116	470.46
578.467	506.21
578.817	432.16
579.167	447.48
579.518	404.07
579.868	406.63
580.218	424.5
580.568	414.29
580.918	396.41
581.268	455.14
581.618	483.23
581.968	398.97
582.318	378.54
582.668	442.37
583.017	444.93
583.367	475.57
583.717	447.48
584.066	386.2
584.416	501.1
584.765	424.5
585.115	388.75
585.464	411.73
585.814	411.73
586.163	478.12
586.512	444.93
586.862	391.31
587.211	424.5
587.56	460.25
587.909	437.27
588.258	465.35
588.607	465.35
588.956	475.57
589.305	452.59
589.654	421.95
590.002	388.75
590.351	414.29
590.7	450.03
591.048	409.18
591.397	511.31
591.746	457.69
592.094	398.97
592.443	437.27
592.791	401.52
593.139	396.41
593.488	411.73
593.836	330.02
594.184	452.59
594.532	414.29
594.88	437.27
595.228	419.39
595.576	378.54
595.924	465.35
596.272	358.11
596.62	427.05
596.968	411.73
597.316	442.37
597.664	439.82
598.011	401.52
598.359	478.12
598.706	444.93
599.054	419.39
599.402	381.09
599.749	434.71
600.096	452.59
600.444	429.61
600.791	411.73
601.138	439.82
601.485	444.93
601.833	419.39
602.18	432.16
602.527	388.75
602.874	375.98
603.221	419.39
603.568	406.63
603.914	444.93
604.261	432.16
604.608	411.73
604.955	386.2
605.301	381.09
605.648	424.5
605.995	450.03
606.341	358.11
606.688	457.69
607.034	419.39
607.38	342.79
607.727	416.84
608.073	406.63
608.419	370.88
608.765	396.41
609.112	419.39
609.458	478.12
609.804	437.27
610.15	450.03
610.496	381.09
610.842	365.77
611.187	462.8
611.533	457.69
611.879	416.84
612.225	409.18
612.57	467.91
612.916	434.71
613.261	381.09
613.607	483.23
613.952	427.05
614.298	406.63
614.643	353
614.989	409.18
615.334	373.43
615.679	391.31
616.024	381.09
616.369	414.29
616.714	401.52
617.059	409.18
617.404	373.43
617.749	414.29
618.094	439.82
618.439	414.29
618.784	427.05
619.129	429.61
619.473	342.79
619.818	375.98
620.163	373.43
620.507	416.84
620.852	467.91
621.196	409.18
621.54	478.12
621.885	398.97
622.229	432.16
622.573	493.44
622.918	427.05
623.262	432.16
623.606	406.63
623.95	475.57
624.294	444.93
624.638	427.05
624.982	465.35
625.326	432.16
625.67	465.35
626.013	465.35
626.357	396.41
626.701	373.43
627.044	393.86
627.388	393.86
627.731	470.46
628.075	427.05
628.418	414.29
628.762	378.54
629.105	404.07
629.448	360.66
629.792	467.91
630.135	409.18
630.478	442.37
630.821	424.5
631.164	419.39
631.507	427.05
631.85	421.95
632.193	434.71
632.536	393.86
632.879	381.09
633.221	386.2
633.564	414.29
633.907	450.03
634.249	404.07
634.592	414.29
634.935	437.27
635.277	480.67
635.619	396.41
635.962	444.93
636.304	414.29
636.646	488.33
636.989	452.59
637.331	391.31
637.673	368.32
638.015	383.65
638.357	396.41
638.699	383.65
639.041	378.54
639.383	360.66
639.725	388.75
640.067	447.48
640.408	434.71
640.75	416.84
641.092	393.86
641.433	447.48
641.775	416.84
642.116	465.35
642.458	493.44
642.799	460.25
643.141	437.27
643.482	406.63
643.823	511.31
644.164	424.5
644.506	503.65
644.847	411.73
645.188	350.45
645.529	401.52
645.87	419.39
646.211	378.54
646.552	378.54
646.893	429.61
647.233	429.61
647.574	432.16
647.915	401.52
648.255	381.09
648.596	416.84
648.937	447.48
649.277	363.22
649.618	404.07
649.958	460.25
650.298	411.73
650.639	457.69
650.979	429.61
651.319	404.07
651.659	345.34
651.999	460.25
652.339	437.27
652.679	483.23
653.019	404.07
653.359	375.98
653.699	416.84
654.039	406.63
654.379	393.86
654.719	444.93
655.058	427.05
655.398	437.27
655.737	457.69
656.077	450.03
656.416	429.61
656.756	411.73
657.095	386.2
657.435	391.31
657.774	370.88
658.113	355.56
658.452	404.07
658.792	432.16
659.131	353
659.47	404.07
659.809	396.41
660.148	450.03
660.487	378.54
660.826	393.86
661.164	419.39
661.503	365.77
661.842	406.63
662.181	416.84
662.519	404.07
662.858	447.48
663.196	437.27
663.535	381.09
663.873	370.88
664.212	378.54
664.55	381.09
664.888	478.12
665.226	455.14
665.565	404.07
665.903	575.15
666.241	434.71
666.579	488.33
666.917	444.93
667.255	450.03
667.593	358.11
667.931	439.82
668.268	386.2
668.606	393.86
668.944	401.52
669.282	386.2
669.619	381.09
669.957	478.12
670.294	414.29
670.632	475.57
670.969	442.37
671.307	398.97
671.644	350.45
671.981	434.71
672.318	409.18
672.656	388.75
672.993	360.66
673.33	419.39
673.667	404.07
674.004	427.05
674.341	442.37
674.678	450.03
675.015	432.16
675.351	378.54
675.688	401.52
676.025	409.18
676.362	457.69
676.698	332.58
677.035	401.52
677.371	378.54
677.708	386.2
678.044	360.66
678.38	429.61
678.717	439.82
679.053	391.31
679.389	391.31
679.725	404.07
680.062	386.2
680.398	411.73
680.734	434.71
681.07	409.18
681.406	368.32
681.742	416.84
682.077	419.39
682.413	419.39
682.749	406.63
683.085	437.27
683.42	345.34
683.756	462.8
684.091	391.31
684.427	365.77
684.762	381.09
685.098	324.92
685.433	404.07
685.768	363.22
686.104	370.88
686.439	342.79
686.774	375.98
687.109	460.25
687.444	378.54
687.779	404.07
688.114	383.65
688.449	411.73
688.784	427.05
689.119	406.63
689.454	404.07
689.789	383.65
690.123	404.07
690.458	432.16
690.792	462.8
691.127	409.18
691.461	378.54
691.796	414.29
692.13	434.71
692.465	358.11
692.799	386.2
693.133	432.16
693.467	368.32
693.802	444.93
694.136	416.84
694.47	406.63
694.804	429.61
695.138	427.05
695.472	388.75
695.806	406.63
696.139	396.41
696.473	427.05
696.807	421.95
697.141	447.48
697.474	467.91
697.808	462.8
698.141	452.59
698.475	388.75
698.808	375.98
699.142	411.73
699.475	378.54
699.808	404.07
700.142	375.98
700.475	432.16
700.808	373.43
701.141	467.91
701.474	439.82
701.807	421.95
702.14	388.75
702.473	404.07
702.806	411.73
703.139	462.8
703.472	434.71
703.804	401.52
704.137	419.39
704.47	393.86
704.802	424.5
705.135	444.93
705.467	419.39
705.8	432.16
706.132	429.61
706.464	424.5
706.797	363.22
707.129	427.05
707.461	450.03
707.793	406.63
708.125	363.22
708.457	465.35
708.789	427.05
709.121	411.73
709.453	411.73
709.785	429.61
710.117	363.22
710.449	427.05
710.781	404.07
711.112	404.07
711.444	416.84
711.775	393.86
712.107	493.44
712.438	409.18
712.77	388.75
713.101	401.52
713.433	429.61
713.764	409.18
714.095	401.52
714.426	421.95
714.757	398.97
715.089	478.12
715.42	457.69
715.751	347.9
716.082	424.5
716.412	411.73
716.743	421.95
717.074	370.88
717.405	370.88
717.736	429.61
718.066	398.97
718.397	393.86
718.727	373.43
719.058	434.71
719.388	442.37
719.719	391.31
720.049	450.03
720.38	455.14
720.71	414.29
721.04	444.93
721.37	485.78
721.7	406.63
722.031	455.14
722.361	470.46
722.691	409.18
723.021	404.07
723.35	467.91
723.68	490.89
724.01	396.41
724.34	370.88
724.67	444.93
724.999	427.05
725.329	478.12
725.658	432.16
725.988	419.39
726.317	419.39
726.647	483.23
726.976	462.8
727.306	409.18
727.635	473.01
727.964	381.09
728.293	439.82
728.622	342.79
728.952	396.41
729.281	373.43
729.61	429.61
729.939	442.37
730.267	444.93
730.596	411.73
730.925	424.5
731.254	406.63
731.583	388.75
731.911	429.61
732.24	444.93
732.568	409.18
732.897	391.31
733.225	493.44
733.554	462.8
733.882	444.93
734.21	396.41
734.539	393.86
734.867	424.5
735.195	414.29
735.523	363.22
735.851	360.66
736.179	409.18
736.507	439.82
736.835	409.18
737.163	409.18
737.491	393.86
737.819	396.41
738.147	370.88
738.474	406.63
738.802	467.91
739.13	347.9
739.457	427.05
739.785	465.35
740.112	406.63
740.44	391.31
740.767	375.98
741.094	411.73
741.422	470.46
741.749	473.01
742.076	414.29
742.403	406.63
742.73	383.65
743.057	442.37
743.384	388.75
743.711	409.18
744.038	406.63
744.365	424.5
744.692	358.11
745.018	401.52
745.345	437.27
745.672	396.41
745.998	414.29
746.325	375.98
746.651	414.29
746.978	386.2
747.304	473.01
747.631	409.18
747.957	396.41
748.283	409.18
748.61	375.98
748.936	439.82
749.262	381.09
749.588	401.52
749.914	421.95
750.24	401.52
750.566	442.37
750.892	378.54
751.218	429.61
751.543	429.61
751.869	455.14
752.195	388.75
752.521	447.48
752.846	442.37
753.172	411.73
753.497	485.78
753.823	467.91
754.148	457.69
754.473	419.39
754.799	470.46
755.124	414.29
755.449	406.63
755.774	432.16
756.1	421.95
756.425	406.63
756.75	409.18
757.075	427.05
757.4	495.99
757.724	475.57
758.049	396.41
758.374	416.84
758.699	406.63
759.024	419.39
759.348	424.5
759.673	442.37
759.997	421.95
760.322	416.84
760.646	437.27
760.971	327.47
761.295	368.32
761.619	429.61
761.944	411.73
762.268	488.33
762.592	432.16
762.916	457.69
763.24	421.95
763.564	383.65
763.888	324.92
764.212	398.97
764.536	386.2
764.86	368.32
765.184	485.78
765.508	416.84
765.831	365.77
766.155	595.58
766.478	478.12
766.802	439.82
767.126	427.05
767.449	457.69
767.772	480.67
768.096	457.69
768.419	462.8
768.742	473.01
769.066	488.33
769.389	432.16
769.712	437.27
770.035	470.46
770.358	450.03
770.681	524.08
771.004	485.78
771.327	467.91
771.65	467.91
771.972	503.65
772.295	450.03
772.618	495.99
772.941	473.01
773.263	493.44
773.586	536.85
773.908	544.51
774.231	603.24
774.553	659.41
774.875	679.84
775.198	822.83
775.52	889.21
775.842	866.23
776.164	904.53
776.487	822.83
776.809	838.15
777.131	861.13
777.453	886.66
777.775	950.49
778.096	1062.84
778.418	1177.75
778.74	1318.18
779.062	1657.78
779.384	2015.25
779.705	2377.83
780.027	2518.27
780.348	2694.45
780.67	2610.19
780.991	2538.7
781.313	2612.74
781.634	2630.62
781.955	2842.55
782.277	3309.82
782.598	3830.71
782.919	4165.2
783.24	4428.2
783.561	4341.38
783.882	4262.23
784.203	4170.3
784.524	4236.69
784.845	4040.08
785.166	4318.4
785.487	5046.11
785.807	5684.46
786.128	6013.84
786.449	7175.63
786.769	8204.64
787.09	8255.71
787.41	8518.71
787.731	8842.99
788.051	8666.8
788.372	8237.84
788.692	7911
789.012	8306.78
789.332	8368.06
789.653	9233.65
789.973	10571.62
790.293	12205.79
790.613	13691.85
790.933	13758.24
791.253	13638.23
791.573	13556.52
791.893	13015.21
792.212	12001.51
792.532	11299.34
792.852	10403.1
793.171	10025.2
793.491	9672.83
793.811	10094.14
794.13	10571.62
794.45	12481.55
794.769	14963.43
795.088	18336.45
795.408	19825.07
795.727	21119.63
796.046	20236.16
796.365	20093.17
796.684	20213.18
797.004	20874.5
797.323	21017.49
797.642	21173.25
797.96	21270.28
798.279	20271.91
798.598	19153.53
798.917	20200.41
799.236	21875.43
799.554	24507.96
799.873	26599.18
800.192	29344.06
800.51	31680.4
