Data from FLMS141361__0__15-51-12-918.txt Node

Date: Tue Dec 02 15:51:12 MST 2025
User: kpspe
Spectrometer: FLMS14136
Trigger mode: 0
Integration Time (sec): 1.000000E-1
Scans to average: 1
Electric dark correction enabled: true
Nonlinearity correction enabled: false
Boxcar width: 0
XAxis mode: Wavelengths
Number of Pixels in Spectrum: 2048
>>>>>Begin Spectral Data<<<<<
339.315	-103.73
339.697	-103.73
340.079	-103.73
340.461	-78.2
340.843	-57.77
341.225	-32.24
341.607	-103.73
341.989	-60.32
342.371	-152.25
342.752	-101.18
343.134	-16.92
343.516	-47.56
343.897	-37.34
344.279	-16.92
344.661	18.83
345.042	57.13
345.423	57.13
345.805	62.24
346.186	82.67
346.567	110.75
346.949	179.69
347.33	169.48
347.711	187.35
348.092	207.78
348.473	284.38
348.854	256.3
349.235	225.65
349.616	297.15
349.997	276.72
350.378	274.17
350.758	269.06
351.139	279.28
351.52	335.45
351.9	315.02
352.281	386.52
352.661	414.6
353.042	440.14
353.422	391.62
353.803	401.84
354.183	350.77
354.563	399.28
354.943	458.01
355.324	419.71
355.704	368.64
356.084	389.07
356.464	401.84
356.844	396.73
357.224	366.09
357.603	447.8
357.983	463.12
358.363	435.03
358.743	422.26
359.122	406.94
359.502	447.8
359.882	394.18
360.261	327.79
360.641	399.28
361.02	396.73
361.399	299.7
361.779	348.22
362.158	401.84
362.537	386.52
362.916	376.3
363.296	378.86
363.675	386.52
364.054	353.32
364.433	381.41
364.812	376.3
365.19	350.77
365.569	381.41
365.948	348.22
366.327	378.86
366.705	396.73
367.084	368.64
367.463	348.22
367.841	376.3
368.22	401.84
368.598	381.41
368.977	360.98
369.355	386.52
369.733	355.88
370.111	343.11
370.49	297.15
370.868	368.64
371.246	360.98
371.624	376.3
372.002	445.25
372.38	345.66
372.758	406.94
373.136	373.75
373.513	381.41
373.891	343.11
374.269	309.92
374.646	355.88
375.024	378.86
375.402	404.39
375.779	363.54
376.157	363.54
376.534	345.66
376.911	315.02
377.289	358.43
377.666	389.07
378.043	368.64
378.42	412.05
378.797	391.62
379.175	360.98
379.552	371.2
379.929	320.13
380.305	358.43
380.682	389.07
381.059	343.11
381.436	404.39
381.813	368.64
382.189	447.8
382.566	350.77
382.943	338
383.319	338
383.696	360.98
384.072	345.66
384.448	399.28
384.825	376.3
385.201	396.73
385.577	399.28
385.953	391.62
386.329	401.84
386.706	396.73
387.082	427.37
387.458	386.52
387.834	383.96
388.209	353.32
388.585	417.16
388.961	406.94
389.337	442.69
389.713	389.07
390.088	414.6
390.464	366.09
390.839	391.62
391.215	414.6
391.59	422.26
391.966	383.96
392.341	391.62
392.716	435.03
393.092	348.22
393.467	353.32
393.842	404.39
394.217	470.78
394.592	307.36
394.967	422.26
395.342	409.5
395.717	389.07
396.092	376.3
396.467	437.59
396.841	394.18
397.216	417.16
397.591	391.62
397.965	401.84
398.34	304.81
398.714	378.86
399.089	417.16
399.463	414.6
399.838	389.07
400.212	432.48
400.586	350.77
400.961	391.62
401.335	429.93
401.709	340.56
402.083	373.75
402.457	435.03
402.831	429.93
403.205	412.05
403.579	363.54
403.953	353.32
404.326	399.28
404.7	401.84
405.074	389.07
405.447	373.75
405.821	389.07
406.195	422.26
406.568	363.54
406.942	447.8
407.315	348.22
407.688	386.52
408.062	383.96
408.435	327.79
408.808	360.98
409.181	386.52
409.554	345.66
409.927	414.6
410.3	360.98
410.673	338
411.046	396.73
411.419	412.05
411.792	435.03
412.165	399.28
412.537	386.52
412.91	391.62
413.283	368.64
413.655	348.22
414.028	417.16
414.4	406.94
414.773	475.89
415.145	391.62
415.517	366.09
415.889	437.59
416.262	345.66
416.634	353.32
417.006	378.86
417.378	366.09
417.75	391.62
418.122	391.62
418.494	450.35
418.866	371.2
419.238	366.09
419.609	404.39
419.981	409.5
420.353	401.84
420.725	368.64
421.096	391.62
421.468	404.39
421.839	422.26
422.211	338
422.582	360.98
422.953	358.43
423.325	429.93
423.696	455.46
424.067	396.73
424.438	409.5
424.809	447.8
425.18	371.2
425.551	353.32
425.922	371.2
426.293	335.45
426.664	422.26
427.035	445.25
427.406	358.43
427.776	389.07
428.147	376.3
428.518	399.28
428.888	470.78
429.259	406.94
429.629	442.69
429.999	335.45
430.37	396.73
430.74	442.69
431.11	427.37
431.481	445.25
431.851	452.91
432.221	381.41
432.591	414.6
432.961	427.37
433.331	389.07
433.701	429.93
434.071	399.28
434.441	348.22
434.81	391.62
435.18	442.69
435.55	401.84
435.919	376.3
436.289	355.88
436.658	394.18
437.028	455.46
437.397	445.25
437.767	417.16
438.136	401.84
438.505	394.18
438.875	445.25
439.244	424.82
439.613	345.66
439.982	373.75
440.351	389.07
440.72	455.46
441.089	399.28
441.458	386.52
441.827	389.07
442.196	401.84
442.564	445.25
442.933	468.23
443.302	417.16
443.67	366.09
444.039	429.93
444.407	378.86
444.776	391.62
445.144	376.3
445.513	386.52
445.881	458.01
446.249	401.84
446.617	445.25
446.986	427.37
447.354	442.69
447.722	458.01
448.09	394.18
448.458	491.21
448.826	478.44
449.194	399.28
449.561	442.69
449.929	440.14
450.297	498.87
450.665	386.52
451.032	401.84
451.4	470.78
451.767	427.37
452.135	422.26
452.502	381.41
452.87	419.71
453.237	391.62
453.604	391.62
453.971	409.5
454.339	460.57
454.706	437.59
455.073	486.1
455.44	465.67
455.807	417.16
456.174	355.88
456.541	458.01
456.908	455.46
457.274	389.07
457.641	396.73
458.008	340.56
458.374	463.12
458.741	460.57
459.108	396.73
459.474	422.26
459.841	435.03
460.207	435.03
460.573	417.16
460.94	401.84
461.306	465.67
461.672	424.82
462.038	435.03
462.404	498.87
462.771	460.57
463.137	327.79
463.503	480.99
463.868	475.89
464.234	366.09
464.6	417.16
464.966	386.52
465.332	432.48
465.697	475.89
466.063	503.97
466.429	458.01
466.794	401.84
467.16	368.64
467.525	383.96
467.89	440.14
468.256	447.8
468.621	378.86
468.986	442.69
469.351	455.46
469.717	437.59
470.082	391.62
470.447	406.94
470.812	429.93
471.177	399.28
471.542	463.12
471.906	429.93
472.271	360.98
472.636	371.2
473.001	406.94
473.365	480.99
473.73	447.8
474.094	460.57
474.459	389.07
474.823	381.41
475.188	427.37
475.552	468.23
475.917	396.73
476.281	412.05
476.645	450.35
477.009	417.16
477.373	488.65
477.737	503.97
478.101	445.25
478.465	417.16
478.829	452.91
479.193	386.52
479.557	389.07
479.921	424.82
480.284	396.73
480.648	414.6
481.012	442.69
481.375	396.73
481.739	399.28
482.102	422.26
482.466	394.18
482.829	450.35
483.193	401.84
483.556	493.76
483.919	419.71
484.282	399.28
484.645	463.12
485.009	445.25
485.372	440.14
485.735	458.01
486.098	498.87
486.46	465.67
486.823	445.25
487.186	458.01
487.549	360.98
487.912	350.77
488.274	404.39
488.637	440.14
488.999	412.05
489.362	414.6
489.724	409.5
490.087	424.82
490.449	468.23
490.811	486.1
491.174	394.18
491.536	422.26
491.898	455.46
492.26	396.73
492.622	373.75
492.984	532.06
493.346	404.39
493.708	440.14
494.07	437.59
494.432	378.86
494.794	427.37
495.155	455.46
495.517	452.91
495.879	473.33
496.24	427.37
496.602	386.52
496.963	404.39
497.325	424.82
497.686	516.74
498.048	401.84
498.409	417.16
498.77	429.93
499.131	404.39
499.492	450.35
499.854	445.25
500.215	447.8
500.576	412.05
500.937	450.35
501.298	447.8
501.658	450.35
502.019	432.48
502.38	429.93
502.741	381.41
503.101	427.37
503.462	437.59
503.823	378.86
504.183	417.16
504.543	358.43
504.904	350.77
505.264	376.3
505.625	386.52
505.985	422.26
506.345	437.59
506.705	460.57
507.065	442.69
507.426	463.12
507.786	440.14
508.146	427.37
508.505	366.09
508.865	399.28
509.225	404.39
509.585	488.65
509.945	468.23
510.304	452.91
510.664	427.37
511.024	327.79
511.383	432.48
511.743	386.52
512.102	424.82
512.462	381.41
512.821	437.59
513.18	435.03
513.539	442.69
513.899	455.46
514.258	475.89
514.617	401.84
514.976	445.25
515.335	501.42
515.694	455.46
516.053	450.35
516.412	378.86
516.771	404.39
517.129	437.59
517.488	414.6
517.847	391.62
518.205	503.97
518.564	455.46
518.922	381.41
519.281	496.31
519.639	414.6
519.998	491.21
520.356	455.46
520.714	404.39
521.073	404.39
521.431	445.25
521.789	478.44
522.147	383.96
522.505	414.6
522.863	465.67
523.221	358.43
523.579	422.26
523.937	480.99
524.295	424.82
524.652	394.18
525.01	452.91
525.368	491.21
525.725	514.19
526.083	532.06
526.44	394.18
526.798	475.89
527.155	422.26
527.513	445.25
527.87	427.37
528.227	486.1
528.584	424.82
528.942	429.93
529.299	424.82
529.656	427.37
530.013	424.82
530.37	414.6
530.727	417.16
531.083	429.93
531.44	463.12
531.797	480.99
532.154	450.35
532.511	514.19
532.867	376.3
533.224	409.5
533.58	463.12
533.937	447.8
534.293	460.57
534.65	473.33
535.006	458.01
535.362	455.46
535.718	488.65
536.075	442.69
536.431	435.03
536.787	401.84
537.143	383.96
537.499	366.09
537.855	460.57
538.211	465.67
538.567	404.39
538.923	440.14
539.278	401.84
539.634	401.84
539.99	435.03
540.345	496.31
540.701	452.91
541.056	445.25
541.412	404.39
541.767	404.39
542.123	445.25
542.478	486.1
542.833	465.67
543.188	419.71
543.544	368.64
543.899	450.35
544.254	435.03
544.609	501.42
544.964	493.76
545.319	437.59
545.674	386.52
546.029	383.96
546.383	447.8
546.738	445.25
547.093	452.91
547.447	422.26
547.802	460.57
548.157	412.05
548.511	475.89
548.866	424.82
549.22	465.67
549.574	422.26
549.929	404.39
550.283	486.1
550.637	537.17
550.991	450.35
551.345	378.86
551.699	429.93
552.053	429.93
552.407	414.6
552.761	437.59
553.115	406.94
553.469	432.48
553.823	442.69
554.176	445.25
554.53	427.37
554.884	503.97
555.237	705.69
555.591	521.85
555.944	475.89
556.298	463.12
556.651	501.42
557.005	401.84
557.358	401.84
557.711	445.25
558.064	465.67
558.417	401.84
558.771	511.63
559.124	450.35
559.477	419.71
559.83	486.1
560.182	419.71
560.535	432.48
560.888	442.69
561.241	442.69
561.594	491.21
561.946	366.09
562.299	440.14
562.651	445.25
563.004	450.35
563.356	432.48
563.709	371.2
564.061	478.44
564.413	414.6
564.766	514.19
565.118	424.82
565.47	368.64
565.822	483.55
566.174	465.67
566.526	460.57
566.878	440.14
567.23	427.37
567.582	470.78
567.934	414.6
568.286	376.3
568.638	432.48
568.989	468.23
569.341	458.01
569.693	419.71
570.044	498.87
570.396	440.14
570.747	463.12
571.098	417.16
571.45	483.55
571.801	463.12
572.152	442.69
572.504	404.39
572.855	417.16
573.206	511.63
573.557	496.31
573.908	486.1
574.259	475.89
574.61	468.23
574.961	458.01
575.311	496.31
575.662	389.07
576.013	486.1
576.364	396.73
576.714	478.44
577.065	465.67
577.415	427.37
577.766	445.25
578.116	401.84
578.467	427.37
578.817	445.25
579.167	478.44
579.518	455.46
579.868	409.5
580.218	432.48
580.568	429.93
580.918	447.8
581.268	455.46
581.618	468.23
581.968	440.14
582.318	468.23
582.668	417.16
583.017	383.96
583.367	381.41
583.717	498.87
584.066	498.87
584.416	381.41
584.765	445.25
585.115	486.1
585.464	406.94
585.814	442.69
586.163	414.6
586.512	424.82
586.862	470.78
587.211	447.8
587.56	409.5
587.909	399.28
588.258	429.93
588.607	463.12
588.956	463.12
589.305	452.91
589.654	412.05
590.002	406.94
590.351	435.03
590.7	491.21
591.048	409.5
591.397	424.82
591.746	417.16
592.094	475.89
592.443	509.08
592.791	468.23
593.139	399.28
593.488	422.26
593.836	445.25
594.184	396.73
594.532	427.37
594.88	468.23
595.228	491.21
595.576	435.03
595.924	452.91
596.272	437.59
596.62	447.8
596.968	447.8
597.316	363.54
597.664	399.28
598.011	432.48
598.359	529.51
598.706	422.26
599.054	435.03
599.402	463.12
599.749	450.35
600.096	498.87
600.444	455.46
600.791	450.35
601.138	419.71
601.485	386.52
601.833	503.97
602.18	470.78
602.527	386.52
602.874	391.62
603.221	478.44
603.568	419.71
603.914	473.33
604.261	468.23
604.608	429.93
604.955	437.59
605.301	412.05
605.648	358.43
605.995	366.09
606.341	468.23
606.688	452.91
607.034	399.28
607.38	458.01
607.727	376.3
608.073	463.12
608.419	404.39
608.765	422.26
609.112	498.87
609.458	406.94
609.804	424.82
610.15	414.6
610.496	465.67
610.842	432.48
611.187	381.41
611.533	435.03
611.879	486.1
612.225	343.11
612.57	429.93
612.916	470.78
613.261	424.82
613.607	445.25
613.952	480.99
614.298	406.94
614.643	350.77
614.989	383.96
615.334	368.64
615.679	386.52
616.024	427.37
616.369	409.5
616.714	460.57
617.059	478.44
617.404	452.91
617.749	417.16
618.094	386.52
618.439	401.84
618.784	483.55
619.129	465.67
619.473	473.33
619.818	391.62
620.163	480.99
620.507	501.42
620.852	424.82
621.196	440.14
621.54	465.67
621.885	437.59
622.229	401.84
622.573	419.71
622.918	452.91
623.262	419.71
623.606	406.94
623.95	435.03
624.294	432.48
624.638	394.18
624.982	427.37
625.326	401.84
625.67	404.39
626.013	435.03
626.357	460.57
626.701	437.59
627.044	435.03
627.388	394.18
627.731	378.86
628.075	406.94
628.418	452.91
628.762	455.46
629.105	409.5
629.448	478.44
629.792	498.87
630.135	429.93
630.478	450.35
630.821	406.94
631.164	381.41
631.507	432.48
631.85	447.8
632.193	468.23
632.536	406.94
632.879	435.03
633.221	486.1
633.564	417.16
633.907	468.23
634.249	468.23
634.592	486.1
634.935	409.5
635.277	432.48
635.619	427.37
635.962	391.62
636.304	450.35
636.646	422.26
636.989	480.99
637.331	406.94
637.673	373.75
638.015	483.55
638.357	435.03
638.699	406.94
639.041	396.73
639.383	496.31
639.725	460.57
640.067	460.57
640.408	468.23
640.75	447.8
641.092	353.32
641.433	396.73
641.775	396.73
642.116	417.16
642.458	442.69
642.799	419.71
643.141	386.52
643.482	376.3
643.823	417.16
644.164	348.22
644.506	417.16
644.847	391.62
645.188	371.2
645.529	406.94
645.87	458.01
646.211	366.09
646.552	460.57
646.893	435.03
647.233	432.48
647.574	442.69
647.915	427.37
648.255	412.05
648.596	470.78
648.937	404.39
649.277	404.39
649.618	427.37
649.958	419.71
650.298	442.69
650.639	424.82
650.979	348.22
651.319	401.84
651.659	412.05
651.999	445.25
652.339	429.93
652.679	417.16
653.019	475.89
653.359	460.57
653.699	409.5
654.039	412.05
654.379	458.01
654.719	480.99
655.058	386.52
655.398	417.16
655.737	424.82
656.077	417.16
656.416	417.16
656.756	473.33
657.095	432.48
657.435	470.78
657.774	422.26
658.113	376.3
658.452	435.03
658.792	435.03
659.131	432.48
659.47	409.5
659.809	478.44
660.148	440.14
660.487	445.25
660.826	424.82
661.164	350.77
661.503	371.2
661.842	381.41
662.181	435.03
662.519	368.64
662.858	465.67
663.196	450.35
663.535	373.75
663.873	445.25
664.212	381.41
664.55	409.5
664.888	360.98
665.226	404.39
665.565	480.99
665.903	644.41
666.241	473.33
666.579	460.57
666.917	429.93
667.255	458.01
667.593	437.59
667.931	419.71
668.268	427.37
668.606	427.37
668.944	350.77
669.282	422.26
669.619	401.84
669.957	386.52
670.294	422.26
670.632	378.86
670.969	450.35
671.307	394.18
671.644	427.37
671.981	440.14
672.318	391.62
672.656	422.26
672.993	455.46
673.33	437.59
673.667	391.62
674.004	332.9
674.341	465.67
674.678	378.86
675.015	503.97
675.351	445.25
675.688	435.03
676.025	394.18
676.362	406.94
676.698	389.07
677.035	409.5
677.371	440.14
677.708	424.82
678.044	396.73
678.38	422.26
678.717	422.26
679.053	432.48
679.389	414.6
679.725	381.41
680.062	429.93
680.398	429.93
680.734	409.5
681.07	414.6
681.406	383.96
681.742	437.59
682.077	417.16
682.413	401.84
682.749	424.82
683.085	378.86
683.42	401.84
683.756	406.94
684.091	409.5
684.427	429.93
684.762	412.05
685.098	399.28
685.433	412.05
685.768	396.73
686.104	442.69
686.439	409.5
686.774	391.62
687.109	445.25
687.444	478.44
687.779	409.5
688.114	406.94
688.449	378.86
688.784	450.35
689.119	503.97
689.454	447.8
689.789	412.05
690.123	417.16
690.458	452.91
690.792	424.82
691.127	386.52
691.461	394.18
691.796	396.73
692.13	389.07
692.465	424.82
692.799	376.3
693.133	419.71
693.467	488.65
693.802	478.44
694.136	327.79
694.47	493.76
694.804	463.12
695.138	417.16
695.472	355.88
695.806	463.12
696.139	445.25
696.473	501.42
696.807	422.26
697.141	458.01
697.474	450.35
697.808	470.78
698.141	432.48
698.475	445.25
698.808	381.41
699.142	366.09
699.475	422.26
699.808	445.25
700.142	394.18
700.475	475.89
700.808	437.59
701.141	424.82
701.474	373.75
701.807	399.28
702.14	389.07
702.473	330.34
702.806	389.07
703.139	373.75
703.472	406.94
703.804	473.33
704.137	353.32
704.47	406.94
704.802	394.18
705.135	417.16
705.467	378.86
705.8	440.14
706.132	417.16
706.464	429.93
706.797	391.62
707.129	432.48
707.461	417.16
707.793	483.55
708.125	417.16
708.457	424.82
708.789	414.6
709.121	473.33
709.453	399.28
709.785	391.62
710.117	414.6
710.449	419.71
710.781	399.28
711.112	376.3
711.444	414.6
711.775	363.54
712.107	391.62
712.438	468.23
712.77	432.48
713.101	440.14
713.433	383.96
713.764	394.18
714.095	417.16
714.426	389.07
714.757	401.84
715.089	373.75
715.42	501.42
715.751	427.37
716.082	412.05
716.412	429.93
716.743	409.5
717.074	422.26
717.405	401.84
717.736	373.75
718.066	427.37
718.397	376.3
718.727	460.57
719.058	358.43
719.388	460.57
719.719	437.59
720.049	493.76
720.38	396.73
720.71	396.73
721.04	391.62
721.37	371.2
721.7	419.71
722.031	432.48
722.361	406.94
722.691	424.82
723.021	409.5
723.35	432.48
723.68	383.96
724.01	432.48
724.34	435.03
724.67	427.37
724.999	429.93
725.329	368.64
725.658	460.57
725.988	368.64
726.317	309.92
726.647	452.91
726.976	473.33
727.306	509.08
727.635	442.69
727.964	414.6
728.293	373.75
728.622	409.5
728.952	401.84
729.281	455.46
729.61	389.07
729.939	409.5
730.267	376.3
730.596	358.43
730.925	475.89
731.254	447.8
731.583	371.2
731.911	355.88
732.24	366.09
732.568	368.64
732.897	401.84
733.225	363.54
733.554	417.16
733.882	478.44
734.21	478.44
734.539	419.71
734.867	455.46
735.195	452.91
735.523	396.73
735.851	355.88
736.179	360.98
736.507	465.67
736.835	435.03
737.163	447.8
737.491	427.37
737.819	455.46
738.147	409.5
738.474	435.03
738.802	406.94
739.13	366.09
739.457	414.6
739.785	478.44
740.112	399.28
740.44	376.3
740.767	391.62
741.094	480.99
741.422	396.73
741.749	463.12
742.076	396.73
742.403	429.93
742.73	391.62
743.057	366.09
743.384	404.39
743.711	396.73
744.038	427.37
744.365	419.71
744.692	406.94
745.018	373.75
745.345	401.84
745.672	366.09
745.998	366.09
746.325	432.48
746.651	363.54
746.978	475.89
747.304	401.84
747.631	458.01
747.957	450.35
748.283	445.25
748.61	383.96
748.936	373.75
749.262	463.12
749.588	381.41
749.914	373.75
750.24	465.67
750.566	409.5
750.892	419.71
751.218	424.82
751.543	358.43
751.869	363.54
752.195	458.01
752.521	437.59
752.846	465.67
753.172	376.3
753.497	414.6
753.823	447.8
754.148	447.8
754.473	404.39
754.799	417.16
755.124	450.35
755.449	432.48
755.774	447.8
756.1	440.14
756.425	422.26
756.75	422.26
757.075	424.82
757.4	534.61
757.724	437.59
758.049	348.22
758.374	465.67
758.699	486.1
759.024	450.35
759.348	366.09
759.673	422.26
759.997	486.1
760.322	332.9
760.646	345.66
760.971	376.3
761.295	383.96
761.619	445.25
761.944	424.82
762.268	463.12
762.592	463.12
762.916	373.75
763.24	373.75
763.564	455.46
763.888	429.93
764.212	480.99
764.536	455.46
764.86	409.5
765.184	440.14
765.508	452.91
765.831	437.59
766.155	659.73
766.478	478.44
766.802	463.12
767.126	460.57
767.449	437.59
767.772	409.5
768.096	427.37
768.419	475.89
768.742	427.37
769.066	376.3
769.389	463.12
769.712	483.55
770.035	404.39
770.358	422.26
770.681	412.05
771.004	419.71
771.327	450.35
771.65	394.18
771.972	394.18
772.295	435.03
772.618	483.55
772.941	503.97
773.263	480.99
773.586	603.55
773.908	705.69
774.231	736.33
774.553	915.07
774.875	938.05
775.198	984.01
775.52	886.98
775.842	728.67
776.164	721.01
776.487	626.54
776.809	603.55
777.131	815.49
777.453	986.56
777.775	1211.26
778.096	1410.42
778.418	1642.78
778.74	1729.59
779.062	1716.83
779.384	1594.27
779.705	1412.98
780.027	1127
780.348	991.67
780.67	948.26
780.991	1234.24
781.313	1926.2
781.634	2758.61
781.955	3506.75
782.277	4073.6
782.598	4175.73
782.919	3974.01
783.24	3762.08
783.561	3197.79
783.882	2521.14
784.203	1898.12
784.524	1504.9
784.845	1818.96
785.166	2373.05
785.487	3399.5
785.807	4773.22
786.128	6113.74
786.449	7602.36
786.769	8360.72
787.09	7556.4
787.41	6491.64
787.731	5005.58
788.051	3575.69
788.372	2411.35
788.692	2168.78
789.012	2850.53
789.332	4063.38
789.653	6029.48
789.973	8424.55
790.293	11021.34
790.613	12780.61
790.933	13628.34
791.253	11879.27
791.573	9405.05
791.893	6356.32
792.212	4270.21
792.532	3248.85
792.852	3062.46
793.171	3649.73
793.491	5311.98
793.811	7857.7
794.13	10988.14
794.45	14190.08
794.769	15249.73
795.088	15568.9
795.408	13901.55
795.727	12009.49
796.046	9576.13
796.365	7132.54
796.684	5286.45
797.004	4497.46
797.323	5386.03
797.642	8115.59
797.96	11664.79
798.279	16419.18
798.598	21224.64
798.917	25315.15
799.236	26765.47
799.554	25567.93
799.873	21255.28
800.192	17392.02
800.51	13212.14
800.829	8662.02
801.147	5924.79
