Data from measurement_1_FLMS141361__2__14-07-56-833.txt Node

Date: Tue Nov 25 14:07:56 MST 2025
User: kpspe
Spectrometer: FLMS14136
Trigger mode: 0
Integration Time (sec): 1.000000E-1
Scans to average: 1
Electric dark correction enabled: true
Nonlinearity correction enabled: false
Boxcar width: 0
XAxis mode: Wavelengths
Number of Pixels in Spectrum: 2048
>>>>>Begin Spectral Data<<<<<
339.315	-47.24
339.697	-47.24
340.079	-47.24
340.461	-177.46
340.843	-72.77
341.225	-95.75
341.607	-108.52
341.989	-128.95
342.371	-47.24
342.752	-57.45
343.134	-31.92
343.516	-54.9
343.897	-24.26
344.279	57.45
344.661	37.02
345.042	75.32
345.423	-16.6
345.805	80.43
346.186	80.43
346.567	141.71
346.949	93.2
347.33	154.48
347.711	192.78
348.092	167.25
348.473	243.85
348.854	266.83
349.235	323
349.616	294.92
349.997	287.26
350.378	310.24
350.758	338.32
351.139	366.41
351.52	340.88
351.9	297.47
352.281	328.11
352.661	353.64
353.042	376.62
353.422	379.18
353.803	409.82
354.183	363.86
354.563	381.73
354.943	432.8
355.324	348.54
355.704	379.18
356.084	376.62
356.464	394.5
356.844	358.75
357.224	379.18
357.603	399.6
357.983	468.54
358.363	407.26
358.743	389.39
359.122	368.96
359.502	368.96
359.882	325.56
360.261	294.92
360.641	307.68
361.02	409.82
361.399	338.32
361.779	356.2
362.158	361.3
362.537	302.58
362.916	323
363.296	271.93
363.675	361.3
364.054	343.43
364.433	371.52
364.812	310.24
365.19	335.77
365.569	368.96
365.948	371.52
366.327	358.75
366.705	358.75
367.084	366.41
367.463	328.11
367.841	317.9
368.22	358.75
368.598	317.9
368.977	315.34
369.355	328.11
369.733	307.68
370.111	328.11
370.49	343.43
370.868	300.02
371.246	384.28
371.624	328.11
372.002	338.32
372.38	335.77
372.758	225.97
373.136	315.34
373.513	343.43
373.891	384.28
374.269	294.92
374.646	256.61
375.024	356.2
375.402	351.09
375.779	376.62
376.157	335.77
376.534	368.96
376.911	305.13
377.289	338.32
377.666	335.77
378.043	345.98
378.42	317.9
378.797	381.73
379.175	353.64
379.552	422.58
379.929	351.09
380.305	312.79
380.682	271.93
381.059	376.62
381.436	307.68
381.813	425.14
382.189	340.88
382.566	325.56
382.943	371.52
383.319	363.86
383.696	330.66
384.072	328.11
384.448	397.05
384.825	343.43
385.201	345.98
385.577	307.68
385.953	368.96
386.329	345.98
386.706	397.05
387.082	381.73
387.458	394.5
387.834	414.92
388.209	376.62
388.585	335.77
388.961	358.75
389.337	351.09
389.713	361.3
390.088	345.98
390.464	361.3
390.839	389.39
391.215	379.18
391.59	277.04
391.966	402.16
392.341	363.86
392.716	312.79
393.092	379.18
393.467	328.11
393.842	389.39
394.217	371.52
394.592	386.84
394.967	409.82
395.342	363.86
395.717	302.58
396.092	374.07
396.467	361.3
396.841	363.86
397.216	381.73
397.591	340.88
397.965	381.73
398.34	358.75
398.714	335.77
399.089	414.92
399.463	430.24
399.838	374.07
400.212	374.07
400.586	351.09
400.961	371.52
401.335	343.43
401.709	351.09
402.083	422.58
402.457	363.86
402.831	379.18
403.205	325.56
403.579	338.32
403.953	343.43
404.326	391.94
404.7	348.54
405.074	376.62
405.447	338.32
405.821	407.26
406.195	348.54
406.568	333.22
406.942	432.8
407.315	389.39
407.688	397.05
408.062	384.28
408.435	325.56
408.808	343.43
409.181	307.68
409.554	376.62
409.927	345.98
410.3	366.41
410.673	366.41
411.046	333.22
411.419	371.52
411.792	402.16
412.165	391.94
412.537	443.01
412.91	427.69
413.283	394.5
413.655	323
414.028	409.82
414.4	328.11
414.773	391.94
415.145	422.58
415.517	356.2
415.889	384.28
416.262	409.82
416.634	420.03
417.006	312.79
417.378	371.52
417.75	397.05
418.122	384.28
418.494	450.67
418.866	427.69
419.238	384.28
419.609	422.58
419.981	340.88
420.353	399.6
420.725	407.26
421.096	310.24
421.468	420.03
421.839	440.46
422.211	399.6
422.582	422.58
422.953	358.75
423.325	384.28
423.696	389.39
424.067	399.6
424.438	363.86
424.809	307.68
425.18	386.84
425.551	374.07
425.922	389.39
426.293	386.84
426.664	465.99
427.035	468.54
427.406	417.48
427.776	394.5
428.147	381.73
428.518	443.01
428.888	412.37
429.259	345.98
429.629	427.69
429.999	420.03
430.37	394.5
430.74	384.28
431.11	407.26
431.481	310.24
431.851	384.28
432.221	386.84
432.591	448.12
432.961	448.12
433.331	348.54
433.701	397.05
434.071	448.12
434.441	407.26
434.81	427.69
435.18	389.39
435.55	366.41
435.919	366.41
436.289	371.52
436.658	402.16
437.028	368.96
437.397	391.94
437.767	391.94
438.136	404.71
438.505	323
438.875	353.64
439.244	358.75
439.613	358.75
439.982	437.9
440.351	356.2
440.72	443.01
441.089	363.86
441.458	379.18
441.827	356.2
442.196	407.26
442.564	532.38
442.933	437.9
443.302	389.39
443.67	407.26
444.039	448.12
444.407	343.43
444.776	432.8
445.144	430.24
445.513	376.62
445.881	356.2
446.249	381.73
446.617	338.32
446.986	358.75
447.354	402.16
447.722	361.3
448.09	476.2
448.458	491.53
448.826	435.35
449.194	363.86
449.561	481.31
449.929	422.58
450.297	384.28
450.665	417.48
451.032	437.9
451.4	409.82
451.767	379.18
452.135	386.84
452.502	361.3
452.87	381.73
453.237	368.96
453.604	404.71
453.971	432.8
454.339	394.5
454.706	389.39
455.073	348.54
455.44	417.48
455.807	435.35
456.174	381.73
456.541	414.92
456.908	389.39
457.274	448.12
457.641	366.41
458.008	317.9
458.374	417.48
458.741	368.96
459.108	412.37
459.474	412.37
459.841	471.1
460.207	427.69
460.573	353.64
460.94	435.35
461.306	379.18
461.672	430.24
462.038	427.69
462.404	432.8
462.771	381.73
463.137	363.86
463.503	414.92
463.868	402.16
464.234	394.5
464.6	384.28
464.966	340.88
465.332	402.16
465.697	394.5
466.063	386.84
466.429	356.2
466.794	379.18
467.16	394.5
467.525	391.94
467.89	417.48
468.256	381.73
468.621	368.96
468.986	412.37
469.351	420.03
469.717	422.58
470.082	363.86
470.447	343.43
470.812	414.92
471.177	343.43
471.542	379.18
471.906	448.12
472.271	345.98
472.636	437.9
473.001	417.48
473.365	409.82
473.73	376.62
474.094	443.01
474.459	422.58
474.823	361.3
475.188	394.5
475.552	381.73
475.917	399.6
476.281	368.96
476.645	455.78
477.009	330.66
477.373	333.22
477.737	374.07
478.101	420.03
478.465	402.16
478.829	460.88
479.193	397.05
479.557	381.73
479.921	363.86
480.284	384.28
480.648	358.75
481.012	376.62
481.375	389.39
481.739	407.26
482.102	402.16
482.466	414.92
482.829	402.16
483.193	389.39
483.556	376.62
483.919	384.28
484.282	391.94
484.645	409.82
485.009	333.22
485.372	340.88
485.735	386.84
486.098	465.99
486.46	358.75
486.823	391.94
487.186	328.11
487.549	386.84
487.912	391.94
488.274	414.92
488.637	384.28
488.999	323
489.362	381.73
489.724	399.6
490.087	381.73
490.449	320.45
490.811	361.3
491.174	425.14
491.536	394.5
491.898	430.24
492.26	414.92
492.622	379.18
492.984	356.2
493.346	356.2
493.708	389.39
494.07	376.62
494.432	394.5
494.794	432.8
495.155	391.94
495.517	409.82
495.879	386.84
496.24	402.16
496.602	363.86
496.963	389.39
497.325	399.6
497.686	361.3
498.048	379.18
498.409	386.84
498.77	414.92
499.131	430.24
499.492	348.54
499.854	404.71
500.215	437.9
500.576	381.73
500.937	389.39
501.298	374.07
501.658	366.41
502.019	478.76
502.38	465.99
502.741	384.28
503.101	422.58
503.462	412.37
503.823	422.58
504.183	386.84
504.543	412.37
504.904	389.39
505.264	414.92
505.625	368.96
505.985	407.26
506.345	450.67
506.705	379.18
507.065	397.05
507.426	420.03
507.786	356.2
508.146	368.96
508.505	404.71
508.865	391.94
509.225	445.56
509.585	473.65
509.945	399.6
510.304	397.05
510.664	404.71
511.024	340.88
511.383	399.6
511.743	409.82
512.102	330.66
512.462	437.9
512.821	374.07
513.18	435.35
513.539	404.71
513.899	368.96
514.258	412.37
514.617	427.69
514.976	437.9
515.335	366.41
515.694	328.11
516.053	368.96
516.412	422.58
516.771	361.3
517.129	381.73
517.488	379.18
517.847	384.28
518.205	394.5
518.564	328.11
518.922	394.5
519.281	297.47
519.639	443.01
519.998	437.9
520.356	399.6
520.714	432.8
521.073	358.75
521.431	384.28
521.789	391.94
522.147	348.54
522.505	445.56
522.863	389.39
523.221	443.01
523.579	430.24
523.937	389.39
524.295	422.58
524.652	425.14
525.01	465.99
525.368	435.35
525.725	338.32
526.083	420.03
526.44	407.26
526.798	407.26
527.155	473.65
527.513	404.71
527.87	384.28
528.227	417.48
528.584	356.2
528.942	430.24
529.299	432.8
529.656	376.62
530.013	437.9
530.37	407.26
530.727	353.64
531.083	435.35
531.44	443.01
531.797	386.84
532.154	376.62
532.511	453.22
532.867	422.58
533.224	471.1
533.58	432.8
533.937	351.09
534.293	455.78
534.65	409.82
535.006	384.28
535.362	435.35
535.718	384.28
536.075	361.3
536.431	465.99
536.787	361.3
537.143	371.52
537.499	458.33
537.855	399.6
538.211	381.73
538.567	435.35
538.923	506.85
539.278	463.44
539.634	435.35
539.99	435.35
540.345	407.26
540.701	422.58
541.056	358.75
541.412	376.62
541.767	417.48
542.123	381.73
542.478	445.56
542.833	399.6
543.188	407.26
543.544	422.58
543.899	420.03
544.254	407.26
544.609	450.67
544.964	448.12
545.319	414.92
545.674	425.14
546.029	356.2
546.383	384.28
546.738	494.08
547.093	397.05
547.447	448.12
547.802	397.05
548.157	463.44
548.511	450.67
548.866	391.94
549.22	417.48
549.574	361.3
549.929	404.71
550.283	435.35
550.637	420.03
550.991	422.58
551.345	430.24
551.699	417.48
552.053	488.97
552.407	414.92
552.761	358.75
553.115	445.56
553.469	443.01
553.823	345.98
554.176	366.41
554.53	409.82
554.884	448.12
555.237	649.83
555.591	371.52
555.944	432.8
556.298	440.46
556.651	473.65
557.005	473.65
557.358	374.07
557.711	317.9
558.064	435.35
558.417	394.5
558.771	481.31
559.124	432.8
559.477	481.31
559.83	443.01
560.182	412.37
560.535	420.03
560.888	363.86
561.241	399.6
561.594	460.88
561.946	394.5
562.299	404.71
562.651	366.41
563.004	384.28
563.356	414.92
563.709	371.52
564.061	453.22
564.413	386.84
564.766	386.84
565.118	391.94
565.47	425.14
565.822	399.6
566.174	417.48
566.526	417.48
566.878	409.82
567.23	381.73
567.582	384.28
567.934	458.33
568.286	407.26
568.638	430.24
568.989	455.78
569.341	407.26
569.693	376.62
570.044	463.44
570.396	471.1
570.747	458.33
571.098	499.19
571.45	453.22
571.801	450.67
572.152	414.92
572.504	453.22
572.855	345.98
573.206	455.78
573.557	420.03
573.908	330.66
574.259	455.78
574.61	407.26
574.961	412.37
575.311	506.85
575.662	430.24
576.013	432.8
576.364	391.94
576.714	414.92
577.065	448.12
577.415	440.46
577.766	389.39
578.116	368.96
578.467	417.48
578.817	402.16
579.167	404.71
579.518	430.24
579.868	414.92
580.218	417.48
580.568	430.24
580.918	427.69
581.268	414.92
581.618	412.37
581.968	386.84
582.318	440.46
582.668	417.48
583.017	356.2
583.367	430.24
583.717	325.56
584.066	420.03
584.416	351.09
584.765	443.01
585.115	414.92
585.464	494.08
585.814	409.82
586.163	328.11
586.512	384.28
586.862	412.37
587.211	420.03
587.56	440.46
587.909	374.07
588.258	448.12
588.607	445.56
588.956	374.07
589.305	374.07
589.654	448.12
590.002	381.73
590.351	330.66
590.7	458.33
591.048	397.05
591.397	468.54
591.746	430.24
592.094	374.07
592.443	340.88
592.791	402.16
593.139	407.26
593.488	384.28
593.836	443.01
594.184	399.6
594.532	394.5
594.88	488.97
595.228	463.44
595.576	389.39
595.924	368.96
596.272	381.73
596.62	468.54
596.968	374.07
597.316	435.35
597.664	440.46
598.011	440.46
598.359	478.76
598.706	463.44
599.054	412.37
599.402	440.46
599.749	445.56
600.096	463.44
600.444	404.71
600.791	414.92
601.138	399.6
601.485	397.05
601.833	348.54
602.18	376.62
602.527	371.52
602.874	374.07
603.221	340.88
603.568	420.03
603.914	427.69
604.261	389.39
604.608	432.8
604.955	430.24
605.301	430.24
605.648	453.22
605.995	394.5
606.341	425.14
606.688	404.71
607.034	409.82
607.38	420.03
607.727	386.84
608.073	402.16
608.419	448.12
608.765	384.28
609.112	353.64
609.458	412.37
609.804	430.24
610.15	422.58
610.496	391.94
610.842	453.22
611.187	425.14
611.533	425.14
611.879	486.42
612.225	384.28
612.57	409.82
612.916	386.84
613.261	458.33
613.607	402.16
613.952	432.8
614.298	430.24
614.643	391.94
614.989	391.94
615.334	384.28
615.679	384.28
616.024	389.39
616.369	425.14
616.714	399.6
617.059	422.58
617.404	422.58
617.749	409.82
618.094	386.84
618.439	414.92
618.784	399.6
619.129	399.6
619.473	379.18
619.818	458.33
620.163	473.65
620.507	445.56
620.852	363.86
621.196	394.5
621.54	361.3
621.885	379.18
622.229	417.48
622.573	386.84
622.918	412.37
623.262	471.1
623.606	374.07
623.95	386.84
624.294	391.94
624.638	363.86
624.982	409.82
625.326	437.9
625.67	402.16
626.013	379.18
626.357	417.48
626.701	420.03
627.044	422.58
627.388	338.32
627.731	323
628.075	381.73
628.418	363.86
628.762	399.6
629.105	338.32
629.448	351.09
629.792	363.86
630.135	391.94
630.478	374.07
630.821	491.53
631.164	404.71
631.507	391.94
631.85	333.22
632.193	427.69
632.536	389.39
632.879	381.73
633.221	368.96
633.564	427.69
633.907	366.41
634.249	333.22
634.592	455.78
634.935	460.88
635.277	340.88
635.619	407.26
635.962	402.16
636.304	371.52
636.646	353.64
636.989	379.18
637.331	391.94
637.673	404.71
638.015	399.6
638.357	351.09
638.699	440.46
639.041	420.03
639.383	432.8
639.725	353.64
640.067	394.5
640.408	368.96
640.75	420.03
641.092	389.39
641.433	391.94
641.775	453.22
642.116	384.28
642.458	389.39
642.799	450.67
643.141	363.86
643.482	374.07
643.823	376.62
644.164	333.22
644.506	506.85
644.847	437.9
645.188	417.48
645.529	407.26
645.87	366.41
646.211	422.58
646.552	356.2
646.893	437.9
647.233	340.88
647.574	443.01
647.915	343.43
648.255	381.73
648.596	443.01
648.937	394.5
649.277	374.07
649.618	361.3
649.958	374.07
650.298	353.64
650.639	397.05
650.979	391.94
651.319	399.6
651.659	478.76
651.999	417.48
652.339	427.69
652.679	414.92
653.019	343.43
653.359	356.2
653.699	351.09
654.039	366.41
654.379	325.56
654.719	335.77
655.058	391.94
655.398	384.28
655.737	499.19
656.077	386.84
656.416	376.62
656.756	389.39
657.095	366.41
657.435	386.84
657.774	397.05
658.113	371.52
658.452	399.6
658.792	412.37
659.131	376.62
659.47	381.73
659.809	409.82
660.148	374.07
660.487	363.86
660.826	397.05
661.164	399.6
661.503	435.35
661.842	427.69
662.181	412.37
662.519	361.3
662.858	312.79
663.196	366.41
663.535	453.22
663.873	363.86
664.212	389.39
664.55	386.84
664.888	366.41
665.226	420.03
665.565	412.37
665.903	603.87
666.241	483.87
666.579	432.8
666.917	384.28
667.255	414.92
667.593	374.07
667.931	379.18
668.268	379.18
668.606	361.3
668.944	437.9
669.282	356.2
669.619	465.99
669.957	399.6
670.294	404.71
670.632	381.73
670.969	427.69
671.307	417.48
671.644	368.96
671.981	412.37
672.318	404.71
672.656	397.05
672.993	402.16
673.33	440.46
673.667	465.99
674.004	458.33
674.341	371.52
674.678	348.54
675.015	399.6
675.351	432.8
675.688	381.73
676.025	338.32
676.362	399.6
676.698	368.96
677.035	389.39
677.371	389.39
677.708	435.35
678.044	348.54
678.38	368.96
678.717	404.71
679.053	445.56
679.389	412.37
679.725	353.64
680.062	379.18
680.398	345.98
680.734	432.8
681.07	333.22
681.406	391.94
681.742	384.28
682.077	310.24
682.413	379.18
682.749	407.26
683.085	353.64
683.42	294.92
683.756	333.22
684.091	353.64
684.427	366.41
684.762	407.26
685.098	381.73
685.433	356.2
685.768	366.41
686.104	356.2
686.439	443.01
686.774	425.14
687.109	397.05
687.444	381.73
687.779	320.45
688.114	399.6
688.449	381.73
688.784	351.09
689.119	379.18
689.454	368.96
689.789	363.86
690.123	343.43
690.458	409.82
690.792	317.9
691.127	374.07
691.461	356.2
691.796	386.84
692.13	465.99
692.465	368.96
692.799	345.98
693.133	356.2
693.467	381.73
693.802	371.52
694.136	353.64
694.47	386.84
694.804	366.41
695.138	389.39
695.472	379.18
695.806	407.26
696.139	437.9
696.473	437.9
696.807	435.35
697.141	368.96
697.474	391.94
697.808	386.84
698.141	381.73
698.475	386.84
698.808	399.6
699.142	379.18
699.475	427.69
699.808	338.32
700.142	386.84
700.475	445.56
700.808	425.14
701.141	391.94
701.474	455.78
701.807	381.73
702.14	361.3
702.473	371.52
702.806	379.18
703.139	386.84
703.472	450.67
703.804	430.24
704.137	394.5
704.47	389.39
704.802	381.73
705.135	353.64
705.467	363.86
705.8	432.8
706.132	389.39
706.464	384.28
706.797	448.12
707.129	407.26
707.461	358.75
707.793	343.43
708.125	361.3
708.457	340.88
708.789	458.33
709.121	430.24
709.453	397.05
709.785	348.54
710.117	394.5
710.449	351.09
710.781	394.5
711.112	376.62
711.444	353.64
711.775	427.69
712.107	394.5
712.438	315.34
712.77	330.66
713.101	386.84
713.433	361.3
713.764	397.05
714.095	340.88
714.426	338.32
714.757	381.73
715.089	384.28
715.42	412.37
715.751	404.71
716.082	374.07
716.412	435.35
716.743	351.09
717.074	307.68
717.405	340.88
717.736	432.8
718.066	402.16
718.397	353.64
718.727	297.47
719.058	374.07
719.388	363.86
719.719	435.35
720.049	412.37
720.38	404.71
720.71	391.94
721.04	432.8
721.37	351.09
721.7	414.92
722.031	361.3
722.361	368.96
722.691	404.71
723.021	389.39
723.35	376.62
723.68	409.82
724.01	389.39
724.34	361.3
724.67	481.31
724.999	407.26
725.329	384.28
725.658	399.6
725.988	404.71
726.317	440.46
726.647	437.9
726.976	422.58
727.306	358.75
727.635	366.41
727.964	420.03
728.293	448.12
728.622	430.24
728.952	348.54
729.281	397.05
729.61	374.07
729.939	427.69
730.267	312.79
730.596	368.96
730.925	412.37
731.254	315.34
731.583	391.94
731.911	366.41
732.24	328.11
732.568	338.32
732.897	386.84
733.225	404.71
733.554	310.24
733.882	389.39
734.21	368.96
734.539	397.05
734.867	325.56
735.195	394.5
735.523	317.9
735.851	430.24
736.179	386.84
736.507	356.2
736.835	422.58
737.163	389.39
737.491	394.5
737.819	453.22
738.147	371.52
738.474	363.86
738.802	374.07
739.13	391.94
739.457	389.39
739.785	343.43
740.112	397.05
740.44	412.37
740.767	394.5
741.094	389.39
741.422	351.09
741.749	422.58
742.076	328.11
742.403	310.24
742.73	379.18
743.057	328.11
743.384	414.92
743.711	430.24
744.038	384.28
744.365	368.96
744.692	363.86
745.018	366.41
745.345	414.92
745.672	335.77
745.998	379.18
746.325	356.2
746.651	381.73
746.978	305.13
747.304	371.52
747.631	363.86
747.957	376.62
748.283	399.6
748.61	407.26
748.936	389.39
749.262	407.26
749.588	488.97
749.914	435.35
750.24	478.76
750.566	450.67
750.892	397.05
751.218	340.88
751.543	391.94
751.869	381.73
752.195	384.28
752.521	402.16
752.846	333.22
753.172	358.75
753.497	414.92
753.823	402.16
754.148	440.46
754.473	473.65
754.799	368.96
755.124	397.05
755.449	414.92
755.774	404.71
756.1	379.18
756.425	440.46
756.75	376.62
757.075	412.37
757.4	529.83
757.724	430.24
758.049	435.35
758.374	381.73
758.699	333.22
759.024	330.66
759.348	328.11
759.673	345.98
759.997	399.6
760.322	371.52
760.646	358.75
760.971	430.24
761.295	386.84
761.619	368.96
761.944	384.28
762.268	389.39
762.592	420.03
762.916	412.37
763.24	409.82
763.564	402.16
763.888	425.14
764.212	425.14
764.536	379.18
764.86	420.03
765.184	399.6
765.508	371.52
765.831	391.94
766.155	583.45
766.478	435.35
766.802	537.49
767.126	414.92
767.449	394.5
767.772	399.6
768.096	407.26
768.419	351.09
768.742	397.05
769.066	402.16
769.389	389.39
769.712	417.48
770.035	389.39
770.358	366.41
770.681	455.78
771.004	450.67
771.327	402.16
771.65	445.56
771.972	494.08
772.295	575.79
772.618	578.34
772.941	527.27
773.263	631.96
773.586	644.73
773.908	665.15
774.231	667.71
774.553	683.03
774.875	728.99
775.198	874.53
775.52	859.21
775.842	930.71
776.164	1066.04
776.487	1027.73
776.809	969.01
777.131	997.09
777.453	1032.84
777.775	1129.87
778.096	1295.84
778.418	1403.08
778.74	1581.82
779.062	1875.46
779.384	1918.86
779.705	2031.21
780.027	2227.82
780.348	2352.94
780.67	2526.57
780.991	2781.91
781.313	2853.4
781.634	3034.69
781.955	2743.6
782.277	2758.92
782.598	2809.99
782.919	3090.86
783.24	3412.59
783.561	3660.27
783.882	3698.57
784.203	3861.98
784.524	3997.31
784.845	4285.84
785.166	4725.03
785.487	5123.35
785.807	5664.67
786.128	5899.58
786.449	6468.98
786.769	6637.51
787.09	6448.56
787.41	6234.07
787.731	6754.96
788.051	6890.29
788.372	7393.31
788.692	7891.21
789.012	8774.68
789.332	9402.81
789.653	10099.89
789.973	10426.72
790.293	10957.82
790.613	11843.84
790.933	12964.78
791.253	13797.18
791.573	13306.93
791.893	12627.73
792.212	12627.73
792.532	12124.72
792.852	11090.6
793.171	10988.46
793.491	11082.94
793.811	11649.79
794.13	12839.66
794.45	14685.75
794.769	17080.82
795.088	20622.36
795.408	23127.22
795.727	25749.54
796.046	24802.24
796.365	24100.06
796.684	23650.66
797.004	23665.98
797.323	24161.34
797.642	25305.25
797.96	24883.95
798.279	24020.9
798.598	21516.04
798.917	20497.24
799.236	19634.2
799.554	20356.81
799.873	21370.5
800.192	22585.91
800.51	24715.42
800.829	26367.46
801.147	26382.78
