Data from 2025-12-03_xpw_interference_micrometer_634_reference_FLMS141361__124__374.txt Node

Date: Wed Dec 03 15:51:25 MST 2025
User: james
Spectrometer: FLMS14136
Trigger mode: 0
Integration Time (sec): 1.000000E-1
Scans to average: 1
Electric dark correction enabled: true
Nonlinearity correction enabled: false
Boxcar width: 0
XAxis mode: Wavelengths
Number of Pixels in Spectrum: 2048
>>>>>Begin Spectral Data<<<<<
339.315	-124.8
339.697	-124.8
340.079	-124.8
340.461	-37.98
340.843	-124.8
341.225	-160.54
341.607	-160.54
341.989	-53.3
342.371	-71.18
342.752	-68.62
343.134	-60.96
343.516	-55.86
343.897	18.19
344.279	18.19
344.661	41.17
345.042	53.94
345.423	102.45
345.805	94.79
346.186	84.58
346.567	110.11
346.949	107.56
347.33	161.18
347.711	219.91
348.092	209.7
348.473	237.78
348.854	286.3
349.235	350.13
349.616	286.3
349.997	383.33
350.378	332.26
350.758	314.38
351.139	373.11
351.52	339.92
351.9	408.86
352.281	368.01
352.661	339.92
353.042	347.58
353.422	306.72
353.803	390.99
354.183	314.38
354.563	373.11
354.943	411.41
355.324	380.77
355.704	419.07
356.084	477.8
356.464	413.97
356.844	347.58
357.224	419.07
357.603	390.99
357.983	396.09
358.363	439.5
358.743	411.41
359.122	411.41
359.502	454.82
359.882	411.41
360.261	401.2
360.641	306.72
361.02	352.69
361.399	291.4
361.779	424.18
362.158	373.11
362.537	329.7
362.916	357.79
363.296	413.97
363.675	357.79
364.054	378.22
364.433	347.58
364.812	360.35
365.19	281.19
365.569	329.7
365.948	360.35
366.327	350.13
366.705	342.47
367.084	301.62
367.463	388.43
367.841	316.94
368.22	383.33
368.598	352.69
368.977	357.79
369.355	350.13
369.733	339.92
370.111	378.22
370.49	383.33
370.868	360.35
371.246	347.58
371.624	362.9
372.002	314.38
372.38	332.26
372.758	368.01
373.136	345.03
373.513	357.79
373.891	416.52
374.269	352.69
374.646	411.41
375.024	380.77
375.402	370.56
375.779	396.09
376.157	368.01
376.534	342.47
376.911	378.22
377.289	332.26
377.666	390.99
378.043	401.2
378.42	362.9
378.797	401.2
379.175	424.18
379.552	413.97
379.929	373.11
380.305	368.01
380.682	337.37
381.059	388.43
381.436	434.39
381.813	419.07
382.189	370.56
382.566	334.81
382.943	396.09
383.319	347.58
383.696	360.35
384.072	327.15
384.448	375.67
384.825	390.99
385.201	350.13
385.577	337.37
385.953	431.84
386.329	375.67
386.706	434.39
387.082	332.26
387.458	390.99
387.834	373.11
388.209	390.99
388.585	388.43
388.961	327.15
389.337	388.43
389.713	368.01
390.088	342.47
390.464	406.31
390.839	406.31
391.215	442.05
391.59	396.09
391.966	439.5
392.341	411.41
392.716	339.92
393.092	434.39
393.467	345.03
393.842	421.63
394.217	352.69
394.592	419.07
394.967	429.29
395.342	401.2
395.717	408.86
396.092	373.11
396.467	380.77
396.841	406.31
397.216	357.79
397.591	406.31
397.965	332.26
398.34	408.86
398.714	360.35
399.089	390.99
399.463	370.56
399.838	434.39
400.212	339.92
400.586	352.69
400.961	429.29
401.335	408.86
401.709	327.15
402.083	352.69
402.457	393.54
402.831	411.41
403.205	365.45
403.579	360.35
403.953	373.11
404.326	378.22
404.7	403.75
405.074	442.05
405.447	378.22
405.821	388.43
406.195	426.73
406.568	342.47
406.942	429.29
407.315	401.2
407.688	436.95
408.062	431.84
408.435	352.69
408.808	390.99
409.181	449.71
409.554	375.67
409.927	398.65
410.3	398.65
410.673	347.58
411.046	416.52
411.419	436.95
411.792	421.63
412.165	493.12
412.537	401.2
412.91	401.2
413.283	452.27
413.655	454.82
414.028	419.07
414.4	398.65
414.773	398.65
415.145	454.82
415.517	398.65
415.889	396.09
416.262	355.24
416.634	452.27
417.006	378.22
417.378	385.88
417.75	334.81
418.122	406.31
418.494	413.97
418.866	431.84
419.238	401.2
419.609	360.35
419.981	304.17
420.353	419.07
420.725	429.29
421.096	383.33
421.468	403.75
421.839	462.48
422.211	375.67
422.582	396.09
422.953	357.79
423.325	398.65
423.696	434.39
424.067	493.12
424.438	426.73
424.809	436.95
425.18	411.41
425.551	373.11
425.922	378.22
426.293	390.99
426.664	396.09
427.035	357.79
427.406	398.65
427.776	452.27
428.147	419.07
428.518	406.31
428.888	385.88
429.259	477.8
429.629	439.5
429.999	396.09
430.37	375.67
430.74	406.31
431.11	396.09
431.481	319.49
431.851	334.81
432.221	375.67
432.591	421.63
432.961	426.73
433.331	403.75
433.701	477.8
434.071	370.56
434.441	465.03
434.81	447.16
435.18	424.18
435.55	416.52
435.919	449.71
436.289	403.75
436.658	431.84
437.028	429.29
437.397	482.91
437.767	401.2
438.136	444.61
438.505	424.18
438.875	401.2
439.244	546.74
439.613	470.14
439.982	505.89
440.351	373.11
440.72	311.83
441.089	362.9
441.458	447.16
441.827	459.93
442.196	398.65
442.564	434.39
442.933	383.33
443.302	380.77
443.67	416.52
444.039	442.05
444.407	373.11
444.776	480.35
445.144	444.61
445.513	421.63
445.881	434.39
446.249	388.43
446.617	431.84
446.986	485.46
447.354	424.18
447.722	419.07
448.09	350.13
448.458	413.97
448.826	510.99
449.194	454.82
449.561	396.09
449.929	408.86
450.297	459.93
450.665	426.73
451.032	459.93
451.4	375.67
451.767	447.16
452.135	431.84
452.502	421.63
452.87	401.2
453.237	421.63
453.604	482.91
453.971	439.5
454.339	449.71
454.706	403.75
455.073	424.18
455.44	470.14
455.807	375.67
456.174	431.84
456.541	373.11
456.908	383.33
457.274	442.05
457.641	385.88
458.008	444.61
458.374	490.57
458.741	403.75
459.108	342.47
459.474	380.77
459.841	352.69
460.207	406.31
460.573	398.65
460.94	439.5
461.306	475.25
461.672	444.61
462.038	406.31
462.404	375.67
462.771	452.27
463.137	398.65
463.503	413.97
463.868	426.73
464.234	431.84
464.6	439.5
464.966	385.88
465.332	393.54
465.697	436.95
466.063	465.03
466.429	457.37
466.794	406.31
467.16	495.67
467.525	426.73
467.89	393.54
468.256	477.8
468.621	375.67
468.986	419.07
469.351	375.67
469.717	388.43
470.082	442.05
470.447	447.16
470.812	411.41
471.177	431.84
471.542	467.59
471.906	419.07
472.271	477.8
472.636	419.07
473.001	413.97
473.365	390.99
473.73	482.91
474.094	457.37
474.459	467.59
474.823	424.18
475.188	373.11
475.552	393.54
475.917	436.95
476.281	457.37
476.645	393.54
477.009	439.5
477.373	434.39
477.737	421.63
478.101	488.01
478.465	434.39
478.829	436.95
479.193	444.61
479.557	454.82
479.921	416.52
480.284	429.29
480.648	431.84
481.012	419.07
481.375	408.86
481.739	426.73
482.102	355.24
482.466	408.86
482.829	442.05
483.193	396.09
483.556	334.81
483.919	436.95
484.282	324.6
484.645	465.03
485.009	401.2
485.372	416.52
485.735	390.99
486.098	390.99
486.46	403.75
486.823	337.37
487.186	426.73
487.549	485.46
487.912	424.18
488.274	459.93
488.637	421.63
488.999	401.2
489.362	475.25
489.724	408.86
490.087	493.12
490.449	373.11
490.811	439.5
491.174	393.54
491.536	401.2
491.898	357.79
492.26	383.33
492.622	426.73
492.984	449.71
493.346	454.82
493.708	452.27
494.07	403.75
494.432	426.73
494.794	426.73
495.155	408.86
495.517	362.9
495.879	357.79
496.24	370.56
496.602	431.84
496.963	482.91
497.325	357.79
497.686	385.88
498.048	383.33
498.409	393.54
498.77	413.97
499.131	390.99
499.492	401.2
499.854	403.75
500.215	383.33
500.576	368.01
500.937	393.54
501.298	424.18
501.658	388.43
502.019	368.01
502.38	355.24
502.741	368.01
503.101	429.29
503.462	375.67
503.823	380.77
504.183	477.8
504.543	462.48
504.904	488.01
505.264	385.88
505.625	459.93
505.985	401.2
506.345	398.65
506.705	447.16
507.065	370.56
507.426	411.41
507.786	424.18
508.146	360.35
508.505	396.09
508.865	342.47
509.225	444.61
509.585	444.61
509.945	459.93
510.304	447.16
510.664	434.39
511.024	393.54
511.383	403.75
511.743	406.31
512.102	411.41
512.462	449.71
512.821	368.01
513.18	373.11
513.539	416.52
513.899	398.65
514.258	452.27
514.617	462.48
514.976	403.75
515.335	447.16
515.694	365.45
516.053	342.47
516.412	398.65
516.771	465.03
517.129	390.99
517.488	426.73
517.847	439.5
518.205	396.09
518.564	383.33
518.922	419.07
519.281	426.73
519.639	436.95
519.998	442.05
520.356	398.65
520.714	442.05
521.073	462.48
521.431	411.41
521.789	362.9
522.147	442.05
522.505	429.29
522.863	459.93
523.221	398.65
523.579	378.22
523.937	393.54
524.295	370.56
524.652	406.31
525.01	380.77
525.368	452.27
525.725	480.35
526.083	429.29
526.44	416.52
526.798	424.18
527.155	454.82
527.513	375.67
527.87	375.67
528.227	452.27
528.584	398.65
528.942	434.39
529.299	385.88
529.656	380.77
530.013	413.97
530.37	396.09
530.727	439.5
531.083	385.88
531.44	332.26
531.797	429.29
532.154	426.73
532.511	370.56
532.867	421.63
533.224	383.33
533.58	421.63
533.937	396.09
534.293	470.14
534.65	419.07
535.006	408.86
535.362	362.9
535.718	416.52
536.075	370.56
536.431	401.2
536.787	355.24
537.143	398.65
537.499	375.67
537.855	424.18
538.211	342.47
538.567	396.09
538.923	426.73
539.278	436.95
539.634	373.11
539.99	352.69
540.345	390.99
540.701	375.67
541.056	416.52
541.412	444.61
541.767	470.14
542.123	388.43
542.478	375.67
542.833	431.84
543.188	429.29
543.544	472.69
543.899	436.95
544.254	421.63
544.609	383.33
544.964	426.73
545.319	419.07
545.674	528.87
546.029	419.07
546.383	383.33
546.738	416.52
547.093	406.31
547.447	365.45
547.802	385.88
548.157	490.57
548.511	426.73
548.866	375.67
549.22	442.05
549.574	421.63
549.929	452.27
550.283	447.16
550.637	426.73
550.991	403.75
551.345	419.07
551.699	408.86
552.053	426.73
552.407	411.41
552.761	465.03
553.115	365.45
553.469	365.45
553.823	390.99
554.176	429.29
554.53	403.75
554.884	360.35
555.237	610.58
555.591	383.33
555.944	390.99
556.298	393.54
556.651	403.75
557.005	396.09
557.358	439.5
557.711	449.71
558.064	368.01
558.417	408.86
558.771	482.91
559.124	431.84
559.477	503.33
559.83	416.52
560.182	365.45
560.535	439.5
560.888	424.18
561.241	419.07
561.594	431.84
561.946	421.63
562.299	436.95
562.651	444.61
563.004	503.33
563.356	413.97
563.709	424.18
564.061	355.24
564.413	352.69
564.766	408.86
565.118	368.01
565.47	459.93
565.822	442.05
566.174	393.54
566.526	385.88
566.878	426.73
567.23	355.24
567.582	419.07
567.934	470.14
568.286	416.52
568.638	406.31
568.989	421.63
569.341	355.24
569.693	421.63
570.044	482.91
570.396	360.35
570.747	362.9
571.098	375.67
571.45	373.11
571.801	459.93
572.152	403.75
572.504	398.65
572.855	442.05
573.206	398.65
573.557	334.81
573.908	337.37
574.259	380.77
574.61	408.86
574.961	436.95
575.311	442.05
575.662	390.99
576.013	434.39
576.364	380.77
576.714	416.52
577.065	475.25
577.415	408.86
577.766	362.9
578.116	419.07
578.467	401.2
578.817	459.93
579.167	411.41
579.518	419.07
579.868	396.09
580.218	470.14
580.568	396.09
580.918	398.65
581.268	370.56
581.618	457.37
581.968	365.45
582.318	401.2
582.668	401.2
583.017	413.97
583.367	477.8
583.717	457.37
584.066	393.54
584.416	368.01
584.765	373.11
585.115	426.73
585.464	447.16
585.814	388.43
586.163	436.95
586.512	408.86
586.862	385.88
587.211	406.31
587.56	482.91
587.909	477.8
588.258	380.77
588.607	401.2
588.956	467.59
589.305	424.18
589.654	442.05
590.002	475.25
590.351	398.65
590.7	436.95
591.048	408.86
591.397	449.71
591.746	301.62
592.094	401.2
592.443	457.37
592.791	436.95
593.139	421.63
593.488	419.07
593.836	403.75
594.184	339.92
594.532	411.41
594.88	454.82
595.228	375.67
595.576	413.97
595.924	408.86
596.272	413.97
596.62	424.18
596.968	380.77
597.316	362.9
597.664	416.52
598.011	439.5
598.359	368.01
598.706	419.07
599.054	434.39
599.402	396.09
599.749	396.09
600.096	401.2
600.444	365.45
600.791	393.54
601.138	421.63
601.485	436.95
601.833	434.39
602.18	426.73
602.527	393.54
602.874	388.43
603.221	431.84
603.568	449.71
603.914	416.52
604.261	495.67
604.608	385.88
604.955	403.75
605.301	396.09
605.648	406.31
605.995	378.22
606.341	411.41
606.688	398.65
607.034	380.77
607.38	401.2
607.727	462.48
608.073	383.33
608.419	406.31
608.765	413.97
609.112	373.11
609.458	362.9
609.804	439.5
610.15	365.45
610.496	480.35
610.842	408.86
611.187	419.07
611.533	431.84
611.879	482.91
612.225	452.27
612.57	488.01
612.916	416.52
613.261	373.11
613.607	347.58
613.952	459.93
614.298	442.05
614.643	406.31
614.989	413.97
615.334	416.52
615.679	462.48
616.024	347.58
616.369	401.2
616.714	413.97
617.059	385.88
617.404	419.07
617.749	426.73
618.094	429.29
618.439	352.69
618.784	380.77
619.129	385.88
619.473	426.73
619.818	447.16
620.163	449.71
620.507	408.86
620.852	452.27
621.196	390.99
621.54	339.92
621.885	390.99
622.229	452.27
622.573	408.86
622.918	439.5
623.262	429.29
623.606	419.07
623.95	419.07
624.294	421.63
624.638	411.41
624.982	416.52
625.326	416.52
625.67	421.63
626.013	388.43
626.357	459.93
626.701	452.27
627.044	406.31
627.388	439.5
627.731	431.84
628.075	401.2
628.418	419.07
628.762	365.45
629.105	334.81
629.448	413.97
629.792	424.18
630.135	396.09
630.478	396.09
630.821	488.01
631.164	424.18
631.507	373.11
631.85	375.67
632.193	375.67
632.536	431.84
632.879	408.86
633.221	403.75
633.564	411.41
633.907	411.41
634.249	373.11
634.592	380.77
634.935	403.75
635.277	373.11
635.619	357.79
635.962	332.26
636.304	337.37
636.646	337.37
636.989	429.29
637.331	396.09
637.673	413.97
638.015	477.8
638.357	365.45
638.699	416.52
639.041	406.31
639.383	454.82
639.725	467.59
640.067	360.35
640.408	390.99
640.75	385.88
641.092	393.54
641.433	426.73
641.775	413.97
642.116	403.75
642.458	401.2
642.799	393.54
643.141	426.73
643.482	403.75
643.823	378.22
644.164	454.82
644.506	531.42
644.847	380.77
645.188	398.65
645.529	442.05
645.87	393.54
646.211	375.67
646.552	393.54
646.893	385.88
647.233	403.75
647.574	398.65
647.915	390.99
648.255	383.33
648.596	360.35
648.937	398.65
649.277	385.88
649.618	413.97
649.958	398.65
650.298	424.18
650.639	406.31
650.979	370.56
651.319	449.71
651.659	334.81
651.999	378.22
652.339	416.52
652.679	459.93
653.019	477.8
653.359	380.77
653.699	339.92
654.039	360.35
654.379	416.52
654.719	385.88
655.058	419.07
655.398	408.86
655.737	465.03
656.077	416.52
656.416	426.73
656.756	436.95
657.095	442.05
657.435	342.47
657.774	426.73
658.113	457.37
658.452	467.59
658.792	459.93
659.131	403.75
659.47	406.31
659.809	401.2
660.148	380.77
660.487	421.63
660.826	398.65
661.164	355.24
661.503	419.07
661.842	439.5
662.181	459.93
662.519	385.88
662.858	442.05
663.196	396.09
663.535	421.63
663.873	370.56
664.212	355.24
664.55	368.01
664.888	396.09
665.226	424.18
665.565	419.07
665.903	590.15
666.241	472.69
666.579	385.88
666.917	434.39
667.255	396.09
667.593	452.27
667.931	398.65
668.268	436.95
668.606	398.65
668.944	416.52
669.282	403.75
669.619	421.63
669.957	431.84
670.294	375.67
670.632	288.85
670.969	388.43
671.307	424.18
671.644	413.97
671.981	396.09
672.318	378.22
672.656	457.37
672.993	434.39
673.33	403.75
673.667	401.2
674.004	431.84
674.341	426.73
674.678	439.5
675.015	398.65
675.351	408.86
675.688	373.11
676.025	406.31
676.362	411.41
676.698	375.67
677.035	426.73
677.371	419.07
677.708	518.65
678.044	413.97
678.38	447.16
678.717	416.52
679.053	442.05
679.389	442.05
679.725	439.5
680.062	467.59
680.398	436.95
680.734	408.86
681.07	357.79
681.406	431.84
681.742	396.09
682.077	375.67
682.413	406.31
682.749	431.84
683.085	347.58
683.42	380.77
683.756	416.52
684.091	375.67
684.427	413.97
684.762	436.95
685.098	434.39
685.433	426.73
685.768	411.41
686.104	434.39
686.439	370.56
686.774	449.71
687.109	411.41
687.444	408.86
687.779	449.71
688.114	413.97
688.449	442.05
688.784	398.65
689.119	442.05
689.454	442.05
689.789	398.65
690.123	357.79
690.458	442.05
690.792	378.22
691.127	419.07
691.461	360.35
691.796	370.56
692.13	403.75
692.465	416.52
692.799	365.45
693.133	439.5
693.467	332.26
693.802	357.79
694.136	406.31
694.47	401.2
694.804	396.09
695.138	393.54
695.472	401.2
695.806	416.52
696.139	424.18
696.473	401.2
696.807	413.97
697.141	393.54
697.474	406.31
697.808	373.11
698.141	332.26
698.475	393.54
698.808	393.54
699.142	334.81
699.475	378.22
699.808	347.58
700.142	449.71
700.475	368.01
700.808	406.31
701.141	411.41
701.474	360.35
701.807	390.99
702.14	370.56
702.473	406.31
702.806	322.04
703.139	403.75
703.472	424.18
703.804	322.04
704.137	375.67
704.47	444.61
704.802	398.65
705.135	393.54
705.467	413.97
705.8	457.37
706.132	342.47
706.464	426.73
706.797	378.22
707.129	357.79
707.461	421.63
707.793	403.75
708.125	411.41
708.457	426.73
708.789	436.95
709.121	429.29
709.453	434.39
709.785	337.37
710.117	380.77
710.449	319.49
710.781	365.45
711.112	403.75
711.444	436.95
711.775	454.82
712.107	408.86
712.438	396.09
712.77	393.54
713.101	411.41
713.433	352.69
713.764	385.88
714.095	411.41
714.426	368.01
714.757	388.43
715.089	388.43
715.42	488.01
715.751	439.5
716.082	396.09
716.412	314.38
716.743	406.31
717.074	431.84
717.405	467.59
717.736	360.35
718.066	380.77
718.397	452.27
718.727	408.86
719.058	426.73
719.388	398.65
719.719	444.61
720.049	403.75
720.38	406.31
720.71	416.52
721.04	416.52
721.37	362.9
721.7	470.14
722.031	380.77
722.361	355.24
722.691	431.84
723.021	424.18
723.35	401.2
723.68	413.97
724.01	452.27
724.34	388.43
724.67	465.03
724.999	408.86
725.329	383.33
725.658	378.22
725.988	355.24
726.317	419.07
726.647	426.73
726.976	439.5
727.306	426.73
727.635	442.05
727.964	426.73
728.293	385.88
728.622	416.52
728.952	411.41
729.281	388.43
729.61	436.95
729.939	385.88
730.267	370.56
730.596	368.01
730.925	370.56
731.254	350.13
731.583	375.67
731.911	454.82
732.24	426.73
732.568	449.71
732.897	378.22
733.225	380.77
733.554	408.86
733.882	401.2
734.21	350.13
734.539	442.05
734.867	398.65
735.195	380.77
735.523	444.61
735.851	429.29
736.179	429.29
736.507	401.2
736.835	465.03
737.163	449.71
737.491	406.31
737.819	390.99
738.147	439.5
738.474	424.18
738.802	401.2
739.13	390.99
739.457	368.01
739.785	360.35
740.112	439.5
740.44	398.65
740.767	413.97
741.094	406.31
741.422	403.75
741.749	375.67
742.076	457.37
742.403	413.97
742.73	401.2
743.057	434.39
743.384	385.88
743.711	421.63
744.038	459.93
744.365	403.75
744.692	398.65
745.018	421.63
745.345	495.67
745.672	457.37
745.998	403.75
746.325	406.31
746.651	459.93
746.978	373.11
747.304	365.45
747.631	352.69
747.957	350.13
748.283	401.2
748.61	480.35
748.936	477.8
749.262	424.18
749.588	362.9
749.914	388.43
750.24	396.09
750.566	324.6
750.892	444.61
751.218	347.58
751.543	385.88
751.869	416.52
752.195	355.24
752.521	413.97
752.846	370.56
753.172	421.63
753.497	457.37
753.823	390.99
754.148	373.11
754.473	403.75
754.799	408.86
755.124	360.35
755.449	398.65
755.774	419.07
756.1	449.71
756.425	442.05
756.75	378.22
757.075	421.63
757.4	498.23
757.724	467.59
758.049	429.29
758.374	431.84
758.699	362.9
759.024	426.73
759.348	401.2
759.673	416.52
759.997	347.58
760.322	419.07
760.646	447.16
760.971	424.18
761.295	370.56
761.619	406.31
761.944	467.59
762.268	421.63
762.592	470.14
762.916	444.61
763.24	426.73
763.564	477.8
763.888	546.74
764.212	518.65
764.536	531.42
764.86	554.4
765.184	651.43
765.508	684.62
765.831	702.5
766.155	973.16
766.478	730.59
766.802	763.78
767.126	799.53
767.449	835.27
767.772	894
768.096	888.89
768.419	886.34
768.742	965.5
769.066	1008.9
769.389	1016.56
769.712	1075.29
770.035	1039.54
770.358	1164.66
770.681	1197.85
771.004	1200.41
771.327	1282.11
771.65	1371.48
771.972	1361.27
772.295	1414.89
772.618	1435.32
772.941	1409.78
773.263	1552.77
773.586	1542.56
773.908	1649.8
774.231	1721.3
774.553	1785.13
774.875	1917.91
775.198	1948.55
775.52	1905.14
775.842	1803
776.164	1759.6
776.487	1825.98
776.809	1892.37
777.131	1976.63
777.453	2043.02
777.775	1986.85
778.096	2081.32
778.418	2022.59
778.74	2027.7
779.062	2117.07
779.384	2242.19
779.705	2505.18
780.027	2826.91
780.348	2706.9
780.67	2696.69
780.991	2717.11
781.313	3043.95
781.634	3128.21
781.955	2969.9
782.277	2898.4
782.598	2888.19
782.919	2888.19
783.24	2931.6
783.561	2918.83
783.882	2872.87
784.203	3107.78
784.524	2903.51
784.845	2791.16
785.166	2663.49
785.487	2722.22
785.807	2650.73
786.128	2614.98
786.449	2747.75
786.769	2770.73
787.09	2798.82
787.41	2992.88
787.731	3235.45
788.051	3424.4
788.372	3447.38
788.692	3715.48
789.012	3863.58
789.332	3894.22
789.653	4034.66
789.973	4111.26
790.293	4037.21
790.613	3437.17
790.933	3380.99
791.253	3194.6
791.573	3033.73
791.893	2977.56
792.212	2860.1
792.532	2780.95
792.852	2607.32
793.171	2556.25
793.491	2512.84
793.811	2515.4
794.13	2548.59
794.45	2609.87
794.769	2553.7
795.088	2714.56
795.408	2819.25
795.727	3059.27
796.046	2926.49
796.365	2750.31
796.684	2556.25
797.004	2586.89
797.323	2620.09
797.642	2972.45
797.96	2849.89
798.279	2819.25
798.598	2798.82
798.917	2819.25
799.236	2505.18
799.554	2387.73
