Data from 2025-12-03_xpw_interference_micrometer_634_reference_FLMS141361__112__362.txt Node

Date: Wed Dec 03 15:51:24 MST 2025
User: james
Spectrometer: FLMS14136
Trigger mode: 0
Integration Time (sec): 1.000000E-1
Scans to average: 1
Electric dark correction enabled: true
Nonlinearity correction enabled: false
Boxcar width: 0
XAxis mode: Wavelengths
Number of Pixels in Spectrum: 2048
>>>>>Begin Spectral Data<<<<<
339.315	-58.57
339.697	-58.57
340.079	-58.57
340.461	-127.51
340.843	-109.64
341.225	-145.38
341.607	-135.17
341.989	-119.85
342.371	-68.78
342.752	-79
343.134	-61.12
343.516	-35.59
343.897	-2.39
344.279	-33.03
344.661	53.78
345.042	46.12
345.423	53.78
345.805	81.87
346.186	158.47
346.567	120.17
346.949	166.13
347.33	161.02
347.711	107.4
348.092	186.56
348.473	204.43
348.854	263.16
349.235	245.28
349.616	278.48
349.997	349.97
350.378	316.78
350.758	240.18
351.139	250.39
351.52	298.9
351.9	344.87
352.281	362.74
352.661	416.36
353.042	334.65
353.422	421.47
353.803	454.66
354.183	441.89
354.563	367.85
354.943	332.1
355.324	360.19
355.704	401.04
356.084	370.4
356.464	316.78
356.844	344.87
357.224	472.53
357.603	431.68
357.983	411.25
358.363	434.23
358.743	429.13
359.122	344.87
359.502	293.8
359.882	411.25
360.261	298.9
360.641	388.27
361.02	321.89
361.399	378.06
361.779	283.58
362.158	339.76
362.537	291.24
362.916	401.04
363.296	316.78
363.675	408.7
364.054	390.83
364.433	375.51
364.812	329.55
365.19	352.53
365.569	286.14
365.948	421.47
366.327	383.17
366.705	365.29
367.084	309.12
367.463	393.38
367.841	411.25
368.22	329.55
368.598	332.1
368.977	304.01
369.355	324.44
369.733	339.76
370.111	334.65
370.49	365.29
370.868	362.74
371.246	321.89
371.624	360.19
372.002	362.74
372.38	357.63
372.758	365.29
373.136	268.26
373.513	293.8
373.891	406.15
374.269	367.85
374.646	378.06
375.024	355.08
375.402	326.99
375.779	367.85
376.157	321.89
376.534	337.21
376.911	326.99
377.289	424.02
377.666	301.46
378.043	406.15
378.42	347.42
378.797	367.85
379.175	365.29
379.552	390.83
379.929	434.23
380.305	429.13
380.682	362.74
381.059	393.38
381.436	334.65
381.813	304.01
382.189	326.99
382.566	329.55
382.943	344.87
383.319	286.14
383.696	357.63
384.072	357.63
384.448	370.4
384.825	449.55
385.201	347.42
385.577	398.49
385.953	383.17
386.329	395.93
386.706	362.74
387.082	362.74
387.458	337.21
387.834	370.4
388.209	332.1
388.585	385.72
388.961	385.72
389.337	367.85
389.713	355.08
390.088	319.33
390.464	332.1
390.839	383.17
391.215	378.06
391.59	398.49
391.966	339.76
392.341	375.51
392.716	360.19
393.092	388.27
393.467	388.27
393.842	390.83
394.217	383.17
394.592	314.23
394.967	403.59
395.342	408.7
395.717	324.44
396.092	273.37
396.467	357.63
396.841	375.51
397.216	383.17
397.591	372.95
397.965	286.14
398.34	393.38
398.714	332.1
399.089	411.25
399.463	319.33
399.838	383.17
400.212	355.08
400.586	314.23
400.961	390.83
401.335	339.76
401.709	385.72
402.083	408.7
402.457	362.74
402.831	355.08
403.205	406.15
403.579	403.59
403.953	357.63
404.326	349.97
404.7	429.13
405.074	398.49
405.447	339.76
405.821	362.74
406.195	355.08
406.568	398.49
406.942	418.91
407.315	349.97
407.688	344.87
408.062	378.06
408.435	342.31
408.808	342.31
409.181	436.79
409.554	383.17
409.927	378.06
410.3	380.61
410.673	365.29
411.046	367.85
411.419	365.29
411.792	418.91
412.165	395.93
412.537	321.89
412.91	383.17
413.283	398.49
413.655	316.78
414.028	352.53
414.4	406.15
414.773	360.19
415.145	434.23
415.517	424.02
415.889	447
416.262	357.63
416.634	355.08
417.006	421.47
417.378	406.15
417.75	408.7
418.122	393.38
418.494	352.53
418.866	339.76
419.238	357.63
419.609	393.38
419.981	365.29
420.353	324.44
420.725	360.19
421.096	332.1
421.468	324.44
421.839	424.02
422.211	367.85
422.582	416.36
422.953	431.68
423.325	429.13
423.696	452.11
424.067	454.66
424.438	332.1
424.809	339.76
425.18	321.89
425.551	365.29
425.922	416.36
426.293	395.93
426.664	390.83
427.035	380.61
427.406	342.31
427.776	429.13
428.147	372.95
428.518	355.08
428.888	365.29
429.259	370.4
429.629	469.98
429.999	365.29
430.37	413.81
430.74	418.91
431.11	355.08
431.481	367.85
431.851	434.23
432.221	365.29
432.591	352.53
432.961	398.49
433.331	378.06
433.701	380.61
434.071	362.74
434.441	411.25
434.81	383.17
435.18	383.17
435.55	411.25
435.919	390.83
436.289	395.93
436.658	360.19
437.028	365.29
437.397	344.87
437.767	395.93
438.136	357.63
438.505	426.57
438.875	398.49
439.244	408.7
439.613	372.95
439.982	372.95
440.351	378.06
440.72	372.95
441.089	362.74
441.458	406.15
441.827	477.64
442.196	383.17
442.564	441.89
442.933	395.93
443.302	429.13
443.67	418.91
444.039	375.51
444.407	349.97
444.776	316.78
445.144	332.1
445.513	418.91
445.881	383.17
446.249	355.08
446.617	408.7
446.986	426.57
447.354	418.91
447.722	411.25
448.09	444.45
448.458	449.55
448.826	531.26
449.194	480.19
449.561	467.43
449.929	452.11
450.297	469.98
450.665	475.09
451.032	347.42
451.4	362.74
451.767	411.25
452.135	439.34
452.502	421.47
452.87	398.49
453.237	462.32
453.604	411.25
453.971	424.02
454.339	472.53
454.706	357.63
455.073	319.33
455.44	385.72
455.807	370.4
456.174	421.47
456.541	408.7
456.908	360.19
457.274	332.1
457.641	385.72
458.008	411.25
458.374	378.06
458.741	401.04
459.108	390.83
459.474	413.81
459.841	406.15
460.207	367.85
460.573	406.15
460.94	411.25
461.306	339.76
461.672	357.63
462.038	372.95
462.404	388.27
462.771	411.25
463.137	395.93
463.503	372.95
463.868	462.32
464.234	388.27
464.6	375.51
464.966	418.91
465.332	416.36
465.697	447
466.063	378.06
466.429	413.81
466.794	434.23
467.16	459.77
467.525	393.38
467.89	434.23
468.256	431.68
468.621	431.68
468.986	372.95
469.351	370.4
469.717	375.51
470.082	385.72
470.447	452.11
470.812	401.04
471.177	329.55
471.542	372.95
471.906	378.06
472.271	406.15
472.636	390.83
473.001	380.61
473.365	375.51
473.73	337.21
474.094	418.91
474.459	390.83
474.823	421.47
475.188	418.91
475.552	408.7
475.917	429.13
476.281	431.68
476.645	447
477.009	429.13
477.373	388.27
477.737	444.45
478.101	401.04
478.465	429.13
478.829	362.74
479.193	444.45
479.557	385.72
479.921	380.61
480.284	362.74
480.648	426.57
481.012	370.4
481.375	378.06
481.739	421.47
482.102	380.61
482.466	393.38
482.829	482.75
483.193	398.49
483.556	441.89
483.919	401.04
484.282	452.11
484.645	416.36
485.009	418.91
485.372	390.83
485.735	360.19
486.098	390.83
486.46	326.99
486.823	429.13
487.186	355.08
487.549	395.93
487.912	406.15
488.274	398.49
488.637	378.06
488.999	388.27
489.362	403.59
489.724	403.59
490.087	429.13
490.449	372.95
490.811	388.27
491.174	360.19
491.536	406.15
491.898	378.06
492.26	349.97
492.622	372.95
492.984	349.97
493.346	347.42
493.708	434.23
494.07	401.04
494.432	370.4
494.794	380.61
495.155	403.59
495.517	447
495.879	426.57
496.24	447
496.602	416.36
496.963	416.36
497.325	352.53
497.686	413.81
498.048	418.91
498.409	429.13
498.77	475.09
499.131	452.11
499.492	431.68
499.854	408.7
500.215	347.42
500.576	370.4
500.937	370.4
501.298	390.83
501.658	378.06
502.019	418.91
502.38	380.61
502.741	334.65
503.101	436.79
503.462	403.59
503.823	372.95
504.183	441.89
504.543	357.63
504.904	418.91
505.264	431.68
505.625	411.25
505.985	406.15
506.345	444.45
506.705	439.34
507.065	380.61
507.426	401.04
507.786	393.38
508.146	441.89
508.505	367.85
508.865	462.32
509.225	452.11
509.585	503.18
509.945	462.32
510.304	439.34
510.664	436.79
511.024	457.21
511.383	334.65
511.743	411.25
512.102	383.17
512.462	444.45
512.821	444.45
513.18	367.85
513.539	462.32
513.899	426.57
514.258	395.93
514.617	431.68
514.976	372.95
515.335	406.15
515.694	393.38
516.053	388.27
516.412	370.4
516.771	395.93
517.129	429.13
517.488	411.25
517.847	398.49
518.205	370.4
518.564	352.53
518.922	424.02
519.281	314.23
519.639	454.66
519.998	370.4
520.356	360.19
520.714	334.65
521.073	413.81
521.431	375.51
521.789	390.83
522.147	375.51
522.505	388.27
522.863	472.53
523.221	398.49
523.579	406.15
523.937	403.59
524.295	362.74
524.652	421.47
525.01	429.13
525.368	429.13
525.725	436.79
526.083	401.04
526.44	314.23
526.798	352.53
527.155	342.31
527.513	398.49
527.87	426.57
528.227	383.17
528.584	452.11
528.942	416.36
529.299	403.59
529.656	383.17
530.013	380.61
530.37	406.15
530.727	398.49
531.083	447
531.44	447
531.797	395.93
532.154	383.17
532.511	403.59
532.867	332.1
533.224	352.53
533.58	291.24
533.937	380.61
534.293	406.15
534.65	390.83
535.006	426.57
535.362	385.72
535.718	349.97
536.075	367.85
536.431	411.25
536.787	408.7
537.143	408.7
537.499	385.72
537.855	342.31
538.211	411.25
538.567	372.95
538.923	362.74
539.278	388.27
539.634	355.08
539.99	380.61
540.345	349.97
540.701	390.83
541.056	398.49
541.412	418.91
541.767	416.36
542.123	370.4
542.478	416.36
542.833	362.74
543.188	418.91
543.544	418.91
543.899	416.36
544.254	403.59
544.609	431.68
544.964	367.85
545.319	413.81
545.674	362.74
546.029	441.89
546.383	452.11
546.738	388.27
547.093	349.97
547.447	380.61
547.802	344.87
548.157	411.25
548.511	372.95
548.866	370.4
549.22	349.97
549.574	434.23
549.929	411.25
550.283	406.15
550.637	390.83
550.991	441.89
551.345	385.72
551.699	452.11
552.053	454.66
552.407	360.19
552.761	395.93
553.115	429.13
553.469	457.21
553.823	431.68
554.176	416.36
554.53	383.17
554.884	357.63
555.237	643.61
555.591	385.72
555.944	480.19
556.298	324.44
556.651	485.3
557.005	418.91
557.358	357.63
557.711	347.42
558.064	413.81
558.417	355.08
558.771	469.98
559.124	418.91
559.477	408.7
559.83	426.57
560.182	383.17
560.535	362.74
560.888	372.95
561.241	413.81
561.594	403.59
561.946	365.29
562.299	380.61
562.651	380.61
563.004	334.65
563.356	421.47
563.709	378.06
564.061	406.15
564.413	360.19
564.766	398.49
565.118	385.72
565.47	424.02
565.822	403.59
566.174	416.36
566.526	439.34
566.878	424.02
567.23	467.43
567.582	426.57
567.934	362.74
568.286	464.87
568.638	441.89
568.989	429.13
569.341	469.98
569.693	452.11
570.044	467.43
570.396	406.15
570.747	418.91
571.098	418.91
571.45	421.47
571.801	408.7
572.152	408.7
572.504	439.34
572.855	469.98
573.206	365.29
573.557	393.38
573.908	398.49
574.259	424.02
574.61	388.27
574.961	449.55
575.311	487.85
575.662	388.27
576.013	411.25
576.364	352.53
576.714	424.02
577.065	342.31
577.415	378.06
577.766	375.51
578.116	477.64
578.467	411.25
578.817	375.51
579.167	352.53
579.518	429.13
579.868	429.13
580.218	390.83
580.568	357.63
580.918	395.93
581.268	413.81
581.618	398.49
581.968	421.47
582.318	403.59
582.668	398.49
583.017	380.61
583.367	439.34
583.717	319.33
584.066	431.68
584.416	403.59
584.765	334.65
585.115	352.53
585.464	431.68
585.814	380.61
586.163	380.61
586.512	357.63
586.862	349.97
587.211	360.19
587.56	385.72
587.909	467.43
588.258	429.13
588.607	426.57
588.956	365.29
589.305	439.34
589.654	372.95
590.002	398.49
590.351	388.27
590.7	367.85
591.048	383.17
591.397	360.19
591.746	337.21
592.094	424.02
592.443	413.81
592.791	395.93
593.139	385.72
593.488	332.1
593.836	406.15
594.184	441.89
594.532	388.27
594.88	408.7
595.228	426.57
595.576	383.17
595.924	431.68
596.272	408.7
596.62	429.13
596.968	439.34
597.316	349.97
597.664	365.29
598.011	388.27
598.359	372.95
598.706	372.95
599.054	401.04
599.402	378.06
599.749	408.7
600.096	344.87
600.444	406.15
600.791	380.61
601.138	418.91
601.485	449.55
601.833	393.38
602.18	393.38
602.527	344.87
602.874	413.81
603.221	362.74
603.568	441.89
603.914	457.21
604.261	413.81
604.608	431.68
604.955	370.4
605.301	385.72
605.648	378.06
605.995	395.93
606.341	319.33
606.688	380.61
607.034	372.95
607.38	454.66
607.727	424.02
608.073	395.93
608.419	390.83
608.765	334.65
609.112	365.29
609.458	406.15
609.804	434.23
610.15	385.72
610.496	388.27
610.842	439.34
611.187	424.02
611.533	421.47
611.879	429.13
612.225	418.91
612.57	444.45
612.916	411.25
613.261	421.47
613.607	403.59
613.952	413.81
614.298	329.55
614.643	360.19
614.989	457.21
615.334	416.36
615.679	380.61
616.024	365.29
616.369	380.61
616.714	449.55
617.059	444.45
617.404	329.55
617.749	367.85
618.094	324.44
618.439	403.59
618.784	380.61
619.129	421.47
619.473	378.06
619.818	362.74
620.163	477.64
620.507	431.68
620.852	411.25
621.196	337.21
621.54	447
621.885	439.34
622.229	426.57
622.573	441.89
622.918	372.95
623.262	378.06
623.606	378.06
623.95	383.17
624.294	401.04
624.638	390.83
624.982	418.91
625.326	480.19
625.67	401.04
626.013	457.21
626.357	441.89
626.701	342.31
627.044	413.81
627.388	355.08
627.731	454.66
628.075	452.11
628.418	395.93
628.762	436.79
629.105	464.87
629.448	452.11
629.792	395.93
630.135	424.02
630.478	383.17
630.821	416.36
631.164	431.68
631.507	398.49
631.85	380.61
632.193	349.97
632.536	372.95
632.879	349.97
633.221	398.49
633.564	508.28
633.907	401.04
634.249	406.15
634.592	390.83
634.935	413.81
635.277	378.06
635.619	385.72
635.962	378.06
636.304	370.4
636.646	447
636.989	393.38
637.331	388.27
637.673	398.49
638.015	375.51
638.357	347.42
638.699	436.79
639.041	403.59
639.383	464.87
639.725	388.27
640.067	342.31
640.408	449.55
640.75	349.97
641.092	319.33
641.433	398.49
641.775	385.72
642.116	393.38
642.458	395.93
642.799	385.72
643.141	352.53
643.482	332.1
643.823	441.89
644.164	439.34
644.506	475.09
644.847	441.89
645.188	467.43
645.529	421.47
645.87	388.27
646.211	355.08
646.552	411.25
646.893	372.95
647.233	365.29
647.574	418.91
647.915	393.38
648.255	472.53
648.596	385.72
648.937	398.49
649.277	454.66
649.618	477.64
649.958	395.93
650.298	418.91
650.639	398.49
650.979	411.25
651.319	454.66
651.659	413.81
651.999	418.91
652.339	418.91
652.679	365.29
653.019	344.87
653.359	390.83
653.699	439.34
654.039	367.85
654.379	413.81
654.719	367.85
655.058	441.89
655.398	439.34
655.737	464.87
656.077	416.36
656.416	332.1
656.756	385.72
657.095	378.06
657.435	304.01
657.774	413.81
658.113	426.57
658.452	352.53
658.792	434.23
659.131	332.1
659.47	390.83
659.809	475.09
660.148	421.47
660.487	365.29
660.826	452.11
661.164	344.87
661.503	436.79
661.842	395.93
662.181	398.49
662.519	380.61
662.858	403.59
663.196	311.67
663.535	362.74
663.873	352.53
664.212	380.61
664.55	406.15
664.888	421.47
665.226	411.25
665.565	457.21
665.903	605.31
666.241	418.91
666.579	452.11
666.917	406.15
667.255	378.06
667.593	426.57
667.931	393.38
668.268	385.72
668.606	403.59
668.944	357.63
669.282	393.38
669.619	375.51
669.957	383.17
670.294	380.61
670.632	424.02
670.969	406.15
671.307	367.85
671.644	355.08
671.981	401.04
672.318	365.29
672.656	418.91
672.993	408.7
673.33	357.63
673.667	401.04
674.004	362.74
674.341	321.89
674.678	408.7
675.015	424.02
675.351	390.83
675.688	395.93
676.025	401.04
676.362	393.38
676.698	401.04
677.035	411.25
677.371	434.23
677.708	324.44
678.044	360.19
678.38	360.19
678.717	401.04
679.053	421.47
679.389	434.23
679.725	457.21
680.062	385.72
680.398	401.04
680.734	426.57
681.07	380.61
681.406	383.17
681.742	383.17
682.077	401.04
682.413	449.55
682.749	395.93
683.085	355.08
683.42	395.93
683.756	375.51
684.091	383.17
684.427	357.63
684.762	439.34
685.098	321.89
685.433	347.42
685.768	416.36
686.104	372.95
686.439	408.7
686.774	426.57
687.109	413.81
687.444	403.59
687.779	406.15
688.114	337.21
688.449	403.59
688.784	426.57
689.119	390.83
689.454	337.21
689.789	372.95
690.123	349.97
690.458	413.81
690.792	447
691.127	398.49
691.461	441.89
691.796	365.29
692.13	375.51
692.465	429.13
692.799	347.42
693.133	344.87
693.467	286.14
693.802	408.7
694.136	449.55
694.47	398.49
694.804	372.95
695.138	388.27
695.472	332.1
695.806	347.42
696.139	388.27
696.473	360.19
696.807	332.1
697.141	441.89
697.474	418.91
697.808	342.31
698.141	390.83
698.475	360.19
698.808	426.57
699.142	378.06
699.475	385.72
699.808	339.76
700.142	365.29
700.475	398.49
700.808	378.06
701.141	306.56
701.474	416.36
701.807	337.21
702.14	372.95
702.473	326.99
702.806	413.81
703.139	342.31
703.472	408.7
703.804	375.51
704.137	372.95
704.47	380.61
704.802	360.19
705.135	316.78
705.467	367.85
705.8	349.97
706.132	339.76
706.464	431.68
706.797	383.17
707.129	393.38
707.461	314.23
707.793	375.51
708.125	472.53
708.457	365.29
708.789	344.87
709.121	398.49
709.453	444.45
709.785	426.57
710.117	383.17
710.449	357.63
710.781	408.7
711.112	380.61
711.444	449.55
711.775	401.04
712.107	352.53
712.438	403.59
712.77	401.04
713.101	357.63
713.433	360.19
713.764	339.76
714.095	314.23
714.426	365.29
714.757	393.38
715.089	421.47
715.42	375.51
715.751	408.7
716.082	408.7
716.412	431.68
716.743	462.32
717.074	398.49
717.405	372.95
717.736	413.81
718.066	406.15
718.397	426.57
718.727	398.49
719.058	411.25
719.388	395.93
719.719	362.74
720.049	367.85
720.38	413.81
720.71	365.29
721.04	388.27
721.37	375.51
721.7	372.95
722.031	375.51
722.361	444.45
722.691	429.13
723.021	413.81
723.35	390.83
723.68	332.1
724.01	349.97
724.34	408.7
724.67	375.51
724.999	395.93
725.329	447
725.658	370.4
725.988	413.81
726.317	403.59
726.647	357.63
726.976	372.95
727.306	452.11
727.635	380.61
727.964	472.53
728.293	418.91
728.622	492.96
728.952	421.47
729.281	406.15
729.61	370.4
729.939	301.46
730.267	380.61
730.596	406.15
730.925	403.59
731.254	385.72
731.583	452.11
731.911	411.25
732.24	413.81
732.568	395.93
732.897	444.45
733.225	390.83
733.554	360.19
733.882	349.97
734.21	429.13
734.539	375.51
734.867	421.47
735.195	324.44
735.523	370.4
735.851	418.91
736.179	367.85
736.507	365.29
736.835	337.21
737.163	334.65
737.491	372.95
737.819	372.95
738.147	388.27
738.474	393.38
738.802	424.02
739.13	395.93
739.457	401.04
739.785	342.31
740.112	406.15
740.44	457.21
740.767	413.81
741.094	436.79
741.422	421.47
741.749	352.53
742.076	378.06
742.403	395.93
742.73	434.23
743.057	380.61
743.384	416.36
743.711	403.59
744.038	378.06
744.365	426.57
744.692	380.61
745.018	485.3
745.345	416.36
745.672	357.63
745.998	378.06
746.325	406.15
746.651	355.08
746.978	388.27
747.304	500.62
747.631	383.17
747.957	469.98
748.283	408.7
748.61	393.38
748.936	418.91
749.262	395.93
749.588	403.59
749.914	398.49
750.24	370.4
750.566	398.49
750.892	418.91
751.218	380.61
751.543	316.78
751.869	406.15
752.195	424.02
752.521	357.63
752.846	380.61
753.172	352.53
753.497	378.06
753.823	426.57
754.148	408.7
754.473	436.79
754.799	411.25
755.124	429.13
755.449	347.42
755.774	418.91
756.1	408.7
756.425	385.72
756.75	378.06
757.075	398.49
757.4	475.09
757.724	383.17
758.049	408.7
758.374	408.7
758.699	337.21
759.024	385.72
759.348	375.51
759.673	429.13
759.997	393.38
760.322	398.49
760.646	398.49
760.971	444.45
761.295	413.81
761.619	406.15
761.944	464.87
762.268	429.13
762.592	426.57
762.916	421.47
763.24	449.55
763.564	467.43
763.888	500.62
764.212	582.33
764.536	472.53
764.86	536.37
765.184	561.9
765.508	577.22
765.831	710
766.155	906.61
766.478	743.19
766.802	704.89
767.126	758.51
767.449	773.83
767.772	827.45
768.096	950.02
768.419	904.06
768.742	896.4
769.066	1021.51
769.389	1087.9
769.712	1103.22
770.035	1029.17
770.358	1093.01
770.681	1123.65
771.004	1218.12
771.327	1246.21
771.65	1261.53
771.972	1302.38
772.295	1256.42
772.618	1315.15
772.941	1368.77
773.263	1386.64
773.586	1473.46
773.908	1629.21
774.231	1639.43
774.553	1664.96
774.875	1716.03
775.198	1739.01
775.52	1769.65
775.842	1713.48
776.164	1777.31
776.487	1818.16
776.809	1764.54
777.131	1836.04
777.453	1731.35
777.775	1828.38
778.096	1956.05
778.418	1930.51
778.74	1884.55
779.062	1927.96
779.384	2165.42
779.705	2433.53
780.027	2487.15
780.348	2479.49
780.67	2456.51
780.991	2619.93
781.313	2821.64
781.634	2954.42
781.955	2783.34
782.277	2785.89
782.598	2627.59
782.919	2612.27
783.24	2770.57
783.561	2739.93
783.882	2737.38
784.203	2775.68
784.524	2752.7
784.845	2673.55
785.166	2433.53
785.487	2507.58
785.807	2517.79
786.128	2413.1
786.449	2451.4
786.769	2408
787.09	2607.16
787.41	2816.54
787.731	3082.09
788.051	3145.92
788.372	3273.59
788.692	3541.69
789.012	3544.25
789.332	3569.78
789.653	3789.37
789.973	3924.7
790.293	3906.83
790.613	3360.41
790.933	3092.3
791.253	3079.53
791.573	2928.88
791.893	2755.25
792.212	2711.85
792.532	2502.47
792.852	2474.38
793.171	2379.91
793.491	2323.73
793.811	2413.1
794.13	2502.47
794.45	2367.14
794.769	2298.2
795.088	2627.59
795.408	2688.87
795.727	2798.66
796.046	2716.95
796.365	2573.96
796.684	2387.57
797.004	2382.46
797.323	2502.47
797.642	2747.59
797.96	2783.34
798.279	2757.81
798.598	2642.91
798.917	2492.26
799.236	2430.98
799.554	2224.15
