Data from 2025-12-03_xpw_interference_micrometer_634_reference_FLMS141361__122__372.txt Node

Date: Wed Dec 03 15:51:25 MST 2025
User: james
Spectrometer: FLMS14136
Trigger mode: 0
Integration Time (sec): 1.000000E-1
Scans to average: 1
Electric dark correction enabled: true
Nonlinearity correction enabled: false
Boxcar width: 0
XAxis mode: Wavelengths
Number of Pixels in Spectrum: 2048
>>>>>Begin Spectral Data<<<<<
339.315	16.44
339.697	16.44
340.079	16.44
340.461	-136.77
340.843	-95.91
341.225	-121.45
341.607	-162.3
341.989	-88.25
342.371	-60.16
342.752	-55.06
343.134	-93.36
343.516	-88.25
343.897	-16.76
344.279	-6.54
344.661	67.5
345.042	52.18
345.423	29.2
345.805	49.63
346.186	177.3
346.567	128.79
346.949	187.51
347.33	144.11
347.711	184.96
348.092	187.51
348.473	220.71
348.854	259.01
349.235	248.79
349.616	248.79
349.997	243.69
350.378	312.63
350.758	310.08
351.139	366.25
351.52	304.97
351.9	287.1
352.281	343.27
352.661	356.04
353.042	353.48
353.422	246.24
353.803	356.04
354.183	389.23
354.563	379.02
354.943	430.08
355.324	356.04
355.704	348.38
356.084	376.46
356.464	371.36
356.844	315.18
357.224	358.59
357.603	412.21
357.983	343.27
358.363	437.74
358.743	414.76
359.122	371.36
359.502	310.08
359.882	368.8
360.261	430.08
360.641	368.8
361.02	330.5
361.399	366.25
361.779	304.97
362.158	371.36
362.537	315.18
362.916	299.86
363.296	312.63
363.675	281.99
364.054	350.93
364.433	373.91
364.812	407.1
365.19	394.34
365.569	343.27
365.948	330.5
366.327	348.38
366.705	292.2
367.084	394.34
367.463	322.84
367.841	376.46
368.22	356.04
368.598	379.02
368.977	338.16
369.355	307.52
369.733	322.84
370.111	333.06
370.49	269.22
370.868	279.44
371.246	335.61
371.624	373.91
372.002	358.59
372.38	269.22
372.758	361.14
373.136	327.95
373.513	384.12
373.891	310.08
374.269	356.04
374.646	386.68
375.024	320.29
375.402	404.55
375.779	396.89
376.157	348.38
376.534	297.31
376.911	345.82
377.289	333.06
377.666	363.7
378.043	335.61
378.42	325.4
378.797	368.8
379.175	353.48
379.552	368.8
379.929	333.06
380.305	358.59
380.682	376.46
381.059	343.27
381.436	442.85
381.813	343.27
382.189	381.57
382.566	343.27
382.943	348.38
383.319	320.29
383.696	307.52
384.072	289.65
384.448	358.59
384.825	325.4
385.201	320.29
385.577	284.54
385.953	407.1
386.329	391.78
386.706	276.88
387.082	304.97
387.458	317.74
387.834	404.55
388.209	386.68
388.585	376.46
388.961	322.84
389.337	391.78
389.713	307.52
390.088	297.31
390.464	373.91
390.839	333.06
391.215	396.89
391.59	391.78
391.966	304.97
392.341	338.16
392.716	348.38
393.092	353.48
393.467	340.72
393.842	322.84
394.217	391.78
394.592	371.36
394.967	404.55
395.342	340.72
395.717	307.52
396.092	325.4
396.467	330.5
396.841	343.27
397.216	412.21
397.591	366.25
397.965	353.48
398.34	376.46
398.714	322.84
399.089	325.4
399.463	363.7
399.838	404.55
400.212	379.02
400.586	353.48
400.961	307.52
401.335	338.16
401.709	368.8
402.083	345.82
402.457	363.7
402.831	361.14
403.205	330.5
403.579	361.14
403.953	327.95
404.326	368.8
404.7	340.72
405.074	315.18
405.447	356.04
405.821	366.25
406.195	320.29
406.568	366.25
406.942	481.15
407.315	399.44
407.688	440.3
408.062	350.93
408.435	384.12
408.808	350.93
409.181	325.4
409.554	381.57
409.927	335.61
410.3	384.12
410.673	304.97
411.046	368.8
411.419	407.1
411.792	455.62
412.165	338.16
412.537	327.95
412.91	310.08
413.283	322.84
413.655	353.48
414.028	356.04
414.4	366.25
414.773	330.5
415.145	363.7
415.517	348.38
415.889	333.06
416.262	358.59
416.634	345.82
417.006	368.8
417.378	356.04
417.75	343.27
418.122	315.18
418.494	379.02
418.866	396.89
419.238	363.7
419.609	368.8
419.981	389.23
420.353	361.14
420.725	455.62
421.096	384.12
421.468	356.04
421.839	366.25
422.211	335.61
422.582	358.59
422.953	363.7
423.325	379.02
423.696	394.34
424.067	394.34
424.438	366.25
424.809	353.48
425.18	366.25
425.551	404.55
425.922	358.59
426.293	343.27
426.664	312.63
427.035	379.02
427.406	358.59
427.776	381.57
428.147	363.7
428.518	414.76
428.888	407.1
429.259	396.89
429.629	417.32
429.999	409.66
430.37	399.44
430.74	373.91
431.11	399.44
431.481	465.83
431.851	427.53
432.221	402
432.591	384.12
432.961	320.29
433.331	399.44
433.701	409.66
434.071	376.46
434.441	358.59
434.81	320.29
435.18	391.78
435.55	335.61
435.919	363.7
436.289	356.04
436.658	325.4
437.028	478.6
437.397	470.94
437.767	409.66
438.136	353.48
438.505	384.12
438.875	358.59
439.244	422.42
439.613	437.74
439.982	409.66
440.351	399.44
440.72	453.07
441.089	396.89
441.458	409.66
441.827	366.25
442.196	407.1
442.564	422.42
442.933	409.66
443.302	315.18
443.67	373.91
444.039	435.19
444.407	407.1
444.776	412.21
445.144	419.87
445.513	455.62
445.881	394.34
446.249	399.44
446.617	366.25
446.986	453.07
447.354	384.12
447.722	419.87
448.09	391.78
448.458	358.59
448.826	447.96
449.194	424.98
449.561	442.85
449.929	386.68
450.297	361.14
450.665	389.23
451.032	424.98
451.4	340.72
451.767	353.48
452.135	335.61
452.502	432.64
452.87	404.55
453.237	386.68
453.604	430.08
453.971	414.76
454.339	381.57
454.706	389.23
455.073	363.7
455.44	396.89
455.807	424.98
456.174	391.78
456.541	335.61
456.908	404.55
457.274	424.98
457.641	368.8
458.008	361.14
458.374	404.55
458.741	399.44
459.108	409.66
459.474	453.07
459.841	396.89
460.207	409.66
460.573	442.85
460.94	432.64
461.306	391.78
461.672	358.59
462.038	391.78
462.404	345.82
462.771	340.72
463.137	381.57
463.503	356.04
463.868	396.89
464.234	353.48
464.6	402
464.966	391.78
465.332	353.48
465.697	384.12
466.063	363.7
466.429	402
466.794	340.72
467.16	348.38
467.525	424.98
467.89	424.98
468.256	402
468.621	350.93
468.986	366.25
469.351	389.23
469.717	430.08
470.082	442.85
470.447	417.32
470.812	419.87
471.177	361.14
471.542	412.21
471.906	396.89
472.271	414.76
472.636	396.89
473.001	417.32
473.365	504.13
473.73	476.05
474.094	373.91
474.459	363.7
474.823	445.4
475.188	396.89
475.552	394.34
475.917	414.76
476.281	419.87
476.645	394.34
477.009	368.8
477.373	379.02
477.737	358.59
478.101	468.39
478.465	435.19
478.829	422.42
479.193	412.21
479.557	447.96
479.921	394.34
480.284	394.34
480.648	417.32
481.012	391.78
481.375	363.7
481.739	379.02
482.102	327.95
482.466	465.83
482.829	453.07
483.193	419.87
483.556	412.21
483.919	361.14
484.282	343.27
484.645	361.14
485.009	376.46
485.372	483.71
485.735	407.1
486.098	394.34
486.46	356.04
486.823	358.59
487.186	376.46
487.549	389.23
487.912	465.83
488.274	343.27
488.637	391.78
488.999	343.27
489.362	371.36
489.724	394.34
490.087	430.08
490.449	402
490.811	399.44
491.174	402
491.536	384.12
491.898	330.5
492.26	427.53
492.622	432.64
492.984	427.53
493.346	404.55
493.708	427.53
494.07	399.44
494.432	447.96
494.794	424.98
495.155	409.66
495.517	384.12
495.879	407.1
496.24	470.94
496.602	399.44
496.963	350.93
497.325	414.76
497.686	404.55
498.048	417.32
498.409	350.93
498.77	396.89
499.131	389.23
499.492	384.12
499.854	379.02
500.215	417.32
500.576	394.34
500.937	437.74
501.298	399.44
501.658	407.1
502.019	384.12
502.38	440.3
502.741	430.08
503.101	504.13
503.462	470.94
503.823	379.02
504.183	453.07
504.543	427.53
504.904	396.89
505.264	417.32
505.625	356.04
505.985	345.82
506.345	394.34
506.705	409.66
507.065	394.34
507.426	363.7
507.786	384.12
508.146	455.62
508.505	412.21
508.865	353.48
509.225	445.4
509.585	440.3
509.945	440.3
510.304	371.36
510.664	353.48
511.024	465.83
511.383	391.78
511.743	350.93
512.102	412.21
512.462	404.55
512.821	404.55
513.18	468.39
513.539	330.5
513.899	320.29
514.258	368.8
514.617	424.98
514.976	419.87
515.335	381.57
515.694	437.74
516.053	371.36
516.412	373.91
516.771	402
517.129	391.78
517.488	399.44
517.847	407.1
518.205	333.06
518.564	396.89
518.922	437.74
519.281	381.57
519.639	363.7
519.998	363.7
520.356	384.12
520.714	476.05
521.073	447.96
521.431	465.83
521.789	394.34
522.147	404.55
522.505	445.4
522.863	358.59
523.221	419.87
523.579	399.44
523.937	379.02
524.295	455.62
524.652	345.82
525.01	361.14
525.368	396.89
525.725	396.89
526.083	384.12
526.44	353.48
526.798	361.14
527.155	414.76
527.513	409.66
527.87	379.02
528.227	384.12
528.584	361.14
528.942	389.23
529.299	402
529.656	330.5
530.013	348.38
530.37	442.85
530.727	417.32
531.083	396.89
531.44	345.82
531.797	432.64
532.154	386.68
532.511	404.55
532.867	389.23
533.224	409.66
533.58	381.57
533.937	333.06
534.293	368.8
534.65	407.1
535.006	442.85
535.362	417.32
535.718	419.87
536.075	371.36
536.431	409.66
536.787	371.36
537.143	384.12
537.499	361.14
537.855	330.5
538.211	432.64
538.567	356.04
538.923	414.76
539.278	366.25
539.634	356.04
539.99	391.78
540.345	358.59
540.701	399.44
541.056	373.91
541.412	333.06
541.767	417.32
542.123	371.36
542.478	417.32
542.833	384.12
543.188	414.76
543.544	394.34
543.899	432.64
544.254	333.06
544.609	358.59
544.964	394.34
545.319	379.02
545.674	402
546.029	465.83
546.383	427.53
546.738	414.76
547.093	407.1
547.447	422.42
547.802	322.84
548.157	424.98
548.511	363.7
548.866	465.83
549.22	396.89
549.574	384.12
549.929	414.76
550.283	419.87
550.637	358.59
550.991	384.12
551.345	348.38
551.699	333.06
552.053	412.21
552.407	386.68
552.761	414.76
553.115	458.17
553.469	440.3
553.823	361.14
554.176	394.34
554.53	404.55
554.884	389.23
555.237	611.37
555.591	422.42
555.944	409.66
556.298	394.34
556.651	432.64
557.005	419.87
557.358	361.14
557.711	381.57
558.064	384.12
558.417	386.68
558.771	504.13
559.124	514.35
559.477	345.82
559.83	363.7
560.182	373.91
560.535	483.71
560.888	386.68
561.241	404.55
561.594	414.76
561.946	379.02
562.299	386.68
562.651	409.66
563.004	379.02
563.356	414.76
563.709	381.57
564.061	430.08
564.413	483.71
564.766	432.64
565.118	363.7
565.47	381.57
565.822	376.46
566.174	325.4
566.526	391.78
566.878	384.12
567.23	422.42
567.582	353.48
567.934	424.98
568.286	366.25
568.638	419.87
568.989	381.57
569.341	435.19
569.693	363.7
570.044	481.15
570.396	417.32
570.747	391.78
571.098	399.44
571.45	409.66
571.801	371.36
572.152	424.98
572.504	391.78
572.855	376.46
573.206	402
573.557	407.1
573.908	379.02
574.259	442.85
574.61	379.02
574.961	325.4
575.311	373.91
575.662	361.14
576.013	417.32
576.364	447.96
576.714	424.98
577.065	399.44
577.415	376.46
577.766	327.95
578.116	409.66
578.467	424.98
578.817	381.57
579.167	404.55
579.518	340.72
579.868	437.74
580.218	430.08
580.568	427.53
580.918	373.91
581.268	417.32
581.618	373.91
581.968	371.36
582.318	445.4
582.668	414.76
583.017	373.91
583.367	460.73
583.717	463.28
584.066	379.02
584.416	424.98
584.765	404.55
585.115	371.36
585.464	345.82
585.814	350.93
586.163	348.38
586.512	389.23
586.862	417.32
587.211	445.4
587.56	417.32
587.909	458.17
588.258	407.1
588.607	440.3
588.956	424.98
589.305	440.3
589.654	424.98
590.002	409.66
590.351	463.28
590.7	394.34
591.048	366.25
591.397	373.91
591.746	407.1
592.094	458.17
592.443	373.91
592.791	389.23
593.139	379.02
593.488	424.98
593.836	399.44
594.184	384.12
594.532	386.68
594.88	407.1
595.228	394.34
595.576	340.72
595.924	430.08
596.272	394.34
596.62	379.02
596.968	404.55
597.316	396.89
597.664	376.46
598.011	409.66
598.359	402
598.706	394.34
599.054	333.06
599.402	440.3
599.749	402
600.096	350.93
600.444	353.48
600.791	424.98
601.138	371.36
601.485	371.36
601.833	345.82
602.18	399.44
602.527	373.91
602.874	402
603.221	376.46
603.568	445.4
603.914	453.07
604.261	379.02
604.608	366.25
604.955	409.66
605.301	404.55
605.648	345.82
605.995	345.82
606.341	409.66
606.688	437.74
607.034	379.02
607.38	384.12
607.727	373.91
608.073	447.96
608.419	373.91
608.765	463.28
609.112	404.55
609.458	368.8
609.804	327.95
610.15	384.12
610.496	356.04
610.842	333.06
611.187	371.36
611.533	381.57
611.879	424.98
612.225	338.16
612.57	307.52
612.916	376.46
613.261	381.57
613.607	455.62
613.952	407.1
614.298	391.78
614.643	363.7
614.989	335.61
615.334	389.23
615.679	343.27
616.024	391.78
616.369	404.55
616.714	399.44
617.059	356.04
617.404	368.8
617.749	412.21
618.094	414.76
618.439	407.1
618.784	373.91
619.129	417.32
619.473	381.57
619.818	379.02
620.163	450.51
620.507	379.02
620.852	419.87
621.196	345.82
621.54	402
621.885	442.85
622.229	422.42
622.573	412.21
622.918	368.8
623.262	391.78
623.606	376.46
623.95	407.1
624.294	407.1
624.638	335.61
624.982	417.32
625.326	358.59
625.67	389.23
626.013	414.76
626.357	424.98
626.701	358.59
627.044	366.25
627.388	417.32
627.731	414.76
628.075	379.02
628.418	361.14
628.762	333.06
629.105	317.74
629.448	368.8
629.792	437.74
630.135	422.42
630.478	440.3
630.821	432.64
631.164	458.17
631.507	404.55
631.85	427.53
632.193	381.57
632.536	422.42
632.879	384.12
633.221	435.19
633.564	389.23
633.907	294.76
634.249	402
634.592	399.44
634.935	430.08
635.277	386.68
635.619	363.7
635.962	437.74
636.304	402
636.646	381.57
636.989	399.44
637.331	450.51
637.673	379.02
638.015	391.78
638.357	345.82
638.699	274.33
639.041	417.32
639.383	437.74
639.725	396.89
640.067	414.76
640.408	389.23
640.75	445.4
641.092	358.59
641.433	348.38
641.775	384.12
642.116	412.21
642.458	414.76
642.799	407.1
643.141	366.25
643.482	373.91
643.823	427.53
644.164	353.48
644.506	435.19
644.847	409.66
645.188	450.51
645.529	430.08
645.87	353.48
646.211	322.84
646.552	407.1
646.893	361.14
647.233	381.57
647.574	287.1
647.915	322.84
648.255	368.8
648.596	345.82
648.937	391.78
649.277	391.78
649.618	348.38
649.958	345.82
650.298	399.44
650.639	386.68
650.979	453.07
651.319	453.07
651.659	307.52
651.999	381.57
652.339	373.91
652.679	376.46
653.019	356.04
653.359	356.04
653.699	366.25
654.039	373.91
654.379	343.27
654.719	343.27
655.058	404.55
655.398	435.19
655.737	430.08
656.077	353.48
656.416	435.19
656.756	399.44
657.095	404.55
657.435	366.25
657.774	368.8
658.113	322.84
658.452	386.68
658.792	368.8
659.131	435.19
659.47	432.64
659.809	363.7
660.148	373.91
660.487	437.74
660.826	379.02
661.164	371.36
661.503	338.16
661.842	317.74
662.181	409.66
662.519	371.36
662.858	442.85
663.196	407.1
663.535	320.29
663.873	340.72
664.212	442.85
664.55	391.78
664.888	389.23
665.226	361.14
665.565	361.14
665.903	585.84
666.241	412.21
666.579	371.36
666.917	356.04
667.255	356.04
667.593	361.14
667.931	386.68
668.268	356.04
668.606	353.48
668.944	424.98
669.282	310.08
669.619	307.52
669.957	297.31
670.294	379.02
670.632	363.7
670.969	463.28
671.307	412.21
671.644	468.39
671.981	381.57
672.318	430.08
672.656	402
672.993	320.29
673.33	389.23
673.667	391.78
674.004	330.5
674.341	396.89
674.678	396.89
675.015	402
675.351	422.42
675.688	422.42
676.025	384.12
676.362	379.02
676.698	284.54
677.035	366.25
677.371	304.97
677.708	409.66
678.044	356.04
678.38	399.44
678.717	440.3
679.053	358.59
679.389	412.21
679.725	399.44
680.062	437.74
680.398	422.42
680.734	330.5
681.07	340.72
681.406	412.21
681.742	414.76
682.077	356.04
682.413	320.29
682.749	366.25
683.085	437.74
683.42	414.76
683.756	399.44
684.091	356.04
684.427	389.23
684.762	353.48
685.098	292.2
685.433	402
685.768	322.84
686.104	340.72
686.439	414.76
686.774	430.08
687.109	361.14
687.444	343.27
687.779	391.78
688.114	389.23
688.449	366.25
688.784	340.72
689.119	414.76
689.454	376.46
689.789	340.72
690.123	348.38
690.458	350.93
690.792	333.06
691.127	435.19
691.461	412.21
691.796	335.61
692.13	427.53
692.465	368.8
692.799	399.44
693.133	361.14
693.467	414.76
693.802	384.12
694.136	386.68
694.47	381.57
694.804	361.14
695.138	368.8
695.472	368.8
695.806	358.59
696.139	350.93
696.473	325.4
696.807	381.57
697.141	381.57
697.474	376.46
697.808	386.68
698.141	333.06
698.475	366.25
698.808	412.21
699.142	307.52
699.475	338.16
699.808	368.8
700.142	353.48
700.475	345.82
700.808	356.04
701.141	407.1
701.474	417.32
701.807	353.48
702.14	333.06
702.473	414.76
702.806	348.38
703.139	419.87
703.472	450.51
703.804	414.76
704.137	287.1
704.47	320.29
704.802	391.78
705.135	366.25
705.467	302.42
705.8	402
706.132	437.74
706.464	396.89
706.797	384.12
707.129	379.02
707.461	417.32
707.793	363.7
708.125	322.84
708.457	358.59
708.789	361.14
709.121	368.8
709.453	399.44
709.785	409.66
710.117	356.04
710.449	366.25
710.781	335.61
711.112	396.89
711.444	402
711.775	389.23
712.107	363.7
712.438	384.12
712.77	322.84
713.101	391.78
713.433	320.29
713.764	327.95
714.095	424.98
714.426	414.76
714.757	442.85
715.089	391.78
715.42	468.39
715.751	394.34
716.082	363.7
716.412	376.46
716.743	412.21
717.074	409.66
717.405	343.27
717.736	373.91
718.066	353.48
718.397	402
718.727	417.32
719.058	435.19
719.388	430.08
719.719	424.98
720.049	396.89
720.38	455.62
720.71	435.19
721.04	356.04
721.37	343.27
721.7	394.34
722.031	419.87
722.361	333.06
722.691	419.87
723.021	322.84
723.35	404.55
723.68	422.42
724.01	343.27
724.34	407.1
724.67	379.02
724.999	373.91
725.329	447.96
725.658	435.19
725.988	368.8
726.317	432.64
726.647	368.8
726.976	389.23
727.306	368.8
727.635	304.97
727.964	391.78
728.293	391.78
728.622	432.64
728.952	340.72
729.281	424.98
729.61	381.57
729.939	335.61
730.267	437.74
730.596	361.14
730.925	348.38
731.254	402
731.583	368.8
731.911	399.44
732.24	381.57
732.568	350.93
732.897	335.61
733.225	386.68
733.554	376.46
733.882	366.25
734.21	432.64
734.539	368.8
734.867	343.27
735.195	430.08
735.523	307.52
735.851	386.68
736.179	340.72
736.507	455.62
736.835	381.57
737.163	407.1
737.491	430.08
737.819	391.78
738.147	404.55
738.474	356.04
738.802	409.66
739.13	391.78
739.457	350.93
739.785	358.59
740.112	394.34
740.44	366.25
740.767	396.89
741.094	391.78
741.422	386.68
741.749	445.4
742.076	460.73
742.403	358.59
742.73	361.14
743.057	419.87
743.384	409.66
743.711	417.32
744.038	356.04
744.365	386.68
744.692	407.1
745.018	350.93
745.345	307.52
745.672	363.7
745.998	379.02
746.325	343.27
746.651	386.68
746.978	381.57
747.304	384.12
747.631	366.25
747.957	394.34
748.283	373.91
748.61	381.57
748.936	348.38
749.262	399.44
749.588	333.06
749.914	343.27
750.24	289.65
750.566	330.5
750.892	407.1
751.218	384.12
751.543	363.7
751.869	340.72
752.195	478.6
752.521	384.12
752.846	307.52
753.172	338.16
753.497	356.04
753.823	348.38
754.148	389.23
754.473	350.93
754.799	371.36
755.124	333.06
755.449	391.78
755.774	376.46
756.1	356.04
756.425	386.68
756.75	343.27
757.075	294.76
757.4	532.22
757.724	414.76
758.049	409.66
758.374	394.34
758.699	404.55
759.024	345.82
759.348	379.02
759.673	381.57
759.997	379.02
760.322	455.62
760.646	419.87
760.971	391.78
761.295	391.78
761.619	468.39
761.944	450.51
762.268	519.45
762.592	432.64
762.916	356.04
763.24	399.44
763.564	458.17
763.888	522.01
764.212	463.28
764.536	516.9
764.86	596.05
765.184	639.46
765.508	570.52
765.831	647.12
766.155	884.59
766.478	754.36
766.802	690.53
767.126	762.02
767.449	805.43
767.772	930.55
768.096	910.12
768.419	833.52
768.742	915.23
769.066	961.19
769.389	1070.98
769.712	1070.98
770.035	996.93
770.358	1078.64
770.681	1183.33
771.004	1201.2
771.327	1236.95
771.65	1339.09
771.972	1451.44
772.295	1466.76
772.618	1390.15
772.941	1382.49
773.263	1484.63
773.586	1566.34
773.908	1722.09
774.231	1729.75
774.553	1780.82
774.875	1867.64
775.198	1949.34
775.52	1921.26
775.842	1918.7
776.164	1923.81
776.487	1890.62
776.809	1849.76
777.131	2122.97
777.453	1870.19
777.775	1862.53
778.096	2056.59
778.418	2133.19
778.74	2048.93
779.062	2041.27
779.384	2255.75
779.705	2546.83
780.027	2717.91
780.348	2763.87
780.67	2707.7
780.991	2855.79
781.313	3108.58
781.634	3261.78
781.955	3085.6
782.277	2878.77
782.598	2901.75
782.919	2996.23
783.24	2960.48
783.561	2934.95
783.882	2876.22
784.203	2899.2
784.524	2965.59
784.845	2881.33
785.166	2674.5
785.487	2753.66
785.807	2743.45
786.128	2623.44
786.449	2638.76
786.769	2743.45
787.09	2774.09
787.41	2952.82
787.731	3228.59
788.051	3450.73
788.372	3417.54
788.692	3677.98
789.012	3900.13
789.332	3961.41
789.653	4045.67
789.973	4188.66
790.293	4221.85
790.613	3626.91
790.933	3376.68
791.253	3343.49
791.573	3129.01
791.893	2919.63
792.212	2832.81
792.532	2743.45
792.852	2746
793.171	2546.83
793.491	2539.17
793.811	2505.98
794.13	2574.92
794.45	2483
794.769	2592.8
795.088	2779.19
795.408	2827.71
795.727	3098.36
796.046	2914.52
796.365	2768.98
796.684	2557.05
797.004	2528.96
797.323	2633.65
797.642	2863.45
797.96	2950.27
798.279	2945.16
798.598	2738.34
798.917	2666.84
799.236	2557.05
799.554	2385.97
799.873	2250.64
800.192	2342.56
800.51	2373.21
800.829	2296.6
801.147	2156.17
801.466	2143.4
801.784	2041.27
