Data from 2025-12-03_xpw_interference_micrometer_634_reference_FLMS141361__171__421.txt Node

Date: Wed Dec 03 15:51:29 MST 2025
User: james
Spectrometer: FLMS14136
Trigger mode: 0
Integration Time (sec): 1.000000E-1
Scans to average: 1
Electric dark correction enabled: true
Nonlinearity correction enabled: false
Boxcar width: 0
XAxis mode: Wavelengths
Number of Pixels in Spectrum: 2048
>>>>>Begin Spectral Data<<<<<
339.315	-43.73
339.697	-43.73
340.079	-43.73
340.461	-74.37
340.843	-64.15
341.225	-41.17
341.607	-115.22
341.989	-150.97
342.371	-97.35
342.752	-138.2
343.134	-76.92
343.516	-107.56
343.897	-7.98
344.279	73.73
344.661	22.66
345.042	58.41
345.423	119.69
345.805	94.16
346.186	94.16
346.567	89.05
346.949	183.52
347.33	219.27
347.711	186.08
348.092	191.18
348.473	203.95
348.854	265.23
349.235	298.43
349.616	339.28
349.997	326.51
350.378	311.19
350.758	352.05
351.139	349.49
351.52	354.6
351.9	398.01
352.281	415.88
352.661	395.45
353.042	334.17
353.422	382.69
353.803	413.33
354.183	387.79
354.563	413.33
354.943	408.22
355.324	390.35
355.704	426.09
356.084	433.76
356.464	415.88
356.844	484.82
357.224	461.84
357.603	413.33
357.983	410.77
358.363	469.5
358.743	456.74
359.122	487.38
359.502	410.77
359.882	359.71
360.261	403.11
360.641	403.11
361.02	346.94
361.399	395.45
361.779	298.43
362.158	420.99
362.537	405.67
362.916	357.15
363.296	413.33
363.675	472.06
364.054	420.99
364.433	331.62
364.812	352.05
365.19	461.84
365.569	334.17
365.948	390.35
366.327	334.17
366.705	461.84
367.084	420.99
367.463	443.97
367.841	410.77
368.22	362.26
368.598	369.92
368.977	426.09
369.355	420.99
369.733	329.07
370.111	446.52
370.49	441.42
370.868	398.01
371.246	308.64
371.624	375.03
372.002	372.47
372.38	410.77
372.758	377.58
373.136	323.96
373.513	306.09
373.891	380.13
374.269	436.31
374.646	331.62
375.024	362.26
375.402	398.01
375.779	349.49
376.157	346.94
376.534	354.6
376.911	354.6
377.289	321.41
377.666	415.88
378.043	428.65
378.42	438.86
378.797	428.65
379.175	400.56
379.552	423.54
379.929	423.54
380.305	413.33
380.682	398.01
381.059	354.6
381.436	349.49
381.813	329.07
382.189	420.99
382.566	398.01
382.943	352.05
383.319	426.09
383.696	477.16
384.072	426.09
384.448	341.83
384.825	364.81
385.201	392.9
385.577	403.11
385.953	418.43
386.329	364.81
386.706	352.05
387.082	385.24
387.458	400.56
387.834	372.47
388.209	403.11
388.585	395.45
388.961	382.69
389.337	339.28
389.713	385.24
390.088	380.13
390.464	331.62
390.839	380.13
391.215	395.45
391.59	372.47
391.966	426.09
392.341	400.56
392.716	380.13
393.092	357.15
393.467	349.49
393.842	357.15
394.217	344.39
394.592	390.35
394.967	438.86
395.342	395.45
395.717	423.54
396.092	438.86
396.467	329.07
396.841	392.9
397.216	367.37
397.591	446.52
397.965	387.79
398.34	385.24
398.714	375.03
399.089	362.26
399.463	362.26
399.838	428.65
400.212	311.19
400.586	362.26
400.961	426.09
401.335	415.88
401.709	398.01
402.083	380.13
402.457	436.31
402.831	428.65
403.205	387.79
403.579	367.37
403.953	426.09
404.326	489.93
404.7	403.11
405.074	357.15
405.447	469.5
405.821	382.69
406.195	423.54
406.568	334.17
406.942	387.79
407.315	392.9
407.688	390.35
408.062	364.81
408.435	398.01
408.808	387.79
409.181	456.74
409.554	380.13
409.927	433.76
410.3	413.33
410.673	438.86
411.046	449.08
411.419	451.63
411.792	436.31
412.165	405.67
412.537	398.01
412.91	423.54
413.283	436.31
413.655	367.37
414.028	336.73
414.4	362.26
414.773	426.09
415.145	372.47
415.517	479.72
415.889	392.9
416.262	385.24
416.634	413.33
417.006	390.35
417.378	459.29
417.75	441.42
418.122	382.69
418.494	400.56
418.866	400.56
419.238	433.76
419.609	415.88
419.981	364.81
420.353	405.67
420.725	420.99
421.096	451.63
421.468	469.5
421.839	438.86
422.211	443.97
422.582	400.56
422.953	446.52
423.325	464.4
423.696	464.4
424.067	431.2
424.438	472.06
424.809	423.54
425.18	436.31
425.551	466.95
425.922	456.74
426.293	354.6
426.664	369.92
427.035	449.08
427.406	438.86
427.776	433.76
428.147	443.97
428.518	390.35
428.888	331.62
429.259	413.33
429.629	446.52
429.999	431.2
430.37	426.09
430.74	390.35
431.11	446.52
431.481	459.29
431.851	436.31
432.221	464.4
432.591	466.95
432.961	408.22
433.331	403.11
433.701	403.11
434.071	431.2
434.441	418.43
434.81	454.18
435.18	436.31
435.55	426.09
435.919	405.67
436.289	403.11
436.658	441.42
437.028	459.29
437.397	418.43
437.767	403.11
438.136	415.88
438.505	420.99
438.875	433.76
439.244	454.18
439.613	487.38
439.982	413.33
440.351	369.92
440.72	436.31
441.089	426.09
441.458	479.72
441.827	461.84
442.196	380.13
442.564	464.4
442.933	367.37
443.302	443.97
443.67	446.52
444.039	400.56
444.407	431.2
444.776	454.18
445.144	456.74
445.513	443.97
445.881	436.31
446.249	477.16
446.617	431.2
446.986	418.43
447.354	492.48
447.722	392.9
448.09	408.22
448.458	466.95
448.826	459.29
449.194	431.2
449.561	410.77
449.929	423.54
450.297	443.97
450.665	454.18
451.032	431.2
451.4	456.74
451.767	441.42
452.135	431.2
452.502	446.52
452.87	461.84
453.237	382.69
453.604	395.45
453.971	410.77
454.339	387.79
454.706	415.88
455.073	415.88
455.44	464.4
455.807	446.52
456.174	346.94
456.541	443.97
456.908	413.33
457.274	441.42
457.641	382.69
458.008	403.11
458.374	446.52
458.741	436.31
459.108	466.95
459.474	461.84
459.841	395.45
460.207	357.15
460.573	367.37
460.94	428.65
461.306	436.31
461.672	387.79
462.038	377.58
462.404	454.18
462.771	408.22
463.137	392.9
463.503	403.11
463.868	459.29
464.234	446.52
464.6	377.58
464.966	400.56
465.332	461.84
465.697	438.86
466.063	428.65
466.429	505.25
466.794	502.7
467.16	451.63
467.525	392.9
467.89	418.43
468.256	507.8
468.621	482.27
468.986	477.16
469.351	466.95
469.717	387.79
470.082	428.65
470.447	380.13
470.812	469.5
471.177	433.76
471.542	428.65
471.906	387.79
472.271	431.2
472.636	443.97
473.001	420.99
473.365	392.9
473.73	398.01
474.094	461.84
474.459	436.31
474.823	431.2
475.188	441.42
475.552	530.78
475.917	461.84
476.281	454.18
476.645	456.74
477.009	477.16
477.373	428.65
477.737	431.2
478.101	436.31
478.465	464.4
478.829	449.08
479.193	413.33
479.557	410.77
479.921	377.58
480.284	487.38
480.648	392.9
481.012	349.49
481.375	456.74
481.739	403.11
482.102	459.29
482.466	461.84
482.829	492.48
483.193	398.01
483.556	456.74
483.919	438.86
484.282	456.74
484.645	477.16
485.009	443.97
485.372	413.33
485.735	331.62
486.098	398.01
486.46	464.4
486.823	400.56
487.186	339.28
487.549	507.8
487.912	367.37
488.274	502.7
488.637	456.74
488.999	451.63
489.362	489.93
489.724	449.08
490.087	482.27
490.449	362.26
490.811	426.09
491.174	449.08
491.536	413.33
491.898	451.63
492.26	436.31
492.622	428.65
492.984	423.54
493.346	441.42
493.708	451.63
494.07	413.33
494.432	459.29
494.794	466.95
495.155	420.99
495.517	390.35
495.879	420.99
496.24	418.43
496.602	438.86
496.963	441.42
497.325	431.2
497.686	436.31
498.048	469.5
498.409	331.62
498.77	385.24
499.131	431.2
499.492	469.5
499.854	495.04
500.215	405.67
500.576	484.82
500.937	456.74
501.298	454.18
501.658	451.63
502.019	479.72
502.38	461.84
502.741	433.76
503.101	518.02
503.462	553.76
503.823	464.4
504.183	472.06
504.543	482.27
504.904	449.08
505.264	451.63
505.625	477.16
505.985	400.56
506.345	385.24
506.705	418.43
507.065	461.84
507.426	392.9
507.786	420.99
508.146	454.18
508.505	454.18
508.865	420.99
509.225	410.77
509.585	487.38
509.945	477.16
510.304	405.67
510.664	436.31
511.024	436.31
511.383	398.01
511.743	438.86
512.102	392.9
512.462	428.65
512.821	443.97
513.18	428.65
513.539	443.97
513.899	400.56
514.258	413.33
514.617	426.09
514.976	418.43
515.335	431.2
515.694	441.42
516.053	446.52
516.412	367.37
516.771	438.86
517.129	446.52
517.488	431.2
517.847	362.26
518.205	362.26
518.564	418.43
518.922	438.86
519.281	456.74
519.639	456.74
519.998	441.42
520.356	500.14
520.714	484.82
521.073	464.4
521.431	474.61
521.789	415.88
522.147	525.68
522.505	451.63
522.863	472.06
523.221	436.31
523.579	433.76
523.937	446.52
524.295	451.63
524.652	431.2
525.01	459.29
525.368	451.63
525.725	423.54
526.083	461.84
526.44	410.77
526.798	433.76
527.155	420.99
527.513	466.95
527.87	461.84
528.227	385.24
528.584	359.71
528.942	405.67
529.299	474.61
529.656	461.84
530.013	469.5
530.37	436.31
530.727	505.25
531.083	502.7
531.44	456.74
531.797	454.18
532.154	392.9
532.511	426.09
532.867	415.88
533.224	377.58
533.58	405.67
533.937	431.2
534.293	428.65
534.65	418.43
535.006	418.43
535.362	413.33
535.718	456.74
536.075	464.4
536.431	362.26
536.787	382.69
537.143	390.35
537.499	459.29
537.855	446.52
538.211	451.63
538.567	385.24
538.923	472.06
539.278	489.93
539.634	428.65
539.99	426.09
540.345	387.79
540.701	492.48
541.056	474.61
541.412	438.86
541.767	403.11
542.123	438.86
542.478	364.81
542.833	451.63
543.188	372.47
543.544	446.52
543.899	484.82
544.254	438.86
544.609	482.27
544.964	426.09
545.319	443.97
545.674	308.64
546.029	469.5
546.383	446.52
546.738	495.04
547.093	441.42
547.447	415.88
547.802	454.18
548.157	408.22
548.511	400.56
548.866	441.42
549.22	377.58
549.574	426.09
549.929	423.54
550.283	395.45
550.637	456.74
550.991	433.76
551.345	357.15
551.699	405.67
552.053	443.97
552.407	495.04
552.761	431.2
553.115	484.82
553.469	428.65
553.823	466.95
554.176	420.99
554.53	456.74
554.884	431.2
555.237	714.63
555.591	489.93
555.944	420.99
556.298	495.04
556.651	426.09
557.005	418.43
557.358	433.76
557.711	446.52
558.064	354.6
558.417	428.65
558.771	428.65
559.124	436.31
559.477	387.79
559.83	449.08
560.182	505.25
560.535	474.61
560.888	428.65
561.241	454.18
561.594	484.82
561.946	426.09
562.299	446.52
562.651	433.76
563.004	472.06
563.356	436.31
563.709	489.93
564.061	454.18
564.413	466.95
564.766	472.06
565.118	449.08
565.47	459.29
565.822	446.52
566.174	413.33
566.526	446.52
566.878	449.08
567.23	387.79
567.582	428.65
567.934	431.2
568.286	382.69
568.638	428.65
568.989	428.65
569.341	428.65
569.693	426.09
570.044	420.99
570.396	438.86
570.747	392.9
571.098	428.65
571.45	454.18
571.801	426.09
572.152	469.5
572.504	390.35
572.855	443.97
573.206	395.45
573.557	433.76
573.908	382.69
574.259	405.67
574.61	436.31
574.961	443.97
575.311	405.67
575.662	502.7
576.013	515.46
576.364	438.86
576.714	472.06
577.065	546.1
577.415	477.16
577.766	451.63
578.116	459.29
578.467	472.06
578.817	431.2
579.167	474.61
579.518	441.42
579.868	459.29
580.218	405.67
580.568	492.48
580.918	426.09
581.268	395.45
581.618	398.01
581.968	449.08
582.318	461.84
582.668	459.29
583.017	408.22
583.367	474.61
583.717	449.08
584.066	446.52
584.416	469.5
584.765	459.29
585.115	415.88
585.464	438.86
585.814	423.54
586.163	454.18
586.512	346.94
586.862	392.9
587.211	438.86
587.56	441.42
587.909	420.99
588.258	377.58
588.607	405.67
588.956	428.65
589.305	380.13
589.654	405.67
590.002	413.33
590.351	387.79
590.7	408.22
591.048	426.09
591.397	428.65
591.746	487.38
592.094	433.76
592.443	469.5
592.791	500.14
593.139	449.08
593.488	413.33
593.836	349.49
594.184	449.08
594.532	438.86
594.88	515.46
595.228	431.2
595.576	415.88
595.924	500.14
596.272	454.18
596.62	451.63
596.968	400.56
597.316	398.01
597.664	423.54
598.011	380.13
598.359	446.52
598.706	441.42
599.054	500.14
599.402	446.52
599.749	390.35
600.096	408.22
600.444	375.03
600.791	443.97
601.138	443.97
601.485	451.63
601.833	408.22
602.18	413.33
602.527	395.45
602.874	472.06
603.221	426.09
603.568	423.54
603.914	466.95
604.261	382.69
604.608	400.56
604.955	413.33
605.301	446.52
605.648	398.01
605.995	436.31
606.341	456.74
606.688	380.13
607.034	459.29
607.38	408.22
607.727	377.58
608.073	377.58
608.419	436.31
608.765	454.18
609.112	413.33
609.458	392.9
609.804	449.08
610.15	454.18
610.496	482.27
610.842	431.2
611.187	431.2
611.533	341.83
611.879	400.56
612.225	415.88
612.57	431.2
612.916	451.63
613.261	461.84
613.607	400.56
613.952	479.72
614.298	461.84
614.643	528.23
614.989	415.88
615.334	390.35
615.679	438.86
616.024	426.09
616.369	403.11
616.714	443.97
617.059	420.99
617.404	413.33
617.749	387.79
618.094	395.45
618.439	420.99
618.784	426.09
619.129	456.74
619.473	408.22
619.818	362.26
620.163	415.88
620.507	428.65
620.852	413.33
621.196	398.01
621.54	461.84
621.885	500.14
622.229	403.11
622.573	415.88
622.918	408.22
623.262	477.16
623.606	398.01
623.95	466.95
624.294	525.68
624.638	433.76
624.982	459.29
625.326	423.54
625.67	382.69
626.013	395.45
626.357	446.52
626.701	428.65
627.044	431.2
627.388	472.06
627.731	449.08
628.075	449.08
628.418	418.43
628.762	364.81
629.105	390.35
629.448	423.54
629.792	423.54
630.135	392.9
630.478	479.72
630.821	369.92
631.164	466.95
631.507	426.09
631.85	380.13
632.193	372.47
632.536	405.67
632.879	428.65
633.221	510.36
633.564	415.88
633.907	472.06
634.249	454.18
634.592	362.26
634.935	382.69
635.277	387.79
635.619	410.77
635.962	410.77
636.304	395.45
636.646	451.63
636.989	423.54
637.331	380.13
637.673	456.74
638.015	372.47
638.357	456.74
638.699	380.13
639.041	415.88
639.383	428.65
639.725	420.99
640.067	398.01
640.408	410.77
640.75	392.9
641.092	449.08
641.433	420.99
641.775	423.54
642.116	400.56
642.458	487.38
642.799	413.33
643.141	456.74
643.482	415.88
643.823	415.88
644.164	418.43
644.506	446.52
644.847	382.69
645.188	474.61
645.529	428.65
645.87	454.18
646.211	443.97
646.552	369.92
646.893	364.81
647.233	408.22
647.574	426.09
647.915	451.63
648.255	446.52
648.596	408.22
648.937	438.86
649.277	398.01
649.618	410.77
649.958	454.18
650.298	530.78
650.639	454.18
650.979	377.58
651.319	318.85
651.659	446.52
651.999	459.29
652.339	441.42
652.679	464.4
653.019	385.24
653.359	469.5
653.699	510.36
654.039	451.63
654.379	441.42
654.719	443.97
655.058	403.11
655.398	433.76
655.737	446.52
656.077	446.52
656.416	461.84
656.756	456.74
657.095	441.42
657.435	484.82
657.774	357.15
658.113	456.74
658.452	403.11
658.792	431.2
659.131	502.7
659.47	469.5
659.809	428.65
660.148	390.35
660.487	405.67
660.826	431.2
661.164	372.47
661.503	362.26
661.842	420.99
662.181	413.33
662.519	385.24
662.858	405.67
663.196	390.35
663.535	420.99
663.873	477.16
664.212	428.65
664.55	454.18
664.888	436.31
665.226	354.6
665.565	423.54
665.903	592.06
666.241	441.42
666.579	392.9
666.917	392.9
667.255	359.71
667.593	438.86
667.931	446.52
668.268	502.7
668.606	415.88
668.944	400.56
669.282	469.5
669.619	408.22
669.957	502.7
670.294	352.05
670.632	415.88
670.969	433.76
671.307	408.22
671.644	431.2
671.981	446.52
672.318	398.01
672.656	395.45
672.993	438.86
673.33	436.31
673.667	484.82
674.004	479.72
674.341	413.33
674.678	469.5
675.015	464.4
675.351	441.42
675.688	398.01
676.025	395.45
676.362	443.97
676.698	472.06
677.035	364.81
677.371	387.79
677.708	454.18
678.044	395.45
678.38	477.16
678.717	443.97
679.053	443.97
679.389	380.13
679.725	449.08
680.062	403.11
680.398	446.52
680.734	415.88
681.07	390.35
681.406	387.79
681.742	410.77
682.077	392.9
682.413	392.9
682.749	477.16
683.085	336.73
683.42	400.56
683.756	497.59
684.091	410.77
684.427	428.65
684.762	433.76
685.098	395.45
685.433	449.08
685.768	446.52
686.104	459.29
686.439	390.35
686.774	413.33
687.109	413.33
687.444	459.29
687.779	433.76
688.114	395.45
688.449	415.88
688.784	426.09
689.119	484.82
689.454	426.09
689.789	454.18
690.123	423.54
690.458	403.11
690.792	456.74
691.127	489.93
691.461	400.56
691.796	431.2
692.13	420.99
692.465	403.11
692.799	438.86
693.133	400.56
693.467	487.38
693.802	369.92
694.136	390.35
694.47	443.97
694.804	380.13
695.138	479.72
695.472	420.99
695.806	446.52
696.139	410.77
696.473	441.42
696.807	449.08
697.141	441.42
697.474	377.58
697.808	482.27
698.141	380.13
698.475	423.54
698.808	436.31
699.142	423.54
699.475	431.2
699.808	466.95
700.142	400.56
700.475	408.22
700.808	492.48
701.141	461.84
701.474	408.22
701.807	431.2
702.14	387.79
702.473	420.99
702.806	466.95
703.139	423.54
703.472	441.42
703.804	367.37
704.137	426.09
704.47	438.86
704.802	369.92
705.135	410.77
705.467	500.14
705.8	392.9
706.132	403.11
706.464	446.52
706.797	446.52
707.129	377.58
707.461	436.31
707.793	451.63
708.125	362.26
708.457	387.79
708.789	418.43
709.121	469.5
709.453	451.63
709.785	461.84
710.117	382.69
710.449	433.76
710.781	438.86
711.112	415.88
711.444	420.99
711.775	380.13
712.107	482.27
712.438	464.4
712.77	398.01
713.101	405.67
713.433	446.52
713.764	426.09
714.095	390.35
714.426	403.11
714.757	387.79
715.089	382.69
715.42	352.05
715.751	395.45
716.082	359.71
716.412	464.4
716.743	451.63
717.074	380.13
717.405	413.33
717.736	364.81
718.066	472.06
718.397	420.99
718.727	385.24
719.058	472.06
719.388	362.26
719.719	385.24
720.049	390.35
720.38	454.18
720.71	441.42
721.04	456.74
721.37	443.97
721.7	502.7
722.031	415.88
722.361	364.81
722.691	510.36
723.021	426.09
723.35	415.88
723.68	479.72
724.01	433.76
724.34	459.29
724.67	408.22
724.999	443.97
725.329	469.5
725.658	497.59
725.988	367.37
726.317	438.86
726.647	436.31
726.976	449.08
727.306	387.79
727.635	500.14
727.964	484.82
728.293	372.47
728.622	449.08
728.952	408.22
729.281	377.58
729.61	400.56
729.939	349.49
730.267	357.15
730.596	408.22
730.925	377.58
731.254	400.56
731.583	446.52
731.911	449.08
732.24	469.5
732.568	459.29
732.897	375.03
733.225	423.54
733.554	367.37
733.882	387.79
734.21	418.43
734.539	459.29
734.867	415.88
735.195	382.69
735.523	443.97
735.851	459.29
736.179	443.97
736.507	392.9
736.835	410.77
737.163	410.77
737.491	387.79
737.819	482.27
738.147	461.84
738.474	431.2
738.802	456.74
739.13	479.72
739.457	390.35
739.785	436.31
740.112	446.52
740.44	392.9
740.767	438.86
741.094	385.24
741.422	515.46
741.749	500.14
742.076	426.09
742.403	443.97
742.73	433.76
743.057	446.52
743.384	398.01
743.711	469.5
744.038	431.2
744.365	507.8
744.692	403.11
745.018	449.08
745.345	387.79
745.672	390.35
745.998	423.54
746.325	420.99
746.651	438.86
746.978	428.65
747.304	436.31
747.631	446.52
747.957	446.52
748.283	428.65
748.61	418.43
748.936	336.73
749.262	489.93
749.588	398.01
749.914	372.47
750.24	449.08
750.566	403.11
750.892	433.76
751.218	413.33
751.543	456.74
751.869	403.11
752.195	431.2
752.521	415.88
752.846	436.31
753.172	484.82
753.497	390.35
753.823	410.77
754.148	433.76
754.473	403.11
754.799	426.09
755.124	446.52
755.449	415.88
755.774	395.45
756.1	375.03
756.425	408.22
756.75	459.29
757.075	403.11
757.4	500.14
757.724	454.18
758.049	438.86
758.374	423.54
758.699	410.77
759.024	428.65
759.348	415.88
759.673	449.08
759.997	410.77
760.322	426.09
760.646	474.61
760.971	474.61
761.295	489.93
761.619	446.52
761.944	474.61
762.268	461.84
762.592	441.42
762.916	510.36
763.24	489.93
763.564	548.66
763.888	579.3
764.212	594.62
764.536	602.28
764.86	648.24
765.184	648.24
765.508	719.73
765.831	589.51
766.155	888.26
766.478	747.82
766.802	737.61
767.126	819.32
767.449	939.32
767.772	913.79
768.096	926.56
768.419	998.05
768.742	952.09
769.066	1021.03
769.389	1064.44
769.712	1066.99
770.035	1087.42
770.358	1207.43
770.681	1148.7
771.004	1243.18
771.327	1278.92
771.65	1345.31
771.972	1340.2
772.295	1529.15
772.618	1485.75
772.941	1432.13
773.263	1444.89
773.586	1539.37
773.908	1669.59
774.231	1738.53
774.553	1820.24
774.875	1876.41
775.198	2037.28
775.52	1866.2
775.842	1845.77
776.164	1855.99
776.487	1894.29
776.809	1968.34
777.131	2047.49
777.453	2021.96
777.775	2042.38
778.096	2024.51
778.418	2103.66
778.74	2055.15
779.062	2006.64
779.384	2180.27
779.705	2453.48
780.027	2777.76
780.348	2678.17
780.67	2616.89
780.991	2877.34
781.313	3040.75
781.634	3079.05
781.955	2923.3
782.277	2795.63
782.598	2874.78
782.919	2849.25
783.24	2943.73
783.561	2923.3
783.882	2961.6
784.203	2892.66
784.524	2956.49
784.845	2764.99
785.166	2683.28
785.487	2614.34
785.807	2719.03
786.128	2703.71
786.449	2731.8
786.769	2726.69
787.09	2844.14
787.41	2969.26
787.731	3359.93
788.051	3449.29
788.372	3548.88
788.692	3673.99
789.012	3855.28
789.332	3942.1
789.653	3962.52
789.973	4057
790.293	3967.63
790.613	3551.43
790.933	3349.71
791.253	3257.79
791.573	3020.33
791.893	2846.7
792.212	2650.09
792.532	2660.3
792.852	2578.59
793.171	2522.42
793.491	2364.11
793.811	2443.26
794.13	2524.97
794.45	2463.69
794.769	2501.99
795.088	2678.17
795.408	2800.74
795.727	2948.83
796.046	2851.8
796.365	2721.58
796.684	2560.72
797.004	2499.44
797.323	2537.74
797.642	2938.62
797.96	2862.02
798.279	2905.43
798.598	2757.33
798.917	2509.65
799.236	2323.25
799.554	2218.57
799.873	2198.14
