Data from 2025-12-03_xpw_interference_micrometer_634_reference_FLMS141361__114__364.txt Node

Date: Wed Dec 03 15:51:24 MST 2025
User: james
Spectrometer: FLMS14136
Trigger mode: 0
Integration Time (sec): 1.000000E-1
Scans to average: 1
Electric dark correction enabled: true
Nonlinearity correction enabled: false
Boxcar width: 0
XAxis mode: Wavelengths
Number of Pixels in Spectrum: 2048
>>>>>Begin Spectral Data<<<<<
339.315	-6.22
339.697	-6.22
340.079	-6.22
340.461	-80.27
340.843	-141.55
341.225	-90.49
341.607	-131.34
341.989	-77.72
342.371	-90.49
342.752	-29.2
343.134	-95.59
343.516	-70.06
343.897	-39.42
344.279	-44.52
344.661	21.86
345.042	44.84
345.423	93.36
345.805	98.46
346.186	70.38
346.567	215.92
346.949	124
347.33	200.6
347.711	182.73
348.092	203.15
348.473	318.06
348.854	210.81
349.235	254.22
349.616	279.75
349.997	305.29
350.378	343.59
350.758	387
351.139	305.29
351.52	399.76
351.9	335.93
352.281	376.78
352.661	346.14
353.042	356.36
353.422	353.8
353.803	412.53
354.183	351.25
354.563	330.82
354.943	407.42
355.324	484.02
355.704	404.87
356.084	348.7
356.464	338.48
356.844	402.32
357.224	415.08
357.603	346.14
357.983	333.38
358.363	384.44
358.743	415.08
359.122	443.17
359.502	366.57
359.882	402.32
360.261	315.5
360.641	346.14
361.02	389.55
361.399	295.07
361.779	374.23
362.158	402.32
362.537	330.82
362.916	440.62
363.296	392.1
363.675	335.93
364.054	297.63
364.433	369.12
364.812	415.08
365.19	399.76
365.569	289.97
365.948	389.55
366.327	379.34
366.705	356.36
367.084	404.87
367.463	348.7
367.841	374.23
368.22	399.76
368.598	330.82
368.977	346.14
369.355	394.66
369.733	448.28
370.111	374.23
370.49	415.08
370.868	371.68
371.246	371.68
371.624	325.72
372.002	330.82
372.38	335.93
372.758	374.23
373.136	445.72
373.513	397.21
373.891	384.44
374.269	371.68
374.646	376.78
375.024	361.46
375.402	341.04
375.779	325.72
376.157	364.02
376.534	341.04
376.911	425.3
377.289	333.38
377.666	402.32
378.043	381.89
378.42	435.51
378.797	397.21
379.175	422.74
379.552	369.12
379.929	333.38
380.305	376.78
380.682	381.89
381.059	415.08
381.436	358.91
381.813	295.07
382.189	376.78
382.566	358.91
382.943	397.21
383.319	358.91
383.696	335.93
384.072	346.14
384.448	420.19
384.825	397.21
385.201	394.66
385.577	366.57
385.953	325.72
386.329	338.48
386.706	376.78
387.082	351.25
387.458	366.57
387.834	361.46
388.209	292.52
388.585	422.74
388.961	353.8
389.337	325.72
389.713	369.12
390.088	381.89
390.464	415.08
390.839	448.28
391.215	397.21
391.59	348.7
391.966	420.19
392.341	417.64
392.716	366.57
393.092	376.78
393.467	415.08
393.842	369.12
394.217	407.42
394.592	392.1
394.967	417.64
395.342	289.97
395.717	348.7
396.092	361.46
396.467	389.55
396.841	432.96
397.216	399.76
397.591	384.44
397.965	445.72
398.34	399.76
398.714	343.59
399.089	399.76
399.463	371.68
399.838	310.4
400.212	348.7
400.586	387
400.961	399.76
401.335	430.4
401.709	353.8
402.083	379.34
402.457	335.93
402.831	348.7
403.205	389.55
403.579	402.32
403.953	435.51
404.326	443.17
404.7	445.72
405.074	394.66
405.447	374.23
405.821	443.17
406.195	358.91
406.568	335.93
406.942	438.06
407.315	381.89
407.688	404.87
408.062	358.91
408.435	417.64
408.808	371.68
409.181	415.08
409.554	407.42
409.927	415.08
410.3	366.57
410.673	338.48
411.046	402.32
411.419	376.78
411.792	361.46
412.165	371.68
412.537	415.08
412.91	379.34
413.283	387
413.655	358.91
414.028	338.48
414.4	392.1
414.773	404.87
415.145	381.89
415.517	364.02
415.889	445.72
416.262	461.04
416.634	392.1
417.006	399.76
417.378	402.32
417.75	438.06
418.122	379.34
418.494	384.44
418.866	399.76
419.238	389.55
419.609	295.07
419.981	343.59
420.353	356.36
420.725	394.66
421.096	435.51
421.468	453.38
421.839	422.74
422.211	427.85
422.582	443.17
422.953	402.32
423.325	455.94
423.696	348.7
424.067	387
424.438	415.08
424.809	389.55
425.18	351.25
425.551	364.02
425.922	402.32
426.293	417.64
426.664	379.34
427.035	501.9
427.406	458.49
427.776	425.3
428.147	432.96
428.518	379.34
428.888	353.8
429.259	407.42
429.629	402.32
429.999	369.12
430.37	415.08
430.74	397.21
431.11	356.36
431.481	364.02
431.851	425.3
432.221	402.32
432.591	376.78
432.961	387
433.331	402.32
433.701	346.14
434.071	364.02
434.441	341.04
434.81	371.68
435.18	374.23
435.55	417.64
435.919	392.1
436.289	364.02
436.658	409.98
437.028	397.21
437.397	392.1
437.767	394.66
438.136	402.32
438.505	445.72
438.875	463.6
439.244	450.83
439.613	407.42
439.982	435.51
440.351	371.68
440.72	466.15
441.089	486.58
441.458	417.64
441.827	356.36
442.196	404.87
442.564	499.34
442.933	412.53
443.302	489.13
443.67	412.53
444.039	489.13
444.407	438.06
444.776	440.62
445.144	412.53
445.513	389.55
445.881	392.1
446.249	432.96
446.617	297.63
446.986	399.76
447.354	415.08
447.722	415.08
448.09	389.55
448.458	425.3
448.826	425.3
449.194	438.06
449.561	392.1
449.929	455.94
450.297	376.78
450.665	417.64
451.032	392.1
451.4	455.94
451.767	443.17
452.135	453.38
452.502	407.42
452.87	425.3
453.237	392.1
453.604	399.76
453.971	425.3
454.339	417.64
454.706	366.57
455.073	466.15
455.44	409.98
455.807	412.53
456.174	407.42
456.541	438.06
456.908	468.7
457.274	409.98
457.641	399.76
458.008	448.28
458.374	397.21
458.741	453.38
459.108	379.34
459.474	404.87
459.841	422.74
460.207	458.49
460.573	425.3
460.94	440.62
461.306	448.28
461.672	430.4
462.038	417.64
462.404	392.1
462.771	420.19
463.137	417.64
463.503	481.47
463.868	443.17
464.234	384.44
464.6	450.83
464.966	453.38
465.332	450.83
465.697	409.98
466.063	417.64
466.429	379.34
466.794	343.59
467.16	450.83
467.525	374.23
467.89	468.7
468.256	440.62
468.621	387
468.986	445.72
469.351	325.72
469.717	412.53
470.082	379.34
470.447	443.17
470.812	427.85
471.177	407.42
471.542	415.08
471.906	476.36
472.271	435.51
472.636	387
473.001	489.13
473.365	422.74
473.73	387
474.094	412.53
474.459	438.06
474.823	422.74
475.188	440.62
475.552	443.17
475.917	425.3
476.281	417.64
476.645	415.08
477.009	435.51
477.373	409.98
477.737	351.25
478.101	412.53
478.465	392.1
478.829	443.17
479.193	430.4
479.557	430.4
479.921	486.58
480.284	486.58
480.648	435.51
481.012	364.02
481.375	420.19
481.739	417.64
482.102	381.89
482.466	381.89
482.829	443.17
483.193	415.08
483.556	392.1
483.919	379.34
484.282	389.55
484.645	450.83
485.009	468.7
485.372	409.98
485.735	481.47
486.098	430.4
486.46	364.02
486.823	427.85
487.186	384.44
487.549	425.3
487.912	399.76
488.274	453.38
488.637	443.17
488.999	407.42
489.362	412.53
489.724	425.3
490.087	481.47
490.449	415.08
490.811	412.53
491.174	399.76
491.536	417.64
491.898	435.51
492.26	453.38
492.622	435.51
492.984	440.62
493.346	346.14
493.708	407.42
494.07	430.4
494.432	484.02
494.794	440.62
495.155	453.38
495.517	448.28
495.879	461.04
496.24	409.98
496.602	512.11
496.963	369.12
497.325	438.06
497.686	450.83
498.048	409.98
498.409	409.98
498.77	409.98
499.131	427.85
499.492	364.02
499.854	420.19
500.215	435.51
500.576	435.51
500.937	443.17
501.298	402.32
501.658	415.08
502.019	458.49
502.38	402.32
502.741	399.76
503.101	415.08
503.462	412.53
503.823	468.7
504.183	435.51
504.543	399.76
504.904	417.64
505.264	440.62
505.625	427.85
505.985	438.06
506.345	389.55
506.705	366.57
507.065	461.04
507.426	524.88
507.786	387
508.146	415.08
508.505	427.85
508.865	445.72
509.225	409.98
509.585	448.28
509.945	351.25
510.304	376.78
510.664	443.17
511.024	425.3
511.383	417.64
511.743	358.91
512.102	427.85
512.462	435.51
512.821	397.21
513.18	381.89
513.539	430.4
513.899	417.64
514.258	356.36
514.617	397.21
514.976	481.47
515.335	374.23
515.694	417.64
516.053	341.04
516.412	412.53
516.771	323.16
517.129	422.74
517.488	448.28
517.847	389.55
518.205	471.26
518.564	402.32
518.922	420.19
519.281	407.42
519.639	486.58
519.998	384.44
520.356	435.51
520.714	450.83
521.073	484.02
521.431	484.02
521.789	478.92
522.147	412.53
522.505	430.4
522.863	430.4
523.221	435.51
523.579	458.49
523.937	425.3
524.295	522.33
524.652	404.87
525.01	468.7
525.368	422.74
525.725	412.53
526.083	445.72
526.44	432.96
526.798	397.21
527.155	409.98
527.513	389.55
527.87	453.38
528.227	415.08
528.584	412.53
528.942	399.76
529.299	409.98
529.656	399.76
530.013	376.78
530.37	425.3
530.727	440.62
531.083	461.04
531.44	471.26
531.797	463.6
532.154	392.1
532.511	384.44
532.867	394.66
533.224	496.79
533.58	430.4
533.937	455.94
534.293	376.78
534.65	443.17
535.006	443.17
535.362	486.58
535.718	443.17
536.075	463.6
536.431	517.22
536.787	445.72
537.143	392.1
537.499	445.72
537.855	420.19
538.211	432.96
538.567	376.78
538.923	471.26
539.278	453.38
539.634	415.08
539.99	374.23
540.345	432.96
540.701	389.55
541.056	420.19
541.412	432.96
541.767	397.21
542.123	445.72
542.478	404.87
542.833	461.04
543.188	435.51
543.544	448.28
543.899	448.28
544.254	478.92
544.609	450.83
544.964	438.06
545.319	427.85
545.674	453.38
546.029	427.85
546.383	425.3
546.738	458.49
547.093	397.21
547.447	455.94
547.802	443.17
548.157	407.42
548.511	361.46
548.866	443.17
549.22	397.21
549.574	450.83
549.929	473.81
550.283	471.26
550.637	379.34
550.991	346.14
551.345	384.44
551.699	409.98
552.053	445.72
552.407	430.4
552.761	407.42
553.115	397.21
553.469	404.87
553.823	366.57
554.176	404.87
554.53	453.38
554.884	478.92
555.237	683.19
555.591	463.6
555.944	458.49
556.298	379.34
556.651	427.85
557.005	438.06
557.358	384.44
557.711	356.36
558.064	430.4
558.417	417.64
558.771	484.02
559.124	381.89
559.477	417.64
559.83	404.87
560.182	381.89
560.535	430.4
560.888	425.3
561.241	381.89
561.594	407.42
561.946	425.3
562.299	409.98
562.651	407.42
563.004	435.51
563.356	407.42
563.709	417.64
564.061	461.04
564.413	412.53
564.766	397.21
565.118	412.53
565.47	448.28
565.822	440.62
566.174	455.94
566.526	412.53
566.878	374.23
567.23	427.85
567.582	450.83
567.934	427.85
568.286	440.62
568.638	387
568.989	468.7
569.341	481.47
569.693	397.21
570.044	415.08
570.396	397.21
570.747	397.21
571.098	450.83
571.45	489.13
571.801	412.53
572.152	412.53
572.504	397.21
572.855	415.08
573.206	402.32
573.557	379.34
573.908	358.91
574.259	432.96
574.61	432.96
574.961	425.3
575.311	486.58
575.662	415.08
576.013	389.55
576.364	409.98
576.714	427.85
577.065	397.21
577.415	387
577.766	404.87
578.116	358.91
578.467	397.21
578.817	361.46
579.167	387
579.518	453.38
579.868	476.36
580.218	489.13
580.568	409.98
580.918	427.85
581.268	440.62
581.618	371.68
581.968	438.06
582.318	445.72
582.668	453.38
583.017	348.7
583.367	471.26
583.717	443.17
584.066	341.04
584.416	404.87
584.765	389.55
585.115	389.55
585.464	404.87
585.814	440.62
586.163	356.36
586.512	369.12
586.862	399.76
587.211	422.74
587.56	409.98
587.909	438.06
588.258	425.3
588.607	415.08
588.956	430.4
589.305	404.87
589.654	478.92
590.002	473.81
590.351	397.21
590.7	369.12
591.048	412.53
591.397	407.42
591.746	455.94
592.094	484.02
592.443	455.94
592.791	404.87
593.139	356.36
593.488	397.21
593.836	399.76
594.184	463.6
594.532	458.49
594.88	473.81
595.228	489.13
595.576	481.47
595.924	481.47
596.272	361.46
596.62	369.12
596.968	427.85
597.316	445.72
597.664	353.8
598.011	364.02
598.359	440.62
598.706	366.57
599.054	417.64
599.402	392.1
599.749	427.85
600.096	425.3
600.444	427.85
600.791	412.53
601.138	394.66
601.485	392.1
601.833	412.53
602.18	417.64
602.527	404.87
602.874	412.53
603.221	471.26
603.568	445.72
603.914	432.96
604.261	397.21
604.608	440.62
604.955	420.19
605.301	443.17
605.648	445.72
605.995	412.53
606.341	364.02
606.688	384.44
607.034	486.58
607.38	427.85
607.727	404.87
608.073	392.1
608.419	443.17
608.765	478.92
609.112	371.68
609.458	387
609.804	425.3
610.15	409.98
610.496	407.42
610.842	440.62
611.187	397.21
611.533	366.57
611.879	369.12
612.225	422.74
612.57	466.15
612.916	351.25
613.261	432.96
613.607	445.72
613.952	409.98
614.298	407.42
614.643	348.7
614.989	445.72
615.334	376.78
615.679	430.4
616.024	412.53
616.369	333.38
616.714	397.21
617.059	432.96
617.404	445.72
617.749	394.66
618.094	387
618.439	402.32
618.784	379.34
619.129	417.64
619.473	397.21
619.818	412.53
620.163	466.15
620.507	333.38
620.852	356.36
621.196	468.7
621.54	455.94
621.885	392.1
622.229	402.32
622.573	351.25
622.918	366.57
623.262	407.42
623.606	389.55
623.95	445.72
624.294	440.62
624.638	407.42
624.982	376.78
625.326	445.72
625.67	443.17
626.013	450.83
626.357	473.81
626.701	427.85
627.044	422.74
627.388	404.87
627.731	435.51
628.075	384.44
628.418	351.25
628.762	445.72
629.105	417.64
629.448	432.96
629.792	381.89
630.135	461.04
630.478	392.1
630.821	392.1
631.164	415.08
631.507	394.66
631.85	440.62
632.193	348.7
632.536	404.87
632.879	432.96
633.221	351.25
633.564	440.62
633.907	430.4
634.249	432.96
634.592	404.87
634.935	328.27
635.277	404.87
635.619	379.34
635.962	399.76
636.304	417.64
636.646	404.87
636.989	387
637.331	430.4
637.673	420.19
638.015	346.14
638.357	448.28
638.699	463.6
639.041	409.98
639.383	466.15
639.725	514.67
640.067	397.21
640.408	425.3
640.75	394.66
641.092	392.1
641.433	435.51
641.775	356.36
642.116	443.17
642.458	417.64
642.799	369.12
643.141	381.89
643.482	427.85
643.823	404.87
644.164	412.53
644.506	409.98
644.847	389.55
645.188	392.1
645.529	427.85
645.87	389.55
646.211	415.08
646.552	399.76
646.893	445.72
647.233	397.21
647.574	399.76
647.915	376.78
648.255	369.12
648.596	494.24
648.937	438.06
649.277	394.66
649.618	417.64
649.958	384.44
650.298	379.34
650.639	376.78
650.979	397.21
651.319	371.68
651.659	407.42
651.999	430.4
652.339	453.38
652.679	407.42
653.019	420.19
653.359	427.85
653.699	409.98
654.039	420.19
654.379	381.89
654.719	384.44
655.058	407.42
655.398	425.3
655.737	461.04
656.077	435.51
656.416	448.28
656.756	412.53
657.095	453.38
657.435	394.66
657.774	371.68
658.113	335.93
658.452	384.44
658.792	364.02
659.131	387
659.47	409.98
659.809	397.21
660.148	448.28
660.487	376.78
660.826	381.89
661.164	450.83
661.503	499.34
661.842	473.81
662.181	351.25
662.519	409.98
662.858	389.55
663.196	422.74
663.535	445.72
663.873	435.51
664.212	435.51
664.55	440.62
664.888	435.51
665.226	427.85
665.565	392.1
665.903	621.91
666.241	399.76
666.579	427.85
666.917	412.53
667.255	425.3
667.593	397.21
667.931	450.83
668.268	412.53
668.606	450.83
668.944	438.06
669.282	387
669.619	384.44
669.957	389.55
670.294	425.3
670.632	387
670.969	381.89
671.307	351.25
671.644	450.83
671.981	412.53
672.318	407.42
672.656	415.08
672.993	384.44
673.33	486.58
673.667	430.4
674.004	412.53
674.341	412.53
674.678	432.96
675.015	438.06
675.351	476.36
675.688	430.4
676.025	491.68
676.362	389.55
676.698	381.89
677.035	392.1
677.371	481.47
677.708	455.94
678.044	394.66
678.38	404.87
678.717	420.19
679.053	389.55
679.389	438.06
679.725	412.53
680.062	371.68
680.398	409.98
680.734	445.72
681.07	412.53
681.406	348.7
681.742	420.19
682.077	374.23
682.413	402.32
682.749	420.19
683.085	425.3
683.42	461.04
683.756	484.02
684.091	466.15
684.427	404.87
684.762	387
685.098	358.91
685.433	389.55
685.768	422.74
686.104	453.38
686.439	443.17
686.774	445.72
687.109	425.3
687.444	445.72
687.779	461.04
688.114	461.04
688.449	356.36
688.784	356.36
689.119	341.04
689.454	430.4
689.789	394.66
690.123	397.21
690.458	387
690.792	425.3
691.127	435.51
691.461	438.06
691.796	432.96
692.13	392.1
692.465	422.74
692.799	422.74
693.133	422.74
693.467	455.94
693.802	353.8
694.136	409.98
694.47	450.83
694.804	491.68
695.138	432.96
695.472	402.32
695.806	415.08
696.139	420.19
696.473	455.94
696.807	430.4
697.141	364.02
697.474	381.89
697.808	389.55
698.141	366.57
698.475	404.87
698.808	397.21
699.142	348.7
699.475	379.34
699.808	443.17
700.142	448.28
700.475	417.64
700.808	450.83
701.141	471.26
701.474	384.44
701.807	443.17
702.14	422.74
702.473	404.87
702.806	364.02
703.139	402.32
703.472	425.3
703.804	348.7
704.137	371.68
704.47	432.96
704.802	379.34
705.135	438.06
705.467	425.3
705.8	338.48
706.132	358.91
706.464	389.55
706.797	432.96
707.129	351.25
707.461	399.76
707.793	399.76
708.125	404.87
708.457	369.12
708.789	425.3
709.121	394.66
709.453	364.02
709.785	325.72
710.117	379.34
710.449	499.34
710.781	376.78
711.112	443.17
711.444	397.21
711.775	430.4
712.107	468.7
712.438	412.53
712.77	430.4
713.101	325.72
713.433	369.12
713.764	371.68
714.095	404.87
714.426	384.44
714.757	356.36
715.089	404.87
715.42	420.19
715.751	397.21
716.082	422.74
716.412	427.85
716.743	453.38
717.074	425.3
717.405	392.1
717.736	394.66
718.066	417.64
718.397	415.08
718.727	356.36
719.058	369.12
719.388	330.82
719.719	422.74
720.049	427.85
720.38	387
720.71	394.66
721.04	445.72
721.37	425.3
721.7	381.89
722.031	351.25
722.361	407.42
722.691	412.53
723.021	387
723.35	430.4
723.68	409.98
724.01	412.53
724.34	420.19
724.67	432.96
724.999	389.55
725.329	466.15
725.658	461.04
725.988	374.23
726.317	450.83
726.647	420.19
726.976	381.89
727.306	440.62
727.635	341.04
727.964	389.55
728.293	435.51
728.622	435.51
728.952	338.48
729.281	409.98
729.61	466.15
729.939	468.7
730.267	381.89
730.596	430.4
730.925	425.3
731.254	381.89
731.583	407.42
731.911	364.02
732.24	394.66
732.568	432.96
732.897	435.51
733.225	463.6
733.554	361.46
733.882	407.42
734.21	369.12
734.539	356.36
734.867	425.3
735.195	364.02
735.523	432.96
735.851	389.55
736.179	376.78
736.507	453.38
736.835	417.64
737.163	420.19
737.491	333.38
737.819	392.1
738.147	404.87
738.474	387
738.802	440.62
739.13	397.21
739.457	461.04
739.785	381.89
740.112	325.72
740.44	328.27
740.767	407.42
741.094	445.72
741.422	425.3
741.749	361.46
742.076	384.44
742.403	453.38
742.73	504.45
743.057	443.17
743.384	415.08
743.711	397.21
744.038	348.7
744.365	409.98
744.692	420.19
745.018	412.53
745.345	412.53
745.672	404.87
745.998	384.44
746.325	374.23
746.651	369.12
746.978	455.94
747.304	376.78
747.631	407.42
747.957	392.1
748.283	425.3
748.61	392.1
748.936	351.25
749.262	468.7
749.588	491.68
749.914	407.42
750.24	491.68
750.566	409.98
750.892	443.17
751.218	394.66
751.543	453.38
751.869	369.12
752.195	394.66
752.521	435.51
752.846	320.61
753.172	328.27
753.497	399.76
753.823	443.17
754.148	417.64
754.473	466.15
754.799	409.98
755.124	430.4
755.449	425.3
755.774	392.1
756.1	448.28
756.425	486.58
756.75	445.72
757.075	392.1
757.4	552.97
757.724	366.57
758.049	473.81
758.374	402.32
758.699	384.44
759.024	384.44
759.348	356.36
759.673	481.47
759.997	384.44
760.322	432.96
760.646	371.68
760.971	407.42
761.295	440.62
761.619	432.96
761.944	476.36
762.268	461.04
762.592	387
762.916	466.15
763.24	471.26
763.564	519.77
763.888	491.68
764.212	606.59
764.536	514.67
764.86	537.65
765.184	591.27
765.508	670.42
765.831	660.21
766.155	859.37
766.478	759.79
766.802	739.36
767.126	836.39
767.449	810.86
767.772	956.4
768.096	874.69
768.419	905.33
768.742	979.38
769.066	1038.11
769.389	1030.45
769.712	1055.98
770.035	1101.94
770.358	1163.22
770.681	1183.65
771.004	1127.48
771.327	1252.59
771.65	1239.82
771.972	1352.17
772.295	1331.75
772.618	1298.55
772.941	1367.49
773.263	1410.9
773.586	1502.82
773.908	1604.96
774.231	1727.52
774.553	1816.89
774.875	1921.58
775.198	1957.32
775.52	1758.16
775.842	1773.48
776.164	1704.54
776.487	1855.19
776.809	1781.14
777.131	1875.62
777.453	1888.38
777.775	1781.14
778.096	1944.56
778.418	1947.11
778.74	1903.7
779.062	1929.24
779.384	2033.93
779.705	2396.5
780.027	2567.58
780.348	2631.42
780.67	2470.55
780.991	2605.88
781.313	2950.59
781.634	3034.85
781.955	2848.45
782.277	2731
782.598	2799.94
782.919	2710.57
783.24	2774.4
783.561	2792.28
783.882	2759.08
784.203	2866.33
784.524	2784.62
784.845	2787.17
785.166	2452.68
785.487	2600.78
785.807	2695.25
786.128	2557.37
786.449	2577.79
786.769	2473.11
787.09	2659.5
787.41	2935.27
787.731	3162.52
788.051	3285.08
788.372	3325.93
788.692	3545.52
789.012	3647.66
789.332	3691.07
789.653	3798.31
789.973	3997.47
790.293	3862.14
790.613	3428.07
790.933	3213.59
791.253	3032.3
791.573	2891.86
791.893	2953.14
792.212	2792.28
792.532	2746.32
792.852	2613.54
793.171	2498.64
793.491	2391.4
793.811	2442.47
794.13	2378.63
794.45	2450.13
794.769	2455.23
795.088	2697.8
795.408	2677.38
795.727	2894.41
796.046	2761.64
796.365	2687.59
796.684	2575.24
797.004	2427.15
797.323	2559.92
797.642	2805.05
797.96	2871.43
798.279	2891.86
798.598	2679.93
798.917	2710.57
799.236	2404.16
799.554	2289.26
799.873	2146.27
800.192	2136.06
800.51	2258.62
800.829	2227.98
801.147	2120.74
801.466	2013.5
801.784	2039.03
