Data from 2025-12-03_xpw_interference_micrometer_634_reference_FLMS141361__117__367.txt Node

Date: Wed Dec 03 15:51:24 MST 2025
User: james
Spectrometer: FLMS14136
Trigger mode: 0
Integration Time (sec): 1.000000E-1
Scans to average: 1
Electric dark correction enabled: true
Nonlinearity correction enabled: false
Boxcar width: 0
XAxis mode: Wavelengths
Number of Pixels in Spectrum: 2048
>>>>>Begin Spectral Data<<<<<
339.315	12.45
339.697	12.45
340.079	12.45
340.461	-107.56
340.843	-7.98
341.225	-36.07
341.607	-51.39
341.989	-84.58
342.371	-33.51
342.752	-76.92
343.134	-69.26
343.516	-10.53
343.897	7.34
344.279	-23.3
344.661	-7.98
345.042	40.53
345.423	25.21
345.805	17.55
346.186	83.94
346.567	76.28
346.949	142.67
347.33	150.33
347.711	180.97
348.092	178.42
348.473	221.82
348.854	265.23
349.235	334.17
349.616	221.82
349.997	267.79
350.378	308.64
350.758	300.98
351.139	318.85
351.52	298.43
351.9	357.15
352.281	372.47
352.661	349.49
353.042	433.76
353.422	408.22
353.803	454.18
354.183	318.85
354.563	382.69
354.943	334.17
355.324	357.15
355.704	318.85
356.084	362.26
356.464	380.13
356.844	456.74
357.224	377.58
357.603	403.11
357.983	385.24
358.363	403.11
358.743	420.99
359.122	403.11
359.502	395.45
359.882	375.03
360.261	390.35
360.641	357.15
361.02	364.81
361.399	318.85
361.779	390.35
362.158	326.51
362.537	367.37
362.916	359.71
363.296	423.54
363.675	362.26
364.054	346.94
364.433	382.69
364.812	362.26
365.19	288.21
365.569	380.13
365.948	367.37
366.327	344.39
366.705	339.28
367.084	377.58
367.463	403.11
367.841	382.69
368.22	380.13
368.598	336.73
368.977	367.37
369.355	323.96
369.733	405.67
370.111	290.77
370.49	418.43
370.868	382.69
371.246	364.81
371.624	390.35
372.002	369.92
372.38	311.19
372.758	272.89
373.136	375.03
373.513	392.9
373.891	418.43
374.269	380.13
374.646	308.64
375.024	313.75
375.402	354.6
375.779	280.55
376.157	326.51
376.534	331.62
376.911	461.84
377.289	390.35
377.666	349.49
378.043	275.45
378.42	318.85
378.797	367.37
379.175	331.62
379.552	392.9
379.929	392.9
380.305	438.86
380.682	413.33
381.059	369.92
381.436	359.71
381.813	364.81
382.189	367.37
382.566	339.28
382.943	377.58
383.319	316.3
383.696	329.07
384.072	398.01
384.448	377.58
384.825	331.62
385.201	336.73
385.577	403.11
385.953	367.37
386.329	352.05
386.706	364.81
387.082	372.47
387.458	420.99
387.834	367.37
388.209	380.13
388.585	318.85
388.961	364.81
389.337	306.09
389.713	362.26
390.088	443.97
390.464	382.69
390.839	364.81
391.215	398.01
391.59	405.67
391.966	344.39
392.341	385.24
392.716	385.24
393.092	387.79
393.467	395.45
393.842	329.07
394.217	298.43
394.592	349.49
394.967	433.76
395.342	472.06
395.717	346.94
396.092	377.58
396.467	336.73
396.841	385.24
397.216	387.79
397.591	454.18
397.965	346.94
398.34	423.54
398.714	339.28
399.089	341.83
399.463	390.35
399.838	331.62
400.212	364.81
400.586	346.94
400.961	354.6
401.335	398.01
401.709	375.03
402.083	329.07
402.457	382.69
402.831	380.13
403.205	357.15
403.579	334.17
403.953	352.05
404.326	308.64
404.7	362.26
405.074	387.79
405.447	385.24
405.821	369.92
406.195	367.37
406.568	390.35
406.942	449.08
407.315	329.07
407.688	336.73
408.062	438.86
408.435	403.11
408.808	372.47
409.181	423.54
409.554	367.37
409.927	408.22
410.3	369.92
410.673	400.56
411.046	369.92
411.419	423.54
411.792	495.04
412.165	387.79
412.537	403.11
412.91	321.41
413.283	400.56
413.655	380.13
414.028	398.01
414.4	385.24
414.773	420.99
415.145	300.98
415.517	372.47
415.889	372.47
416.262	385.24
416.634	377.58
417.006	390.35
417.378	390.35
417.75	400.56
418.122	410.77
418.494	336.73
418.866	382.69
419.238	403.11
419.609	418.43
419.981	408.22
420.353	352.05
420.725	395.45
421.096	344.39
421.468	413.33
421.839	459.29
422.211	329.07
422.582	410.77
422.953	405.67
423.325	410.77
423.696	382.69
424.067	438.86
424.438	382.69
424.809	308.64
425.18	428.65
425.551	472.06
425.922	392.9
426.293	375.03
426.664	423.54
427.035	428.65
427.406	377.58
427.776	415.88
428.147	420.99
428.518	395.45
428.888	336.73
429.259	428.65
429.629	375.03
429.999	428.65
430.37	400.56
430.74	367.37
431.11	418.43
431.481	446.52
431.851	438.86
432.221	418.43
432.591	418.43
432.961	408.22
433.331	364.81
433.701	387.79
434.071	428.65
434.441	357.15
434.81	428.65
435.18	369.92
435.55	316.3
435.919	392.9
436.289	403.11
436.658	346.94
437.028	408.22
437.397	413.33
437.767	375.03
438.136	405.67
438.505	423.54
438.875	346.94
439.244	466.95
439.613	380.13
439.982	446.52
440.351	436.31
440.72	449.08
441.089	426.09
441.458	479.72
441.827	446.52
442.196	446.52
442.564	551.21
442.933	446.52
443.302	372.47
443.67	385.24
444.039	380.13
444.407	367.37
444.776	405.67
445.144	349.49
445.513	426.09
445.881	357.15
446.249	438.86
446.617	456.74
446.986	428.65
447.354	436.31
447.722	398.01
448.09	428.65
448.458	456.74
448.826	423.54
449.194	426.09
449.561	408.22
449.929	387.79
450.297	436.31
450.665	375.03
451.032	415.88
451.4	464.4
451.767	428.65
452.135	359.71
452.502	359.71
452.87	375.03
453.237	446.52
453.604	459.29
453.971	469.5
454.339	382.69
454.706	375.03
455.073	405.67
455.44	346.94
455.807	357.15
456.174	415.88
456.541	426.09
456.908	329.07
457.274	398.01
457.641	398.01
458.008	451.63
458.374	466.95
458.741	387.79
459.108	459.29
459.474	352.05
459.841	346.94
460.207	380.13
460.573	387.79
460.94	418.43
461.306	390.35
461.672	311.19
462.038	387.79
462.404	484.82
462.771	387.79
463.137	438.86
463.503	390.35
463.868	449.08
464.234	466.95
464.6	418.43
464.966	423.54
465.332	398.01
465.697	418.43
466.063	426.09
466.429	398.01
466.794	364.81
467.16	362.26
467.525	423.54
467.89	426.09
468.256	362.26
468.621	369.92
468.986	405.67
469.351	364.81
469.717	451.63
470.082	456.74
470.447	438.86
470.812	349.49
471.177	364.81
471.542	428.65
471.906	375.03
472.271	357.15
472.636	372.47
473.001	400.56
473.365	367.37
473.73	415.88
474.094	392.9
474.459	375.03
474.823	398.01
475.188	382.69
475.552	380.13
475.917	405.67
476.281	436.31
476.645	398.01
477.009	334.17
477.373	392.9
477.737	456.74
478.101	344.39
478.465	387.79
478.829	426.09
479.193	364.81
479.557	385.24
479.921	318.85
480.284	438.86
480.648	420.99
481.012	369.92
481.375	364.81
481.739	413.33
482.102	438.86
482.466	387.79
482.829	479.72
483.193	415.88
483.556	482.27
483.919	398.01
484.282	433.76
484.645	382.69
485.009	395.45
485.372	403.11
485.735	428.65
486.098	395.45
486.46	390.35
486.823	354.6
487.186	415.88
487.549	428.65
487.912	400.56
488.274	387.79
488.637	441.42
488.999	436.31
489.362	449.08
489.724	418.43
490.087	443.97
490.449	438.86
490.811	359.71
491.174	387.79
491.536	403.11
491.898	354.6
492.26	372.47
492.622	387.79
492.984	377.58
493.346	395.45
493.708	431.2
494.07	405.67
494.432	387.79
494.794	398.01
495.155	344.39
495.517	403.11
495.879	420.99
496.24	418.43
496.602	443.97
496.963	359.71
497.325	395.45
497.686	423.54
498.048	392.9
498.409	415.88
498.77	341.83
499.131	410.77
499.492	451.63
499.854	420.99
500.215	390.35
500.576	380.13
500.937	398.01
501.298	382.69
501.658	474.61
502.019	408.22
502.38	449.08
502.741	392.9
503.101	405.67
503.462	431.2
503.823	443.97
504.183	469.5
504.543	466.95
504.904	415.88
505.264	398.01
505.625	395.45
505.985	367.37
506.345	466.95
506.705	446.52
507.065	316.3
507.426	339.28
507.786	346.94
508.146	405.67
508.505	426.09
508.865	413.33
509.225	428.65
509.585	449.08
509.945	395.45
510.304	410.77
510.664	446.52
511.024	479.72
511.383	433.76
511.743	446.52
512.102	449.08
512.462	420.99
512.821	392.9
513.18	466.95
513.539	446.52
513.899	418.43
514.258	428.65
514.617	426.09
514.976	436.31
515.335	441.42
515.694	428.65
516.053	387.79
516.412	420.99
516.771	400.56
517.129	377.58
517.488	367.37
517.847	352.05
518.205	423.54
518.564	428.65
518.922	408.22
519.281	377.58
519.639	446.52
519.998	456.74
520.356	438.86
520.714	372.47
521.073	367.37
521.431	380.13
521.789	431.2
522.147	387.79
522.505	426.09
522.863	449.08
523.221	403.11
523.579	449.08
523.937	357.15
524.295	477.16
524.652	403.11
525.01	426.09
525.368	423.54
525.725	428.65
526.083	369.92
526.44	385.24
526.798	420.99
527.155	380.13
527.513	377.58
527.87	408.22
528.227	385.24
528.584	413.33
528.942	428.65
529.299	392.9
529.656	377.58
530.013	395.45
530.37	420.99
530.727	413.33
531.083	420.99
531.44	357.15
531.797	415.88
532.154	372.47
532.511	390.35
532.867	326.51
533.224	372.47
533.58	451.63
533.937	400.56
534.293	464.4
534.65	433.76
535.006	426.09
535.362	418.43
535.718	372.47
536.075	431.2
536.431	380.13
536.787	415.88
537.143	403.11
537.499	431.2
537.855	459.29
538.211	479.72
538.567	420.99
538.923	390.35
539.278	505.25
539.634	443.97
539.99	357.15
540.345	392.9
540.701	408.22
541.056	344.39
541.412	405.67
541.767	372.47
542.123	385.24
542.478	387.79
542.833	369.92
543.188	441.42
543.544	344.39
543.899	349.49
544.254	443.97
544.609	433.76
544.964	367.37
545.319	446.52
545.674	438.86
546.029	369.92
546.383	395.45
546.738	392.9
547.093	359.71
547.447	387.79
547.802	413.33
548.157	446.52
548.511	400.56
548.866	336.73
549.22	372.47
549.574	359.71
549.929	395.45
550.283	418.43
550.637	387.79
550.991	431.2
551.345	428.65
551.699	395.45
552.053	357.15
552.407	392.9
552.761	454.18
553.115	433.76
553.469	431.2
553.823	403.11
554.176	426.09
554.53	451.63
554.884	456.74
555.237	673.77
555.591	466.95
555.944	502.7
556.298	433.76
556.651	369.92
557.005	454.18
557.358	477.16
557.711	459.29
558.064	410.77
558.417	403.11
558.771	431.2
559.124	395.45
559.477	408.22
559.83	321.41
560.182	400.56
560.535	372.47
560.888	400.56
561.241	418.43
561.594	456.74
561.946	382.69
562.299	446.52
562.651	413.33
563.004	398.01
563.356	390.35
563.709	349.49
564.061	359.71
564.413	400.56
564.766	357.15
565.118	433.76
565.47	331.62
565.822	387.79
566.174	464.4
566.526	392.9
566.878	431.2
567.23	369.92
567.582	449.08
567.934	390.35
568.286	420.99
568.638	346.94
568.989	443.97
569.341	403.11
569.693	367.37
570.044	398.01
570.396	321.41
570.747	380.13
571.098	369.92
571.45	408.22
571.801	382.69
572.152	436.31
572.504	443.97
572.855	377.58
573.206	398.01
573.557	385.24
573.908	415.88
574.259	426.09
574.61	484.82
574.961	398.01
575.311	472.06
575.662	415.88
576.013	375.03
576.364	415.88
576.714	408.22
577.065	387.79
577.415	375.03
577.766	431.2
578.116	415.88
578.467	382.69
578.817	413.33
579.167	482.27
579.518	438.86
579.868	410.77
580.218	461.84
580.568	451.63
580.918	377.58
581.268	464.4
581.618	438.86
581.968	387.79
582.318	433.76
582.668	367.37
583.017	400.56
583.367	443.97
583.717	357.15
584.066	420.99
584.416	367.37
584.765	367.37
585.115	364.81
585.464	454.18
585.814	316.3
586.163	392.9
586.512	438.86
586.862	431.2
587.211	431.2
587.56	387.79
587.909	405.67
588.258	423.54
588.607	403.11
588.956	459.29
589.305	423.54
589.654	405.67
590.002	344.39
590.351	334.17
590.7	403.11
591.048	395.45
591.397	405.67
591.746	405.67
592.094	461.84
592.443	354.6
592.791	369.92
593.139	339.28
593.488	456.74
593.836	484.82
594.184	441.42
594.532	454.18
594.88	479.72
595.228	415.88
595.576	400.56
595.924	449.08
596.272	410.77
596.62	428.65
596.968	415.88
597.316	443.97
597.664	408.22
598.011	433.76
598.359	382.69
598.706	395.45
599.054	436.31
599.402	382.69
599.749	400.56
600.096	405.67
600.444	461.84
600.791	405.67
601.138	354.6
601.485	449.08
601.833	405.67
602.18	392.9
602.527	420.99
602.874	380.13
603.221	377.58
603.568	436.31
603.914	451.63
604.261	454.18
604.608	398.01
604.955	346.94
605.301	415.88
605.648	495.04
605.995	426.09
606.341	489.93
606.688	413.33
607.034	436.31
607.38	400.56
607.727	375.03
608.073	398.01
608.419	400.56
608.765	415.88
609.112	413.33
609.458	395.45
609.804	423.54
610.15	413.33
610.496	420.99
610.842	400.56
611.187	472.06
611.533	395.45
611.879	390.35
612.225	428.65
612.57	433.76
612.916	382.69
613.261	410.77
613.607	295.87
613.952	438.86
614.298	415.88
614.643	364.81
614.989	423.54
615.334	392.9
615.679	408.22
616.024	395.45
616.369	364.81
616.714	390.35
617.059	451.63
617.404	423.54
617.749	405.67
618.094	431.2
618.439	357.15
618.784	336.73
619.129	400.56
619.473	477.16
619.818	403.11
620.163	443.97
620.507	387.79
620.852	413.33
621.196	380.13
621.54	380.13
621.885	472.06
622.229	398.01
622.573	369.92
622.918	443.97
623.262	449.08
623.606	352.05
623.95	362.26
624.294	403.11
624.638	420.99
624.982	362.26
625.326	410.77
625.67	395.45
626.013	410.77
626.357	387.79
626.701	364.81
627.044	398.01
627.388	369.92
627.731	398.01
628.075	357.15
628.418	385.24
628.762	459.29
629.105	403.11
629.448	367.37
629.792	392.9
630.135	344.39
630.478	398.01
630.821	436.31
631.164	438.86
631.507	405.67
631.85	420.99
632.193	489.93
632.536	354.6
632.879	459.29
633.221	420.99
633.564	438.86
633.907	352.05
634.249	385.24
634.592	413.33
634.935	413.33
635.277	398.01
635.619	385.24
635.962	380.13
636.304	375.03
636.646	380.13
636.989	398.01
637.331	410.77
637.673	341.83
638.015	456.74
638.357	382.69
638.699	459.29
639.041	449.08
639.383	400.56
639.725	375.03
640.067	344.39
640.408	352.05
640.75	484.82
641.092	500.14
641.433	380.13
641.775	369.92
642.116	420.99
642.458	446.52
642.799	449.08
643.141	433.76
643.482	408.22
643.823	398.01
644.164	420.99
644.506	525.68
644.847	390.35
645.188	387.79
645.529	469.5
645.87	449.08
646.211	369.92
646.552	418.43
646.893	336.73
647.233	387.79
647.574	377.58
647.915	387.79
648.255	413.33
648.596	479.72
648.937	387.79
649.277	357.15
649.618	474.61
649.958	369.92
650.298	392.9
650.639	377.58
650.979	387.79
651.319	456.74
651.659	479.72
651.999	451.63
652.339	341.83
652.679	454.18
653.019	380.13
653.359	392.9
653.699	403.11
654.039	446.52
654.379	466.95
654.719	413.33
655.058	385.24
655.398	415.88
655.737	461.84
656.077	354.6
656.416	446.52
656.756	400.56
657.095	410.77
657.435	423.54
657.774	339.28
658.113	380.13
658.452	403.11
658.792	443.97
659.131	415.88
659.47	392.9
659.809	392.9
660.148	380.13
660.487	385.24
660.826	344.39
661.164	446.52
661.503	400.56
661.842	413.33
662.181	375.03
662.519	415.88
662.858	426.09
663.196	346.94
663.535	395.45
663.873	395.45
664.212	375.03
664.55	390.35
664.888	331.62
665.226	375.03
665.565	385.24
665.903	599.72
666.241	428.65
666.579	380.13
666.917	395.45
667.255	385.24
667.593	359.71
667.931	423.54
668.268	403.11
668.606	420.99
668.944	431.2
669.282	352.05
669.619	446.52
669.957	400.56
670.294	392.9
670.632	398.01
670.969	426.09
671.307	456.74
671.644	428.65
671.981	380.13
672.318	443.97
672.656	497.59
672.993	431.2
673.33	413.33
673.667	438.86
674.004	329.07
674.341	436.31
674.678	469.5
675.015	405.67
675.351	403.11
675.688	413.33
676.025	303.53
676.362	418.43
676.698	395.45
677.035	400.56
677.371	395.45
677.708	426.09
678.044	428.65
678.38	380.13
678.717	403.11
679.053	395.45
679.389	390.35
679.725	392.9
680.062	418.43
680.398	364.81
680.734	395.45
681.07	418.43
681.406	364.81
681.742	362.26
682.077	364.81
682.413	472.06
682.749	331.62
683.085	349.49
683.42	456.74
683.756	420.99
684.091	392.9
684.427	400.56
684.762	336.73
685.098	385.24
685.433	270.34
685.768	441.42
686.104	454.18
686.439	398.01
686.774	456.74
687.109	405.67
687.444	449.08
687.779	410.77
688.114	413.33
688.449	405.67
688.784	395.45
689.119	392.9
689.454	346.94
689.789	380.13
690.123	395.45
690.458	420.99
690.792	349.49
691.127	367.37
691.461	387.79
691.796	441.42
692.13	433.76
692.465	413.33
692.799	408.22
693.133	403.11
693.467	403.11
693.802	410.77
694.136	420.99
694.47	474.61
694.804	436.31
695.138	369.92
695.472	413.33
695.806	438.86
696.139	380.13
696.473	405.67
696.807	387.79
697.141	380.13
697.474	413.33
697.808	403.11
698.141	436.31
698.475	367.37
698.808	464.4
699.142	375.03
699.475	410.77
699.808	390.35
700.142	433.76
700.475	436.31
700.808	385.24
701.141	382.69
701.474	316.3
701.807	375.03
702.14	390.35
702.473	375.03
702.806	375.03
703.139	459.29
703.472	466.95
703.804	331.62
704.137	385.24
704.47	405.67
704.802	392.9
705.135	410.77
705.467	380.13
705.8	369.92
706.132	466.95
706.464	354.6
706.797	413.33
707.129	377.58
707.461	423.54
707.793	431.2
708.125	380.13
708.457	456.74
708.789	408.22
709.121	385.24
709.453	449.08
709.785	438.86
710.117	385.24
710.449	413.33
710.781	375.03
711.112	382.69
711.444	408.22
711.775	395.45
712.107	405.67
712.438	431.2
712.77	390.35
713.101	367.37
713.433	380.13
713.764	400.56
714.095	418.43
714.426	418.43
714.757	433.76
715.089	377.58
715.42	290.77
715.751	362.26
716.082	413.33
716.412	369.92
716.743	398.01
717.074	385.24
717.405	375.03
717.736	400.56
718.066	418.43
718.397	413.33
718.727	390.35
719.058	405.67
719.388	341.83
719.719	382.69
720.049	359.71
720.38	428.65
720.71	405.67
721.04	415.88
721.37	426.09
721.7	341.83
722.031	377.58
722.361	354.6
722.691	318.85
723.021	354.6
723.35	390.35
723.68	377.58
724.01	400.56
724.34	423.54
724.67	410.77
724.999	413.33
725.329	398.01
725.658	382.69
725.988	426.09
726.317	418.43
726.647	364.81
726.976	428.65
727.306	380.13
727.635	318.85
727.964	413.33
728.293	339.28
728.622	449.08
728.952	362.26
729.281	459.29
729.61	415.88
729.939	387.79
730.267	346.94
730.596	339.28
730.925	443.97
731.254	369.92
731.583	367.37
731.911	382.69
732.24	438.86
732.568	420.99
732.897	408.22
733.225	372.47
733.554	405.67
733.882	443.97
734.21	418.43
734.539	403.11
734.867	390.35
735.195	380.13
735.523	446.52
735.851	382.69
736.179	375.03
736.507	352.05
736.835	357.15
737.163	380.13
737.491	354.6
737.819	390.35
738.147	472.06
738.474	443.97
738.802	403.11
739.13	415.88
739.457	403.11
739.785	331.62
740.112	410.77
740.44	410.77
740.767	431.2
741.094	410.77
741.422	380.13
741.749	403.11
742.076	387.79
742.403	433.76
742.73	433.76
743.057	428.65
743.384	431.2
743.711	372.47
744.038	380.13
744.365	369.92
744.692	372.47
745.018	413.33
745.345	375.03
745.672	443.97
745.998	398.01
746.325	451.63
746.651	395.45
746.978	385.24
747.304	359.71
747.631	367.37
747.957	326.51
748.283	395.45
748.61	426.09
748.936	377.58
749.262	413.33
749.588	469.5
749.914	405.67
750.24	405.67
750.566	438.86
750.892	415.88
751.218	433.76
751.543	405.67
751.869	375.03
752.195	377.58
752.521	400.56
752.846	415.88
753.172	461.84
753.497	431.2
753.823	443.97
754.148	377.58
754.473	456.74
754.799	418.43
755.124	408.22
755.449	380.13
755.774	367.37
756.1	456.74
756.425	341.83
756.75	326.51
757.075	418.43
757.4	515.46
757.724	456.74
758.049	395.45
758.374	362.26
758.699	367.37
759.024	395.45
759.348	380.13
759.673	339.28
759.997	385.24
760.322	362.26
760.646	405.67
760.971	403.11
761.295	372.47
761.619	420.99
761.944	441.42
762.268	456.74
762.592	461.84
762.916	436.31
763.24	418.43
763.564	408.22
763.888	477.16
764.212	489.93
764.536	589.51
764.86	592.06
765.184	632.92
765.508	609.94
765.831	663.56
766.155	814.21
766.478	775.91
766.802	729.95
767.126	732.5
767.449	816.76
767.772	901.02
768.096	934.22
768.419	946.98
768.742	911.24
769.066	1000.61
769.389	1005.71
769.712	1100.19
770.035	1084.87
770.358	1112.95
770.681	1250.84
771.004	1130.83
771.327	1263.6
771.65	1296.8
771.972	1450
772.295	1457.66
772.618	1375.95
772.941	1406.59
773.263	1429.57
773.586	1562.35
773.908	1677.25
774.231	1825.35
774.553	1835.56
774.875	1930.03
775.198	1986.21
775.52	1960.68
775.842	1815.13
776.164	1901.95
776.487	1894.29
776.809	1942.8
777.131	2006.64
777.453	2034.72
777.775	1945.35
778.096	2024.51
778.418	2144.52
778.74	2065.36
779.062	2083.24
779.384	2254.31
779.705	2583.7
780.027	2726.69
780.348	2839.04
780.67	2726.69
780.991	2831.38
781.313	3237.36
781.634	3278.22
781.955	3089.27
782.277	2803.29
782.598	2920.75
782.919	2890.1
783.24	2859.46
783.561	3025.43
783.882	3005.01
784.203	3002.45
784.524	2951.39
784.845	2869.68
785.166	2696.05
785.487	2721.58
785.807	2787.97
786.128	2670.51
786.449	2614.34
786.769	2905.43
787.09	2918.19
787.41	3053.52
787.731	3285.88
788.051	3548.88
788.372	3663.78
788.692	3796.55
789.012	3972.74
789.332	4016.14
789.653	4123.39
789.973	4363.4
790.293	4220.41
790.613	3651.01
790.933	3620.37
791.253	3449.29
791.573	3242.47
791.893	3017.77
792.212	2877.34
792.532	2770.1
792.852	2724.14
793.171	2759.88
793.491	2555.61
793.811	2708.81
794.13	2578.59
794.45	2673.07
794.769	2629.66
795.088	2772.65
795.408	3002.45
795.727	3183.74
796.046	2902.87
796.365	2964.15
796.684	2591.36
797.004	2537.74
797.323	2560.72
797.642	3007.56
797.96	3094.37
798.279	2923.3
798.598	2826.27
798.917	2805.84
799.236	2611.79
