Data from 2025-12-03_xpw_interference_micrometer_634_reference_FLMS141361__160__410.txt Node

Date: Wed Dec 03 15:51:28 MST 2025
User: james
Spectrometer: FLMS14136
Trigger mode: 0
Integration Time (sec): 1.000000E-1
Scans to average: 1
Electric dark correction enabled: true
Nonlinearity correction enabled: false
Boxcar width: 0
XAxis mode: Wavelengths
Number of Pixels in Spectrum: 2048
>>>>>Begin Spectral Data<<<<<
339.315	-56.17
339.697	-56.17
340.079	-56.17
340.461	-135.33
340.843	-51.07
341.225	-89.37
341.607	-66.39
341.989	-125.12
342.371	-74.05
342.752	-56.17
343.134	-91.92
343.516	-43.41
343.897	89.37
344.279	-17.87
344.661	-7.66
345.042	-5.11
345.423	99.58
345.805	68.94
346.186	91.92
346.567	81.71
346.949	145.54
347.33	140.44
347.711	150.65
348.092	163.42
348.473	224.7
348.854	250.23
349.235	252.78
349.616	247.68
349.997	311.51
350.378	367.69
350.758	308.96
351.139	375.35
351.52	285.98
351.9	252.78
352.281	321.73
352.661	321.73
353.042	339.6
353.422	321.73
353.803	400.88
354.183	360.03
354.563	370.24
354.943	357.47
355.324	360.03
355.704	388.11
356.084	367.69
356.464	413.65
356.844	388.11
357.224	362.58
357.603	377.9
357.983	413.65
358.363	395.77
358.743	418.75
359.122	375.35
359.502	434.07
359.882	416.2
360.261	360.03
360.641	352.37
361.02	329.39
361.399	319.17
361.779	324.28
362.158	337.05
362.537	334.49
362.916	367.69
363.296	291.09
363.675	365.13
364.054	321.73
364.433	314.07
364.812	255.34
365.19	273.21
365.569	308.96
365.948	349.81
366.327	349.81
366.705	291.09
367.084	303.85
367.463	372.79
367.841	321.73
368.22	347.26
368.598	298.75
368.977	334.49
369.355	319.17
369.733	273.21
370.111	352.37
370.49	331.94
370.868	298.75
371.246	337.05
371.624	360.03
372.002	314.07
372.38	349.81
372.758	372.79
373.136	367.69
373.513	311.51
373.891	360.03
374.269	291.09
374.646	278.32
375.024	316.62
375.402	298.75
375.779	377.9
376.157	314.07
376.534	316.62
376.911	398.33
377.289	352.37
377.666	311.51
378.043	360.03
378.42	383.01
378.797	357.47
379.175	339.6
379.552	319.17
379.929	326.83
380.305	411.09
380.682	250.23
381.059	326.83
381.436	326.83
381.813	255.34
382.189	337.05
382.566	360.03
382.943	337.05
383.319	321.73
383.696	306.41
384.072	311.51
384.448	357.47
384.825	352.37
385.201	303.85
385.577	362.58
385.953	380.45
386.329	342.15
386.706	293.64
387.082	349.81
387.458	293.64
387.834	347.26
388.209	263
388.585	354.92
388.961	296.19
389.337	303.85
389.713	352.37
390.088	370.24
390.464	344.71
390.839	352.37
391.215	344.71
391.59	370.24
391.966	352.37
392.341	308.96
392.716	390.67
393.092	308.96
393.467	372.79
393.842	319.17
394.217	367.69
394.592	372.79
394.967	383.01
395.342	314.07
395.717	362.58
396.092	377.9
396.467	349.81
396.841	375.35
397.216	426.41
397.591	385.56
397.965	383.01
398.34	342.15
398.714	303.85
399.089	375.35
399.463	360.03
399.838	400.88
400.212	344.71
400.586	349.81
400.961	405.99
401.335	377.9
401.709	398.33
402.083	385.56
402.457	383.01
402.831	395.77
403.205	316.62
403.579	377.9
403.953	344.71
404.326	339.6
404.7	349.81
405.074	321.73
405.447	367.69
405.821	360.03
406.195	321.73
406.568	372.79
406.942	426.41
407.315	352.37
407.688	377.9
408.062	390.67
408.435	365.13
408.808	334.49
409.181	349.81
409.554	337.05
409.927	352.37
410.3	344.71
410.673	411.09
411.046	398.33
411.419	388.11
411.792	380.45
412.165	365.13
412.537	321.73
412.91	342.15
413.283	362.58
413.655	342.15
414.028	344.71
414.4	375.35
414.773	400.88
415.145	370.24
415.517	365.13
415.889	431.52
416.262	319.17
416.634	362.58
417.006	408.54
417.378	395.77
417.75	439.18
418.122	403.43
418.494	400.88
418.866	403.43
419.238	370.24
419.609	418.75
419.981	344.71
420.353	347.26
420.725	360.03
421.096	367.69
421.468	352.37
421.839	405.99
422.211	393.22
422.582	393.22
422.953	418.75
423.325	380.45
423.696	375.35
424.067	416.2
424.438	354.92
424.809	393.22
425.18	454.5
425.551	319.17
425.922	370.24
426.293	380.45
426.664	339.6
427.035	360.03
427.406	428.97
427.776	352.37
428.147	383.01
428.518	393.22
428.888	393.22
429.259	367.69
429.629	380.45
429.999	380.45
430.37	380.45
430.74	334.49
431.11	347.26
431.481	377.9
431.851	331.94
432.221	367.69
432.591	411.09
432.961	393.22
433.331	383.01
433.701	380.45
434.071	418.75
434.441	418.75
434.81	365.13
435.18	375.35
435.55	423.86
435.919	418.75
436.289	439.18
436.658	431.52
437.028	324.28
437.397	360.03
437.767	367.69
438.136	367.69
438.505	321.73
438.875	441.73
439.244	464.71
439.613	393.22
439.982	311.51
440.351	405.99
440.72	393.22
441.089	354.92
441.458	380.45
441.827	395.77
442.196	441.73
442.564	513.23
442.933	441.73
443.302	408.54
443.67	390.67
444.039	408.54
444.407	388.11
444.776	337.05
445.144	377.9
445.513	464.71
445.881	383.01
446.249	367.69
446.617	428.97
446.986	383.01
447.354	349.81
447.722	416.2
448.09	388.11
448.458	362.58
448.826	436.63
449.194	403.43
449.561	421.31
449.929	403.43
450.297	390.67
450.665	365.13
451.032	390.67
451.4	362.58
451.767	365.13
452.135	352.37
452.502	416.2
452.87	403.43
453.237	324.28
453.604	370.24
453.971	390.67
454.339	334.49
454.706	411.09
455.073	365.13
455.44	413.65
455.807	388.11
456.174	360.03
456.541	337.05
456.908	385.56
457.274	360.03
457.641	377.9
458.008	413.65
458.374	428.97
458.741	400.88
459.108	347.26
459.474	388.11
459.841	354.92
460.207	367.69
460.573	321.73
460.94	434.07
461.306	372.79
461.672	411.09
462.038	398.33
462.404	426.41
462.771	416.2
463.137	421.31
463.503	403.43
463.868	413.65
464.234	360.03
464.6	360.03
464.966	377.9
465.332	405.99
465.697	375.35
466.063	342.15
466.429	393.22
466.794	413.65
467.16	370.24
467.525	365.13
467.89	380.45
468.256	405.99
468.621	380.45
468.986	331.94
469.351	390.67
469.717	347.26
470.082	360.03
470.447	342.15
470.812	349.81
471.177	291.09
471.542	423.86
471.906	372.79
472.271	395.77
472.636	418.75
473.001	431.52
473.365	431.52
473.73	472.37
474.094	360.03
474.459	383.01
474.823	383.01
475.188	408.54
475.552	372.79
475.917	398.33
476.281	380.45
476.645	329.39
477.009	357.47
477.373	370.24
477.737	423.86
478.101	367.69
478.465	377.9
478.829	403.43
479.193	377.9
479.557	375.35
479.921	367.69
480.284	383.01
480.648	411.09
481.012	347.26
481.375	441.73
481.739	362.58
482.102	416.2
482.466	398.33
482.829	347.26
483.193	362.58
483.556	426.41
483.919	329.39
484.282	393.22
484.645	428.97
485.009	436.63
485.372	375.35
485.735	388.11
486.098	314.07
486.46	444.29
486.823	416.2
487.186	354.92
487.549	418.75
487.912	411.09
488.274	441.73
488.637	390.67
488.999	375.35
489.362	418.75
489.724	439.18
490.087	357.47
490.449	403.43
490.811	441.73
491.174	403.43
491.536	337.05
491.898	372.79
492.26	416.2
492.622	408.54
492.984	390.67
493.346	393.22
493.708	405.99
494.07	416.2
494.432	403.43
494.794	398.33
495.155	416.2
495.517	441.73
495.879	349.81
496.24	319.17
496.602	423.86
496.963	339.6
497.325	362.58
497.686	321.73
498.048	398.33
498.409	400.88
498.77	413.65
499.131	400.88
499.492	370.24
499.854	418.75
500.215	301.3
500.576	324.28
500.937	377.9
501.298	383.01
501.658	388.11
502.019	349.81
502.38	405.99
502.741	377.9
503.101	395.77
503.462	418.75
503.823	393.22
504.183	380.45
504.543	347.26
504.904	354.92
505.264	428.97
505.625	416.2
505.985	413.65
506.345	408.54
506.705	446.84
507.065	393.22
507.426	395.77
507.786	370.24
508.146	418.75
508.505	421.31
508.865	365.13
509.225	354.92
509.585	500.46
509.945	413.65
510.304	413.65
510.664	416.2
511.024	380.45
511.383	439.18
511.743	441.73
512.102	431.52
512.462	457.05
512.821	383.01
513.18	383.01
513.539	377.9
513.899	423.86
514.258	467.27
514.617	365.13
514.976	416.2
515.335	439.18
515.694	431.52
516.053	421.31
516.412	431.52
516.771	370.24
517.129	377.9
517.488	393.22
517.847	301.3
518.205	413.65
518.564	388.11
518.922	418.75
519.281	298.75
519.639	288.53
519.998	385.56
520.356	428.97
520.714	439.18
521.073	388.11
521.431	377.9
521.789	395.77
522.147	352.37
522.505	408.54
522.863	434.07
523.221	388.11
523.579	390.67
523.937	370.24
524.295	383.01
524.652	436.63
525.01	393.22
525.368	377.9
525.725	439.18
526.083	380.45
526.44	400.88
526.798	400.88
527.155	398.33
527.513	413.65
527.87	408.54
528.227	383.01
528.584	362.58
528.942	377.9
529.299	416.2
529.656	388.11
530.013	349.81
530.37	365.13
530.727	393.22
531.083	400.88
531.44	413.65
531.797	428.97
532.154	400.88
532.511	482.59
532.867	408.54
533.224	339.6
533.58	377.9
533.937	337.05
534.293	342.15
534.65	423.86
535.006	393.22
535.362	418.75
535.718	413.65
536.075	400.88
536.431	375.35
536.787	344.71
537.143	393.22
537.499	441.73
537.855	413.65
538.211	385.56
538.567	421.31
538.923	385.56
539.278	393.22
539.634	370.24
539.99	405.99
540.345	388.11
540.701	365.13
541.056	405.99
541.412	352.37
541.767	395.77
542.123	357.47
542.478	451.95
542.833	370.24
543.188	441.73
543.544	385.56
543.899	459.61
544.254	347.26
544.609	321.73
544.964	469.82
545.319	349.81
545.674	454.5
546.029	413.65
546.383	405.99
546.738	362.58
547.093	372.79
547.447	405.99
547.802	416.2
548.157	400.88
548.511	390.67
548.866	365.13
549.22	400.88
549.574	365.13
549.929	388.11
550.283	408.54
550.637	400.88
550.991	352.37
551.345	329.39
551.699	362.58
552.053	485.14
552.407	383.01
552.761	446.84
553.115	413.65
553.469	405.99
553.823	431.52
554.176	329.39
554.53	405.99
554.884	385.56
555.237	651.11
555.591	444.29
555.944	388.11
556.298	319.17
556.651	354.92
557.005	405.99
557.358	339.6
557.711	337.05
558.064	383.01
558.417	441.73
558.771	390.67
559.124	413.65
559.477	388.11
559.83	385.56
560.182	469.82
560.535	393.22
560.888	416.2
561.241	383.01
561.594	370.24
561.946	357.47
562.299	354.92
562.651	380.45
563.004	431.52
563.356	372.79
563.709	367.69
564.061	360.03
564.413	393.22
564.766	347.26
565.118	354.92
565.47	326.83
565.822	352.37
566.174	344.71
566.526	383.01
566.878	385.56
567.23	372.79
567.582	370.24
567.934	390.67
568.286	411.09
568.638	405.99
568.989	472.37
569.341	347.26
569.693	388.11
570.044	372.79
570.396	395.77
570.747	393.22
571.098	413.65
571.45	372.79
571.801	436.63
572.152	446.84
572.504	416.2
572.855	308.96
573.206	370.24
573.557	411.09
573.908	365.13
574.259	390.67
574.61	413.65
574.961	383.01
575.311	408.54
575.662	370.24
576.013	398.33
576.364	349.81
576.714	375.35
577.065	383.01
577.415	408.54
577.766	449.39
578.116	377.9
578.467	360.03
578.817	375.35
579.167	393.22
579.518	352.37
579.868	393.22
580.218	413.65
580.568	360.03
580.918	400.88
581.268	339.6
581.618	339.6
581.968	375.35
582.318	347.26
582.668	362.58
583.017	403.43
583.367	449.39
583.717	400.88
584.066	423.86
584.416	431.52
584.765	390.67
585.115	352.37
585.464	357.47
585.814	390.67
586.163	403.43
586.512	377.9
586.862	339.6
587.211	347.26
587.56	393.22
587.909	436.63
588.258	418.75
588.607	388.11
588.956	408.54
589.305	354.92
589.654	411.09
590.002	331.94
590.351	347.26
590.7	321.73
591.048	436.63
591.397	428.97
591.746	416.2
592.094	362.58
592.443	375.35
592.791	354.92
593.139	383.01
593.488	395.77
593.836	405.99
594.184	375.35
594.532	405.99
594.88	400.88
595.228	370.24
595.576	380.45
595.924	405.99
596.272	431.52
596.62	377.9
596.968	377.9
597.316	403.43
597.664	390.67
598.011	428.97
598.359	398.33
598.706	362.58
599.054	344.71
599.402	362.58
599.749	393.22
600.096	357.47
600.444	405.99
600.791	405.99
601.138	405.99
601.485	375.35
601.833	342.15
602.18	405.99
602.527	411.09
602.874	329.39
603.221	319.17
603.568	411.09
603.914	405.99
604.261	383.01
604.608	337.05
604.955	428.97
605.301	403.43
605.648	436.63
605.995	390.67
606.341	367.69
606.688	439.18
607.034	349.81
607.38	395.77
607.727	398.33
608.073	352.37
608.419	383.01
608.765	357.47
609.112	395.77
609.458	362.58
609.804	334.49
610.15	400.88
610.496	439.18
610.842	380.45
611.187	334.49
611.533	360.03
611.879	398.33
612.225	342.15
612.57	428.97
612.916	375.35
613.261	357.47
613.607	383.01
613.952	390.67
614.298	347.26
614.643	334.49
614.989	357.47
615.334	344.71
615.679	428.97
616.024	383.01
616.369	416.2
616.714	372.79
617.059	344.71
617.404	398.33
617.749	339.6
618.094	319.17
618.439	339.6
618.784	400.88
619.129	403.43
619.473	383.01
619.818	413.65
620.163	505.57
620.507	367.69
620.852	370.24
621.196	421.31
621.54	431.52
621.885	395.77
622.229	434.07
622.573	352.37
622.918	388.11
623.262	388.11
623.606	462.16
623.95	385.56
624.294	400.88
624.638	444.29
624.982	367.69
625.326	377.9
625.67	431.52
626.013	393.22
626.357	314.07
626.701	388.11
627.044	316.62
627.388	408.54
627.731	446.84
628.075	360.03
628.418	418.75
628.762	316.62
629.105	362.58
629.448	370.24
629.792	388.11
630.135	388.11
630.478	388.11
630.821	380.45
631.164	357.47
631.507	398.33
631.85	393.22
632.193	377.9
632.536	357.47
632.879	393.22
633.221	367.69
633.564	370.24
633.907	326.83
634.249	372.79
634.592	370.24
634.935	377.9
635.277	367.69
635.619	413.65
635.962	314.07
636.304	377.9
636.646	408.54
636.989	444.29
637.331	457.05
637.673	472.37
638.015	403.43
638.357	362.58
638.699	334.49
639.041	365.13
639.383	408.54
639.725	354.92
640.067	375.35
640.408	426.41
640.75	405.99
641.092	403.43
641.433	400.88
641.775	380.45
642.116	416.2
642.458	375.35
642.799	360.03
643.141	357.47
643.482	398.33
643.823	385.56
644.164	421.31
644.506	413.65
644.847	388.11
645.188	321.73
645.529	405.99
645.87	423.86
646.211	421.31
646.552	403.43
646.893	370.24
647.233	354.92
647.574	385.56
647.915	316.62
648.255	395.77
648.596	393.22
648.937	370.24
649.277	380.45
649.618	311.51
649.958	360.03
650.298	365.13
650.639	388.11
650.979	408.54
651.319	421.31
651.659	352.37
651.999	319.17
652.339	337.05
652.679	367.69
653.019	372.79
653.359	370.24
653.699	337.05
654.039	393.22
654.379	347.26
654.719	329.39
655.058	331.94
655.398	393.22
655.737	508.12
656.077	393.22
656.416	423.86
656.756	380.45
657.095	436.63
657.435	395.77
657.774	451.95
658.113	390.67
658.452	383.01
658.792	339.6
659.131	339.6
659.47	403.43
659.809	444.29
660.148	441.73
660.487	347.26
660.826	383.01
661.164	375.35
661.503	426.41
661.842	383.01
662.181	372.79
662.519	344.71
662.858	308.96
663.196	339.6
663.535	334.49
663.873	405.99
664.212	360.03
664.55	413.65
664.888	331.94
665.226	375.35
665.565	319.17
665.903	566.85
666.241	324.28
666.579	334.49
666.917	365.13
667.255	449.39
667.593	354.92
667.931	411.09
668.268	436.63
668.606	380.45
668.944	449.39
669.282	365.13
669.619	423.86
669.957	344.71
670.294	357.47
670.632	428.97
670.969	385.56
671.307	370.24
671.644	375.35
671.981	403.43
672.318	413.65
672.656	360.03
672.993	316.62
673.33	416.2
673.667	344.71
674.004	329.39
674.341	403.43
674.678	357.47
675.015	436.63
675.351	380.45
675.688	357.47
676.025	380.45
676.362	464.71
676.698	354.92
677.035	480.04
677.371	377.9
677.708	337.05
678.044	349.81
678.38	375.35
678.717	352.37
679.053	377.9
679.389	434.07
679.725	459.61
680.062	400.88
680.398	390.67
680.734	403.43
681.07	349.81
681.406	311.51
681.742	362.58
682.077	388.11
682.413	339.6
682.749	398.33
683.085	395.77
683.42	421.31
683.756	388.11
684.091	367.69
684.427	372.79
684.762	400.88
685.098	439.18
685.433	413.65
685.768	347.26
686.104	360.03
686.439	383.01
686.774	413.65
687.109	370.24
687.444	393.22
687.779	367.69
688.114	400.88
688.449	405.99
688.784	418.75
689.119	375.35
689.454	362.58
689.789	347.26
690.123	329.39
690.458	418.75
690.792	365.13
691.127	405.99
691.461	347.26
691.796	418.75
692.13	362.58
692.465	365.13
692.799	405.99
693.133	352.37
693.467	321.73
693.802	436.63
694.136	360.03
694.47	395.77
694.804	375.35
695.138	411.09
695.472	334.49
695.806	342.15
696.139	344.71
696.473	400.88
696.807	383.01
697.141	446.84
697.474	360.03
697.808	421.31
698.141	367.69
698.475	349.81
698.808	344.71
699.142	418.75
699.475	403.43
699.808	388.11
700.142	459.61
700.475	365.13
700.808	423.86
701.141	416.2
701.474	408.54
701.807	413.65
702.14	375.35
702.473	395.77
702.806	446.84
703.139	342.15
703.472	370.24
703.804	390.67
704.137	334.49
704.47	324.28
704.802	293.64
705.135	357.47
705.467	408.54
705.8	446.84
706.132	380.45
706.464	354.92
706.797	347.26
707.129	388.11
707.461	385.56
707.793	311.51
708.125	400.88
708.457	367.69
708.789	428.97
709.121	375.35
709.453	395.77
709.785	377.9
710.117	291.09
710.449	321.73
710.781	390.67
711.112	349.81
711.444	372.79
711.775	431.52
712.107	411.09
712.438	347.26
712.77	326.83
713.101	375.35
713.433	434.07
713.764	388.11
714.095	418.75
714.426	423.86
714.757	426.41
715.089	390.67
715.42	423.86
715.751	388.11
716.082	370.24
716.412	400.88
716.743	377.9
717.074	426.41
717.405	403.43
717.736	413.65
718.066	403.43
718.397	337.05
718.727	385.56
719.058	365.13
719.388	354.92
719.719	390.67
720.049	413.65
720.38	431.52
720.71	441.73
721.04	405.99
721.37	418.75
721.7	426.41
722.031	377.9
722.361	423.86
722.691	344.71
723.021	296.19
723.35	365.13
723.68	388.11
724.01	354.92
724.34	370.24
724.67	357.47
724.999	390.67
725.329	423.86
725.658	411.09
725.988	372.79
726.317	372.79
726.647	337.05
726.976	400.88
727.306	331.94
727.635	380.45
727.964	344.71
728.293	383.01
728.622	352.37
728.952	380.45
729.281	367.69
729.61	390.67
729.939	365.13
730.267	405.99
730.596	352.37
730.925	388.11
731.254	316.62
731.583	421.31
731.911	334.49
732.24	472.37
732.568	439.18
732.897	342.15
733.225	377.9
733.554	314.07
733.882	413.65
734.21	357.47
734.539	354.92
734.867	372.79
735.195	308.96
735.523	365.13
735.851	388.11
736.179	349.81
736.507	298.75
736.835	347.26
737.163	390.67
737.491	398.33
737.819	418.75
738.147	459.61
738.474	439.18
738.802	439.18
739.13	469.82
739.457	423.86
739.785	383.01
740.112	342.15
740.44	423.86
740.767	377.9
741.094	405.99
741.422	365.13
741.749	385.56
742.076	354.92
742.403	403.43
742.73	375.35
743.057	380.45
743.384	385.56
743.711	370.24
744.038	344.71
744.365	405.99
744.692	393.22
745.018	354.92
745.345	352.37
745.672	354.92
745.998	416.2
746.325	334.49
746.651	339.6
746.978	380.45
747.304	380.45
747.631	416.2
747.957	421.31
748.283	372.79
748.61	362.58
748.936	367.69
749.262	395.77
749.588	393.22
749.914	375.35
750.24	329.39
750.566	352.37
750.892	360.03
751.218	329.39
751.543	324.28
751.869	388.11
752.195	354.92
752.521	444.29
752.846	403.43
753.172	395.77
753.497	383.01
753.823	329.39
754.148	360.03
754.473	360.03
754.799	349.81
755.124	385.56
755.449	337.05
755.774	342.15
756.1	342.15
756.425	311.51
756.75	395.77
757.075	449.39
757.4	482.59
757.724	375.35
758.049	329.39
758.374	385.56
758.699	362.58
759.024	383.01
759.348	370.24
759.673	444.29
759.997	390.67
760.322	385.56
760.646	385.56
760.971	377.9
761.295	431.52
761.619	388.11
761.944	395.77
762.268	421.31
762.592	423.86
762.916	408.54
763.24	372.79
763.564	451.95
763.888	505.57
764.212	523.44
764.536	561.74
764.86	569.4
765.184	587.28
765.508	666.43
765.831	628.13
766.155	929.43
766.478	788.99
766.802	722.61
767.126	694.52
767.449	850.27
767.772	934.54
768.096	965.18
768.419	931.98
768.742	949.86
769.066	990.71
769.389	1029.01
769.712	1054.55
770.035	1031.56
770.358	1215.41
770.681	1154.13
771.004	1217.96
771.327	1256.26
771.65	1271.58
771.972	1394.14
772.295	1440.11
772.618	1455.43
772.941	1475.85
773.263	1442.66
773.586	1580.54
773.908	1659.7
774.231	1774.6
774.553	1846.09
774.875	1945.67
775.198	2024.83
775.52	1835.88
775.842	1922.69
776.164	1779.7
776.487	1851.2
776.809	1904.82
777.131	1978.87
777.453	1889.5
777.775	1894.61
778.096	2170.37
778.418	2183.14
778.74	2075.9
779.062	2042.7
779.384	2377.19
779.705	2591.68
780.027	2673.39
780.348	2783.18
780.67	2691.26
780.991	2898.08
781.313	3250.45
781.634	3367.91
781.955	2979.79
782.277	2995.11
782.598	2949.15
782.919	2992.56
783.24	2949.15
783.561	2933.83
783.882	2870
784.203	3138.1
784.524	2936.38
784.845	2795.95
785.166	2681.05
785.487	2727.01
785.807	2778.08
786.128	2698.92
786.449	2704.03
786.769	2811.27
787.09	2829.14
787.41	3130.44
787.731	3314.28
788.051	3470.04
788.372	3482.81
788.692	3743.25
789.012	4031.78
789.332	3939.86
789.653	4082.85
789.973	4299.89
790.293	4047.1
790.613	3628.35
790.933	3408.76
791.253	3332.16
791.573	3033.41
791.893	2910.85
792.212	2910.85
792.532	2903.19
792.852	2706.58
793.171	2614.66
793.491	2502.31
793.811	2456.35
794.13	2578.91
794.45	2517.63
794.769	2645.3
795.088	2818.93
795.408	2964.47
795.727	3020.65
796.046	2928.72
796.365	2849.57
796.684	2609.55
797.004	2522.74
797.323	2647.85
797.642	2964.47
797.96	2921.06
798.279	2959.37
798.598	2691.26
798.917	2614.66
799.236	2599.34
