Data from 2025-12-03_xpw_interference_micrometer_634_reference_FLMS141361__108__358.txt Node

Date: Wed Dec 03 15:51:23 MST 2025
User: james
Spectrometer: FLMS14136
Trigger mode: 0
Integration Time (sec): 1.000000E-1
Scans to average: 1
Electric dark correction enabled: true
Nonlinearity correction enabled: false
Boxcar width: 0
XAxis mode: Wavelengths
Number of Pixels in Spectrum: 2048
>>>>>Begin Spectral Data<<<<<
339.315	-79.79
339.697	-79.79
340.079	-79.79
340.461	-95.11
340.843	-69.58
341.225	-44.05
341.607	-54.26
341.989	-169.16
342.371	-77.24
342.752	1.92
343.134	-41.49
343.516	-46.6
343.897	-54.26
344.279	-59.37
344.661	12.13
345.042	4.47
345.423	52.98
345.805	91.28
346.186	98.94
346.567	134.69
346.949	150.01
347.33	155.12
347.711	157.67
348.092	203.63
348.473	247.04
348.854	290.45
349.235	272.57
349.616	323.64
349.997	295.55
350.378	333.85
350.758	338.96
351.139	321.09
351.52	290.45
351.9	315.98
352.281	331.3
352.661	359.39
353.042	384.92
353.422	400.24
353.803	418.12
354.183	400.24
354.563	369.6
354.943	367.05
355.324	333.85
355.704	351.73
356.084	425.78
356.464	435.99
356.844	438.54
357.224	418.12
357.603	384.92
357.983	474.29
358.363	443.65
358.743	397.69
359.122	402.8
359.502	310.87
359.882	379.81
360.261	379.81
360.641	356.83
361.02	405.35
361.399	395.14
361.779	395.14
362.158	410.46
362.537	372.15
362.916	346.62
363.296	407.9
363.675	361.94
364.054	354.28
364.433	293
364.812	346.62
365.19	382.37
365.569	333.85
365.948	356.83
366.327	361.94
366.705	341.51
367.084	354.28
367.463	367.05
367.841	397.69
368.22	369.6
368.598	405.35
368.977	413.01
369.355	382.37
369.733	372.15
370.111	333.85
370.49	392.58
370.868	369.6
371.246	364.49
371.624	349.17
372.002	397.69
372.38	384.92
372.758	293
373.136	310.87
373.513	359.39
373.891	315.98
374.269	377.26
374.646	387.48
375.024	359.39
375.402	364.49
375.779	341.51
376.157	351.73
376.534	372.15
376.911	405.35
377.289	392.58
377.666	374.71
378.043	430.88
378.42	410.46
378.797	397.69
379.175	405.35
379.552	407.9
379.929	395.14
380.305	379.81
380.682	336.41
381.059	361.94
381.436	433.44
381.813	372.15
382.189	364.49
382.566	351.73
382.943	369.6
383.319	379.81
383.696	323.64
384.072	392.58
384.448	425.78
384.825	410.46
385.201	328.75
385.577	356.83
385.953	338.96
386.329	351.73
386.706	354.28
387.082	344.07
387.458	372.15
387.834	369.6
388.209	446.2
388.585	423.22
388.961	438.54
389.337	400.24
389.713	344.07
390.088	372.15
390.464	359.39
390.839	397.69
391.215	374.71
391.59	392.58
391.966	379.81
392.341	405.35
392.716	361.94
393.092	382.37
393.467	333.85
393.842	425.78
394.217	367.05
394.592	344.07
394.967	374.71
395.342	331.3
395.717	326.19
396.092	331.3
396.467	387.48
396.841	367.05
397.216	410.46
397.591	413.01
397.965	379.81
398.34	361.94
398.714	336.41
399.089	435.99
399.463	410.46
399.838	354.28
400.212	338.96
400.586	438.54
400.961	418.12
401.335	425.78
401.709	418.12
402.083	369.6
402.457	402.8
402.831	387.48
403.205	438.54
403.579	433.44
403.953	487.06
404.326	349.17
404.7	413.01
405.074	336.41
405.447	425.78
405.821	361.94
406.195	461.52
406.568	435.99
406.942	453.86
407.315	464.08
407.688	456.42
408.062	384.92
408.435	341.51
408.808	369.6
409.181	405.35
409.554	413.01
409.927	407.9
410.3	390.03
410.673	441.1
411.046	458.97
411.419	390.03
411.792	428.33
412.165	395.14
412.537	420.67
412.91	448.76
413.283	446.2
413.655	382.37
414.028	387.48
414.4	400.24
414.773	336.41
415.145	387.48
415.517	456.42
415.889	448.76
416.262	318.53
416.634	367.05
417.006	372.15
417.378	387.48
417.75	397.69
418.122	430.88
418.494	443.65
418.866	435.99
419.238	356.83
419.609	387.48
419.981	410.46
420.353	395.14
420.725	377.26
421.096	387.48
421.468	407.9
421.839	497.27
422.211	407.9
422.582	372.15
422.953	392.58
423.325	367.05
423.696	433.44
424.067	397.69
424.438	410.46
424.809	446.2
425.18	361.94
425.551	369.6
425.922	428.33
426.293	425.78
426.664	392.58
427.035	446.2
427.406	461.52
427.776	433.44
428.147	443.65
428.518	425.78
428.888	367.05
429.259	400.24
429.629	456.42
429.999	425.78
430.37	458.97
430.74	484.5
431.11	430.88
431.481	448.76
431.851	428.33
432.221	402.8
432.591	441.1
432.961	390.03
433.331	433.44
433.701	448.76
434.071	364.49
434.441	328.75
434.81	364.49
435.18	415.56
435.55	392.58
435.919	367.05
436.289	369.6
436.658	443.65
437.028	413.01
437.397	395.14
437.767	407.9
438.136	425.78
438.505	390.03
438.875	420.67
439.244	423.22
439.613	407.9
439.982	402.8
440.351	415.56
440.72	390.03
441.089	349.17
441.458	407.9
441.827	359.39
442.196	382.37
442.564	425.78
442.933	415.56
443.302	407.9
443.67	395.14
444.039	364.49
444.407	402.8
444.776	377.26
445.144	392.58
445.513	372.15
445.881	413.01
446.249	471.74
446.617	310.87
446.986	390.03
447.354	369.6
447.722	400.24
448.09	405.35
448.458	359.39
448.826	471.74
449.194	425.78
449.561	435.99
449.929	418.12
450.297	354.28
450.665	425.78
451.032	413.01
451.4	392.58
451.767	418.12
452.135	377.26
452.502	413.01
452.87	415.56
453.237	441.1
453.604	448.76
453.971	361.94
454.339	497.27
454.706	418.12
455.073	405.35
455.44	367.05
455.807	354.28
456.174	433.44
456.541	479.4
456.908	428.33
457.274	397.69
457.641	402.8
458.008	420.67
458.374	489.61
458.741	377.26
459.108	402.8
459.474	441.1
459.841	415.56
460.207	413.01
460.573	397.69
460.94	415.56
461.306	400.24
461.672	443.65
462.038	390.03
462.404	443.65
462.771	387.48
463.137	379.81
463.503	456.42
463.868	456.42
464.234	451.31
464.6	407.9
464.966	425.78
465.332	433.44
465.697	453.86
466.063	369.6
466.429	377.26
466.794	361.94
467.16	415.56
467.525	461.52
467.89	374.71
468.256	428.33
468.621	420.67
468.986	418.12
469.351	415.56
469.717	382.37
470.082	351.73
470.447	374.71
470.812	402.8
471.177	367.05
471.542	379.81
471.906	507.48
472.271	499.82
472.636	466.63
473.001	469.18
473.365	405.35
473.73	361.94
474.094	413.01
474.459	402.8
474.823	367.05
475.188	464.08
475.552	390.03
475.917	430.88
476.281	405.35
476.645	428.33
477.009	405.35
477.373	425.78
477.737	374.71
478.101	443.65
478.465	448.76
478.829	387.48
479.193	331.3
479.557	413.01
479.921	410.46
480.284	387.48
480.648	443.65
481.012	425.78
481.375	405.35
481.739	420.67
482.102	413.01
482.466	441.1
482.829	413.01
483.193	428.33
483.556	446.2
483.919	420.67
484.282	410.46
484.645	441.1
485.009	433.44
485.372	397.69
485.735	435.99
486.098	420.67
486.46	466.63
486.823	446.2
487.186	489.61
487.549	402.8
487.912	410.46
488.274	402.8
488.637	407.9
488.999	433.44
489.362	456.42
489.724	395.14
490.087	410.46
490.449	474.29
490.811	395.14
491.174	443.65
491.536	443.65
491.898	405.35
492.26	430.88
492.622	464.08
492.984	395.14
493.346	359.39
493.708	453.86
494.07	446.2
494.432	415.56
494.794	469.18
495.155	471.74
495.517	461.52
495.879	433.44
496.24	372.15
496.602	351.73
496.963	384.92
497.325	390.03
497.686	466.63
498.048	446.2
498.409	461.52
498.77	397.69
499.131	405.35
499.492	428.33
499.854	387.48
500.215	425.78
500.576	397.69
500.937	428.33
501.298	377.26
501.658	346.62
502.019	387.48
502.38	402.8
502.741	361.94
503.101	413.01
503.462	443.65
503.823	392.58
504.183	446.2
504.543	446.2
504.904	461.52
505.264	405.35
505.625	400.24
505.985	346.62
506.345	326.19
506.705	395.14
507.065	428.33
507.426	379.81
507.786	397.69
508.146	397.69
508.505	407.9
508.865	418.12
509.225	456.42
509.585	510.04
509.945	367.05
510.304	474.29
510.664	423.22
511.024	433.44
511.383	418.12
511.743	458.97
512.102	410.46
512.462	410.46
512.821	446.2
513.18	458.97
513.539	392.58
513.899	430.88
514.258	435.99
514.617	361.94
514.976	367.05
515.335	410.46
515.694	384.92
516.053	326.19
516.412	359.39
516.771	377.26
517.129	364.49
517.488	336.41
517.847	418.12
518.205	481.95
518.564	433.44
518.922	423.22
519.281	453.86
519.639	382.37
519.998	476.84
520.356	400.24
520.714	323.64
521.073	420.67
521.431	425.78
521.789	402.8
522.147	415.56
522.505	428.33
522.863	390.03
523.221	453.86
523.579	410.46
523.937	448.76
524.295	397.69
524.652	446.2
525.01	395.14
525.368	420.67
525.725	367.05
526.083	392.58
526.44	402.8
526.798	382.37
527.155	435.99
527.513	356.83
527.87	369.6
528.227	395.14
528.584	441.1
528.942	494.72
529.299	402.8
529.656	400.24
530.013	382.37
530.37	395.14
530.727	415.56
531.083	369.6
531.44	451.31
531.797	461.52
532.154	361.94
532.511	361.94
532.867	446.2
533.224	420.67
533.58	415.56
533.937	349.17
534.293	415.56
534.65	392.58
535.006	410.46
535.362	361.94
535.718	435.99
536.075	387.48
536.431	451.31
536.787	435.99
537.143	461.52
537.499	448.76
537.855	479.4
538.211	420.67
538.567	443.65
538.923	446.2
539.278	443.65
539.634	464.08
539.99	415.56
540.345	344.07
540.701	464.08
541.056	456.42
541.412	359.39
541.767	361.94
542.123	423.22
542.478	533.02
542.833	367.05
543.188	410.46
543.544	430.88
543.899	420.67
544.254	384.92
544.609	377.26
544.964	400.24
545.319	410.46
545.674	446.2
546.029	356.83
546.383	423.22
546.738	435.99
547.093	466.63
547.447	428.33
547.802	397.69
548.157	430.88
548.511	387.48
548.866	387.48
549.22	392.58
549.574	387.48
549.929	441.1
550.283	397.69
550.637	423.22
550.991	395.14
551.345	397.69
551.699	400.24
552.053	382.37
552.407	349.17
552.761	356.83
553.115	310.87
553.469	395.14
553.823	430.88
554.176	405.35
554.53	438.54
554.884	425.78
555.237	698.99
555.591	466.63
555.944	443.65
556.298	428.33
556.651	428.33
557.005	405.35
557.358	438.54
557.711	400.24
558.064	392.58
558.417	361.94
558.771	504.93
559.124	418.12
559.477	446.2
559.83	410.46
560.182	451.31
560.535	430.88
560.888	346.62
561.241	413.01
561.594	369.6
561.946	390.03
562.299	384.92
562.651	413.01
563.004	420.67
563.356	497.27
563.709	390.03
564.061	402.8
564.413	446.2
564.766	451.31
565.118	448.76
565.47	481.95
565.822	430.88
566.174	443.65
566.526	364.49
566.878	402.8
567.23	430.88
567.582	415.56
567.934	451.31
568.286	413.01
568.638	379.81
568.989	415.56
569.341	489.61
569.693	481.95
570.044	410.46
570.396	456.42
570.747	448.76
571.098	377.26
571.45	415.56
571.801	364.49
572.152	367.05
572.504	377.26
572.855	402.8
573.206	402.8
573.557	407.9
573.908	402.8
574.259	433.44
574.61	384.92
574.961	425.78
575.311	428.33
575.662	364.49
576.013	446.2
576.364	453.86
576.714	453.86
577.065	453.86
577.415	428.33
577.766	402.8
578.116	405.35
578.467	369.6
578.817	430.88
579.167	418.12
579.518	435.99
579.868	458.97
580.218	456.42
580.568	441.1
580.918	464.08
581.268	397.69
581.618	428.33
581.968	418.12
582.318	456.42
582.668	379.81
583.017	402.8
583.367	458.97
583.717	377.26
584.066	382.37
584.416	400.24
584.765	410.46
585.115	423.22
585.464	418.12
585.814	420.67
586.163	400.24
586.512	425.78
586.862	405.35
587.211	372.15
587.56	441.1
587.909	446.2
588.258	402.8
588.607	392.58
588.956	405.35
589.305	359.39
589.654	392.58
590.002	456.42
590.351	379.81
590.7	382.37
591.048	354.28
591.397	451.31
591.746	479.4
592.094	390.03
592.443	441.1
592.791	367.05
593.139	359.39
593.488	438.54
593.836	384.92
594.184	405.35
594.532	423.22
594.88	456.42
595.228	361.94
595.576	346.62
595.924	438.54
596.272	344.07
596.62	418.12
596.968	435.99
597.316	377.26
597.664	336.41
598.011	397.69
598.359	387.48
598.706	448.76
599.054	479.4
599.402	423.22
599.749	433.44
600.096	438.54
600.444	448.76
600.791	407.9
601.138	461.52
601.485	364.49
601.833	453.86
602.18	382.37
602.527	377.26
602.874	410.46
603.221	382.37
603.568	507.48
603.914	512.59
604.261	469.18
604.608	405.35
604.955	395.14
605.301	448.76
605.648	405.35
605.995	377.26
606.341	448.76
606.688	489.61
607.034	382.37
607.38	453.86
607.727	438.54
608.073	413.01
608.419	392.58
608.765	420.67
609.112	323.64
609.458	402.8
609.804	425.78
610.15	384.92
610.496	384.92
610.842	479.4
611.187	405.35
611.533	418.12
611.879	382.37
612.225	397.69
612.57	433.44
612.916	377.26
613.261	428.33
613.607	405.35
613.952	377.26
614.298	405.35
614.643	464.08
614.989	372.15
615.334	448.76
615.679	428.33
616.024	448.76
616.369	451.31
616.714	430.88
617.059	438.54
617.404	464.08
617.749	428.33
618.094	369.6
618.439	364.49
618.784	407.9
619.129	374.71
619.473	382.37
619.818	435.99
620.163	453.86
620.507	413.01
620.852	387.48
621.196	410.46
621.54	387.48
621.885	405.35
622.229	379.81
622.573	433.44
622.918	415.56
623.262	392.58
623.606	392.58
623.95	441.1
624.294	420.67
624.638	428.33
624.982	415.56
625.326	461.52
625.67	379.81
626.013	441.1
626.357	418.12
626.701	372.15
627.044	461.52
627.388	395.14
627.731	441.1
628.075	407.9
628.418	487.06
628.762	405.35
629.105	423.22
629.448	487.06
629.792	407.9
630.135	372.15
630.478	479.4
630.821	395.14
631.164	346.62
631.507	392.58
631.85	384.92
632.193	361.94
632.536	392.58
632.879	458.97
633.221	481.95
633.564	423.22
633.907	359.39
634.249	425.78
634.592	407.9
634.935	364.49
635.277	405.35
635.619	390.03
635.962	438.54
636.304	413.01
636.646	392.58
636.989	377.26
637.331	354.28
637.673	458.97
638.015	395.14
638.357	425.78
638.699	423.22
639.041	453.86
639.383	479.4
639.725	423.22
640.067	346.62
640.408	395.14
640.75	415.56
641.092	418.12
641.433	400.24
641.775	474.29
642.116	402.8
642.458	464.08
642.799	428.33
643.141	390.03
643.482	415.56
643.823	410.46
644.164	435.99
644.506	499.82
644.847	430.88
645.188	443.65
645.529	425.78
645.87	326.19
646.211	402.8
646.552	410.46
646.893	446.2
647.233	438.54
647.574	413.01
647.915	344.07
648.255	359.39
648.596	448.76
648.937	453.86
649.277	441.1
649.618	413.01
649.958	466.63
650.298	453.86
650.639	384.92
650.979	441.1
651.319	461.52
651.659	453.86
651.999	405.35
652.339	438.54
652.679	318.53
653.019	395.14
653.359	359.39
653.699	377.26
654.039	413.01
654.379	425.78
654.719	433.44
655.058	507.48
655.398	407.9
655.737	492.16
656.077	443.65
656.416	410.46
656.756	397.69
657.095	464.08
657.435	410.46
657.774	446.2
658.113	379.81
658.452	423.22
658.792	384.92
659.131	461.52
659.47	433.44
659.809	420.67
660.148	344.07
660.487	458.97
660.826	400.24
661.164	369.6
661.503	430.88
661.842	474.29
662.181	331.3
662.519	410.46
662.858	425.78
663.196	405.35
663.535	430.88
663.873	543.23
664.212	420.67
664.55	479.4
664.888	479.4
665.226	446.2
665.565	374.71
665.903	630.05
666.241	407.9
666.579	448.76
666.917	387.48
667.255	392.58
667.593	423.22
667.931	464.08
668.268	469.18
668.606	382.37
668.944	430.88
669.282	405.35
669.619	446.2
669.957	438.54
670.294	400.24
670.632	390.03
670.969	397.69
671.307	402.8
671.644	474.29
671.981	369.6
672.318	441.1
672.656	474.29
672.993	435.99
673.33	415.56
673.667	456.42
674.004	354.28
674.341	384.92
674.678	341.51
675.015	443.65
675.351	413.01
675.688	372.15
676.025	407.9
676.362	395.14
676.698	415.56
677.035	410.46
677.371	461.52
677.708	392.58
678.044	433.44
678.38	367.05
678.717	425.78
679.053	333.85
679.389	390.03
679.725	456.42
680.062	438.54
680.398	402.8
680.734	382.37
681.07	410.46
681.406	458.97
681.742	326.19
682.077	359.39
682.413	390.03
682.749	420.67
683.085	346.62
683.42	402.8
683.756	390.03
684.091	379.81
684.427	471.74
684.762	443.65
685.098	430.88
685.433	446.2
685.768	502.38
686.104	400.24
686.439	400.24
686.774	430.88
687.109	356.83
687.444	405.35
687.779	405.35
688.114	400.24
688.449	461.52
688.784	453.86
689.119	392.58
689.454	428.33
689.789	441.1
690.123	430.88
690.458	400.24
690.792	323.64
691.127	387.48
691.461	390.03
691.796	374.71
692.13	374.71
692.465	377.26
692.799	433.44
693.133	425.78
693.467	418.12
693.802	423.22
694.136	407.9
694.47	441.1
694.804	464.08
695.138	382.37
695.472	410.46
695.806	372.15
696.139	410.46
696.473	374.71
696.807	400.24
697.141	344.07
697.474	415.56
697.808	430.88
698.141	361.94
698.475	379.81
698.808	479.4
699.142	438.54
699.475	415.56
699.808	349.17
700.142	430.88
700.475	428.33
700.808	479.4
701.141	418.12
701.474	446.2
701.807	441.1
702.14	377.26
702.473	423.22
702.806	499.82
703.139	418.12
703.472	384.92
703.804	413.01
704.137	405.35
704.47	453.86
704.802	428.33
705.135	448.76
705.467	430.88
705.8	423.22
706.132	441.1
706.464	423.22
706.797	351.73
707.129	400.24
707.461	451.31
707.793	405.35
708.125	369.6
708.457	461.52
708.789	415.56
709.121	410.46
709.453	387.48
709.785	369.6
710.117	430.88
710.449	407.9
710.781	451.31
711.112	433.44
711.444	446.2
711.775	492.16
712.107	413.01
712.438	425.78
712.77	405.35
713.101	423.22
713.433	349.17
713.764	395.14
714.095	407.9
714.426	428.33
714.757	456.42
715.089	441.1
715.42	438.54
715.751	489.61
716.082	418.12
716.412	418.12
716.743	420.67
717.074	392.58
717.405	438.54
717.736	418.12
718.066	428.33
718.397	405.35
718.727	446.2
719.058	407.9
719.388	397.69
719.719	489.61
720.049	372.15
720.38	356.83
720.71	402.8
721.04	438.54
721.37	392.58
721.7	461.52
722.031	469.18
722.361	410.46
722.691	377.26
723.021	425.78
723.35	400.24
723.68	346.62
724.01	379.81
724.34	392.58
724.67	397.69
724.999	461.52
725.329	433.44
725.658	415.56
725.988	395.14
726.317	377.26
726.647	435.99
726.976	364.49
727.306	443.65
727.635	418.12
727.964	413.01
728.293	402.8
728.622	372.15
728.952	466.63
729.281	418.12
729.61	435.99
729.939	379.81
730.267	425.78
730.596	407.9
730.925	346.62
731.254	382.37
731.583	405.35
731.911	407.9
732.24	458.97
732.568	448.76
732.897	405.35
733.225	402.8
733.554	270.02
733.882	367.05
734.21	367.05
734.539	443.65
734.867	497.27
735.195	492.16
735.523	448.76
735.851	413.01
736.179	400.24
736.507	382.37
736.835	379.81
737.163	392.58
737.491	364.49
737.819	374.71
738.147	359.39
738.474	379.81
738.802	374.71
739.13	387.48
739.457	402.8
739.785	384.92
740.112	395.14
740.44	413.01
740.767	423.22
741.094	415.56
741.422	382.37
741.749	367.05
742.076	395.14
742.403	369.6
742.73	351.73
743.057	430.88
743.384	367.05
743.711	413.01
744.038	405.35
744.365	466.63
744.692	430.88
745.018	453.86
745.345	333.85
745.672	361.94
745.998	377.26
746.325	318.53
746.651	435.99
746.978	448.76
747.304	435.99
747.631	418.12
747.957	441.1
748.283	407.9
748.61	356.83
748.936	413.01
749.262	428.33
749.588	425.78
749.914	361.94
750.24	423.22
750.566	379.81
750.892	367.05
751.218	382.37
751.543	374.71
751.869	364.49
752.195	390.03
752.521	418.12
752.846	425.78
753.172	443.65
753.497	372.15
753.823	430.88
754.148	428.33
754.473	402.8
754.799	425.78
755.124	400.24
755.449	405.35
755.774	458.97
756.1	364.49
756.425	448.76
756.75	456.42
757.075	377.26
757.4	556
757.724	453.86
758.049	392.58
758.374	387.48
758.699	402.8
759.024	435.99
759.348	415.56
759.673	476.84
759.997	458.97
760.322	435.99
760.646	392.58
760.971	413.01
761.295	474.29
761.619	356.83
761.944	413.01
762.268	390.03
762.592	441.1
762.916	425.78
763.24	453.86
763.564	517.7
763.888	507.48
764.212	568.76
764.536	576.43
764.86	584.09
765.184	617.28
765.508	647.92
765.831	683.67
766.155	951.77
766.478	732.18
766.802	706.65
767.126	752.61
767.449	836.87
767.772	829.21
768.096	913.47
768.419	992.63
768.742	944.11
769.066	979.86
769.389	1028.37
769.712	1074.33
770.035	1125.4
770.358	1140.72
770.681	1250.52
771.004	1153.49
771.327	1196.9
771.65	1309.24
771.972	1230.09
772.295	1421.59
772.618	1449.68
772.941	1452.23
773.263	1375.63
773.586	1554.37
773.908	1625.86
774.231	1669.27
774.553	1814.81
774.875	1817.37
775.198	1922.06
775.52	1891.41
775.842	1784.17
776.164	1750.98
776.487	1842.9
776.809	1865.88
777.131	1850.56
777.453	1980.78
777.775	1906.74
778.096	1993.55
778.418	1985.89
778.74	2019.08
779.062	1975.68
779.384	2052.28
779.705	2361.24
780.027	2560.4
780.348	2639.55
780.67	2616.57
780.991	2777.44
781.313	3014.9
781.634	3099.16
781.955	2861.7
782.277	2764.67
782.598	2854.04
782.919	2693.18
783.24	2723.82
783.561	2856.59
783.882	2859.15
784.203	2887.23
784.524	2843.82
784.845	2695.73
785.166	2573.17
785.487	2629.34
785.807	2675.3
786.128	2468.48
786.449	2547.63
786.769	2568.06
787.09	2698.28
787.41	2925.53
787.731	3094.06
788.051	3316.2
788.372	3183.42
788.692	3448.98
789.012	3750.27
789.332	3681.33
789.653	3870.28
789.973	4008.17
790.293	3686.44
790.613	3382.59
790.933	3295.77
791.253	3206.4
791.573	2922.98
791.893	2828.5
792.212	2734.03
792.532	2665.09
792.852	2511.89
793.171	2468.48
793.491	2379.11
793.811	2435.28
794.13	2496.57
794.45	2460.82
794.769	2465.92
795.088	2649.77
795.408	2637
795.727	2836.16
796.046	2792.76
796.365	2728.92
796.684	2529.76
797.004	2396.98
797.323	2465.92
797.642	2790.2
797.96	2790.2
798.279	2859.15
798.598	2726.37
798.917	2437.84
799.236	2305.06
799.554	2218.25
799.873	2082.92
800.192	2133.99
800.51	2236.12
800.829	2139.09
