Data from 2025-12-03_xpw_interference_micrometer_634_reference_FLMS141361__102__352.txt Node

Date: Wed Dec 03 15:51:23 MST 2025
User: james
Spectrometer: FLMS14136
Trigger mode: 0
Integration Time (sec): 1.000000E-1
Scans to average: 1
Electric dark correction enabled: true
Nonlinearity correction enabled: false
Boxcar width: 0
XAxis mode: Wavelengths
Number of Pixels in Spectrum: 2048
>>>>>Begin Spectral Data<<<<<
339.315	14.52
339.697	14.52
340.079	14.52
340.461	-72.29
340.843	-56.97
341.225	-118.25
341.607	-92.72
341.989	-92.72
342.371	-85.06
342.752	-67.19
343.134	-51.87
343.516	-33.99
343.897	-33.99
344.279	22.18
344.661	75.8
345.042	83.46
345.423	32.4
345.805	63.04
346.186	111.55
346.567	80.91
346.949	106.44
347.33	167.73
347.711	218.79
348.092	267.31
348.473	257.09
348.854	274.97
349.235	320.93
349.616	351.57
349.997	290.29
350.378	254.54
350.758	292.84
351.139	326.03
351.52	361.78
351.9	361.78
352.281	364.34
352.661	394.98
353.042	282.63
353.422	346.46
353.803	382.21
354.183	359.23
354.563	292.84
354.943	364.34
355.324	410.3
355.704	356.67
356.084	356.67
356.464	359.23
356.844	338.8
357.224	387.32
357.603	389.87
357.983	379.66
358.363	377.1
358.743	295.39
359.122	456.26
359.502	397.53
359.882	387.32
360.261	415.4
360.641	349.01
361.02	333.69
361.399	384.76
361.779	410.3
362.158	364.34
362.537	346.46
362.916	410.3
363.296	384.76
363.675	382.21
364.054	369.44
364.433	369.44
364.812	310.71
365.19	354.12
365.569	412.85
365.948	402.64
366.327	310.71
366.705	341.35
367.084	292.84
367.463	356.67
367.841	320.93
368.22	341.35
368.598	392.42
368.977	313.27
369.355	349.01
369.733	361.78
370.111	392.42
370.49	351.57
370.868	359.23
371.246	341.35
371.624	372
372.002	377.1
372.38	402.64
372.758	356.67
373.136	341.35
373.513	377.1
373.891	297.95
374.269	341.35
374.646	425.62
375.024	351.57
375.402	364.34
375.779	356.67
376.157	310.71
376.534	364.34
376.911	377.1
377.289	354.12
377.666	246.88
378.043	300.5
378.42	364.34
378.797	369.44
379.175	318.37
379.552	351.57
379.929	320.93
380.305	384.76
380.682	341.35
381.059	356.67
381.436	387.32
381.813	356.67
382.189	282.63
382.566	412.85
382.943	389.87
383.319	359.23
383.696	394.98
384.072	410.3
384.448	382.21
384.825	351.57
385.201	331.14
385.577	354.12
385.953	377.1
386.329	438.38
386.706	382.21
387.082	412.85
387.458	400.08
387.834	354.12
388.209	359.23
388.585	397.53
388.961	310.71
389.337	346.46
389.713	369.44
390.088	397.53
390.464	389.87
390.839	377.1
391.215	405.19
391.59	326.03
391.966	405.19
392.341	331.14
392.716	440.94
393.092	394.98
393.467	410.3
393.842	384.76
394.217	407.74
394.592	417.96
394.967	333.69
395.342	336.25
395.717	364.34
396.092	343.91
396.467	400.08
396.841	384.76
397.216	384.76
397.591	364.34
397.965	333.69
398.34	407.74
398.714	394.98
399.089	333.69
399.463	410.3
399.838	394.98
400.212	318.37
400.586	333.69
400.961	354.12
401.335	361.78
401.709	440.94
402.083	336.25
402.457	379.66
402.831	384.76
403.205	382.21
403.579	351.57
403.953	349.01
404.326	412.85
404.7	384.76
405.074	361.78
405.447	412.85
405.821	448.6
406.195	341.35
406.568	338.8
406.942	453.7
407.315	412.85
407.688	405.19
408.062	443.49
408.435	417.96
408.808	336.25
409.181	392.42
409.554	440.94
409.927	366.89
410.3	389.87
410.673	502.22
411.046	428.17
411.419	417.96
411.792	359.23
412.165	417.96
412.537	412.85
412.91	384.76
413.283	420.51
413.655	382.21
414.028	440.94
414.4	423.06
414.773	400.08
415.145	417.96
415.517	382.21
415.889	397.53
416.262	372
416.634	417.96
417.006	400.08
417.378	402.64
417.75	364.34
418.122	453.7
418.494	369.44
418.866	361.78
419.238	382.21
419.609	394.98
419.981	310.71
420.353	372
420.725	448.6
421.096	428.17
421.468	415.4
421.839	463.92
422.211	387.32
422.582	389.87
422.953	389.87
423.325	354.12
423.696	474.13
424.067	405.19
424.438	366.89
424.809	366.89
425.18	384.76
425.551	433.28
425.922	471.58
426.293	430.72
426.664	430.72
427.035	446.04
427.406	443.49
427.776	417.96
428.147	453.7
428.518	412.85
428.888	369.44
429.259	397.53
429.629	364.34
429.999	397.53
430.37	423.06
430.74	489.45
431.11	410.3
431.481	379.66
431.851	461.36
432.221	407.74
432.591	379.66
432.961	397.53
433.331	361.78
433.701	417.96
434.071	415.4
434.441	387.32
434.81	369.44
435.18	417.96
435.55	461.36
435.919	364.34
436.289	425.62
436.658	392.42
437.028	405.19
437.397	448.6
437.767	425.62
438.136	354.12
438.505	366.89
438.875	420.51
439.244	394.98
439.613	440.94
439.982	384.76
440.351	405.19
440.72	392.42
441.089	384.76
441.458	377.1
441.827	405.19
442.196	400.08
442.564	499.66
442.933	456.26
443.302	451.15
443.67	435.83
444.039	346.46
444.407	410.3
444.776	359.23
445.144	392.42
445.513	440.94
445.881	425.62
446.249	423.06
446.617	351.57
446.986	407.74
447.354	423.06
447.722	435.83
448.09	417.96
448.458	382.21
448.826	471.58
449.194	443.49
449.561	430.72
449.929	405.19
450.297	458.81
450.665	392.42
451.032	433.28
451.4	423.06
451.767	440.94
452.135	430.72
452.502	412.85
452.87	377.1
453.237	397.53
453.604	392.42
453.971	387.32
454.339	443.49
454.706	349.01
455.073	400.08
455.44	412.85
455.807	446.04
456.174	402.64
456.541	402.64
456.908	356.67
457.274	438.38
457.641	430.72
458.008	356.67
458.374	366.89
458.741	389.87
459.108	435.83
459.474	356.67
459.841	461.36
460.207	379.66
460.573	504.77
460.94	415.4
461.306	446.04
461.672	433.28
462.038	382.21
462.404	428.17
462.771	400.08
463.137	415.4
463.503	504.77
463.868	387.32
464.234	420.51
464.6	412.85
464.966	410.3
465.332	356.67
465.697	349.01
466.063	402.64
466.429	494.56
466.794	412.85
467.16	400.08
467.525	474.13
467.89	433.28
468.256	417.96
468.621	417.96
468.986	489.45
469.351	407.74
469.717	372
470.082	446.04
470.447	430.72
470.812	349.01
471.177	364.34
471.542	377.1
471.906	435.83
472.271	377.1
472.636	372
473.001	415.4
473.365	394.98
473.73	328.59
474.094	440.94
474.459	469.02
474.823	471.58
475.188	430.72
475.552	443.49
475.917	443.49
476.281	435.83
476.645	387.32
477.009	407.74
477.373	372
477.737	387.32
478.101	440.94
478.465	415.4
478.829	400.08
479.193	453.7
479.557	446.04
479.921	407.74
480.284	400.08
480.648	377.1
481.012	392.42
481.375	369.44
481.739	440.94
482.102	448.6
482.466	420.51
482.829	484.34
483.193	423.06
483.556	469.02
483.919	338.8
484.282	366.89
484.645	458.81
485.009	448.6
485.372	364.34
485.735	392.42
486.098	394.98
486.46	435.83
486.823	425.62
487.186	400.08
487.549	412.85
487.912	394.98
488.274	318.37
488.637	410.3
488.999	387.32
489.362	453.7
489.724	394.98
490.087	417.96
490.449	412.85
490.811	420.51
491.174	407.74
491.536	394.98
491.898	430.72
492.26	428.17
492.622	423.06
492.984	425.62
493.346	379.66
493.708	438.38
494.07	430.72
494.432	474.13
494.794	405.19
495.155	448.6
495.517	497.11
495.879	453.7
496.24	331.14
496.602	430.72
496.963	389.87
497.325	430.72
497.686	407.74
498.048	382.21
498.409	423.06
498.77	417.96
499.131	443.49
499.492	415.4
499.854	474.13
500.215	474.13
500.576	394.98
500.937	469.02
501.298	486.9
501.658	499.66
502.019	387.32
502.38	400.08
502.741	430.72
503.101	394.98
503.462	394.98
503.823	446.04
504.183	438.38
504.543	428.17
504.904	430.72
505.264	389.87
505.625	364.34
505.985	379.66
506.345	430.72
506.705	433.28
507.065	443.49
507.426	435.83
507.786	366.89
508.146	382.21
508.505	412.85
508.865	407.74
509.225	384.76
509.585	492
509.945	412.85
510.304	397.53
510.664	497.11
511.024	400.08
511.383	326.03
511.743	428.17
512.102	430.72
512.462	502.22
512.821	417.96
513.18	394.98
513.539	389.87
513.899	392.42
514.258	443.49
514.617	405.19
514.976	389.87
515.335	448.6
515.694	377.1
516.053	361.78
516.412	405.19
516.771	423.06
517.129	435.83
517.488	451.15
517.847	326.03
518.205	440.94
518.564	397.53
518.922	451.15
519.281	423.06
519.639	410.3
519.998	402.64
520.356	415.4
520.714	351.57
521.073	397.53
521.431	443.49
521.789	387.32
522.147	456.26
522.505	438.38
522.863	451.15
523.221	438.38
523.579	379.66
523.937	400.08
524.295	420.51
524.652	438.38
525.01	476.68
525.368	438.38
525.725	479.24
526.083	417.96
526.44	466.47
526.798	446.04
527.155	369.44
527.513	425.62
527.87	400.08
528.227	384.76
528.584	451.15
528.942	428.17
529.299	446.04
529.656	377.1
530.013	410.3
530.37	417.96
530.727	456.26
531.083	440.94
531.44	384.76
531.797	412.85
532.154	415.4
532.511	394.98
532.867	397.53
533.224	374.55
533.58	412.85
533.937	420.51
534.293	461.36
534.65	451.15
535.006	486.9
535.362	351.57
535.718	428.17
536.075	448.6
536.431	428.17
536.787	394.98
537.143	423.06
537.499	425.62
537.855	394.98
538.211	471.58
538.567	379.66
538.923	433.28
539.278	349.01
539.634	384.76
539.99	397.53
540.345	382.21
540.701	417.96
541.056	423.06
541.412	415.4
541.767	374.55
542.123	407.74
542.478	471.58
542.833	499.66
543.188	389.87
543.544	364.34
543.899	400.08
544.254	356.67
544.609	338.8
544.964	397.53
545.319	389.87
545.674	514.98
546.029	349.01
546.383	428.17
546.738	394.98
547.093	402.64
547.447	417.96
547.802	397.53
548.157	379.66
548.511	400.08
548.866	428.17
549.22	425.62
549.574	400.08
549.929	428.17
550.283	458.81
550.637	410.3
550.991	476.68
551.345	458.81
551.699	435.83
552.053	476.68
552.407	458.81
552.761	405.19
553.115	364.34
553.469	430.72
553.823	456.26
554.176	497.11
554.53	466.47
554.884	461.36
555.237	698.83
555.591	471.58
555.944	400.08
556.298	384.76
556.651	433.28
557.005	387.32
557.358	433.28
557.711	443.49
558.064	400.08
558.417	412.85
558.771	492
559.124	402.64
559.477	407.74
559.83	504.77
560.182	392.42
560.535	382.21
560.888	402.64
561.241	456.26
561.594	402.64
561.946	443.49
562.299	458.81
562.651	387.32
563.004	364.34
563.356	387.32
563.709	392.42
564.061	374.55
564.413	349.01
564.766	456.26
565.118	425.62
565.47	392.42
565.822	425.62
566.174	412.85
566.526	451.15
566.878	492
567.23	469.02
567.582	410.3
567.934	453.7
568.286	356.67
568.638	392.42
568.989	374.55
569.341	453.7
569.693	382.21
570.044	410.3
570.396	489.45
570.747	466.47
571.098	402.64
571.45	448.6
571.801	433.28
572.152	446.04
572.504	446.04
572.855	443.49
573.206	379.66
573.557	453.7
573.908	456.26
574.259	420.51
574.61	346.46
574.961	428.17
575.311	351.57
575.662	389.87
576.013	392.42
576.364	410.3
576.714	435.83
577.065	448.6
577.415	443.49
577.766	387.32
578.116	407.74
578.467	415.4
578.817	492
579.167	443.49
579.518	394.98
579.868	405.19
580.218	389.87
580.568	392.42
580.918	387.32
581.268	425.62
581.618	435.83
581.968	443.49
582.318	438.38
582.668	389.87
583.017	471.58
583.367	446.04
583.717	469.02
584.066	440.94
584.416	428.17
584.765	397.53
585.115	430.72
585.464	410.3
585.814	423.06
586.163	466.47
586.512	354.12
586.862	387.32
587.211	392.42
587.56	407.74
587.909	379.66
588.258	374.55
588.607	379.66
588.956	438.38
589.305	405.19
589.654	397.53
590.002	410.3
590.351	387.32
590.7	420.51
591.048	400.08
591.397	415.4
591.746	423.06
592.094	430.72
592.443	402.64
592.791	372
593.139	446.04
593.488	315.82
593.836	366.89
594.184	366.89
594.532	397.53
594.88	435.83
595.228	410.3
595.576	425.62
595.924	425.62
596.272	354.12
596.62	425.62
596.968	463.92
597.316	405.19
597.664	425.62
598.011	389.87
598.359	354.12
598.706	392.42
599.054	492
599.402	410.3
599.749	484.34
600.096	415.4
600.444	402.64
600.791	438.38
601.138	448.6
601.485	428.17
601.833	430.72
602.18	412.85
602.527	410.3
602.874	394.98
603.221	420.51
603.568	433.28
603.914	407.74
604.261	423.06
604.608	415.4
604.955	443.49
605.301	433.28
605.648	430.72
605.995	453.7
606.341	446.04
606.688	412.85
607.034	346.46
607.38	351.57
607.727	417.96
608.073	400.08
608.419	407.74
608.765	440.94
609.112	407.74
609.458	435.83
609.804	397.53
610.15	394.98
610.496	397.53
610.842	430.72
611.187	349.01
611.533	379.66
611.879	451.15
612.225	384.76
612.57	387.32
612.916	423.06
613.261	448.6
613.607	423.06
613.952	374.55
614.298	379.66
614.643	448.6
614.989	394.98
615.334	448.6
615.679	425.62
616.024	417.96
616.369	415.4
616.714	405.19
617.059	430.72
617.404	374.55
617.749	451.15
618.094	338.8
618.439	374.55
618.784	397.53
619.129	446.04
619.473	423.06
619.818	407.74
620.163	435.83
620.507	379.66
620.852	389.87
621.196	438.38
621.54	343.91
621.885	456.26
622.229	366.89
622.573	412.85
622.918	435.83
623.262	410.3
623.606	400.08
623.95	471.58
624.294	423.06
624.638	384.76
624.982	412.85
625.326	407.74
625.67	372
626.013	341.35
626.357	425.62
626.701	397.53
627.044	364.34
627.388	382.21
627.731	433.28
628.075	410.3
628.418	425.62
628.762	420.51
629.105	438.38
629.448	428.17
629.792	463.92
630.135	435.83
630.478	392.42
630.821	466.47
631.164	379.66
631.507	469.02
631.85	369.44
632.193	397.53
632.536	349.01
632.879	417.96
633.221	415.4
633.564	372
633.907	410.3
634.249	438.38
634.592	415.4
634.935	415.4
635.277	428.17
635.619	377.1
635.962	374.55
636.304	420.51
636.646	435.83
636.989	359.23
637.331	430.72
637.673	451.15
638.015	407.74
638.357	497.11
638.699	346.46
639.041	387.32
639.383	407.74
639.725	446.04
640.067	435.83
640.408	425.62
640.75	451.15
641.092	461.36
641.433	343.91
641.775	349.01
642.116	415.4
642.458	479.24
642.799	443.49
643.141	451.15
643.482	494.56
643.823	354.12
644.164	389.87
644.506	458.81
644.847	372
645.188	356.67
645.529	415.4
645.87	326.03
646.211	374.55
646.552	433.28
646.893	410.3
647.233	440.94
647.574	420.51
647.915	410.3
648.255	407.74
648.596	407.74
648.937	433.28
649.277	361.78
649.618	428.17
649.958	451.15
650.298	369.44
650.639	448.6
650.979	366.89
651.319	425.62
651.659	423.06
651.999	407.74
652.339	384.76
652.679	415.4
653.019	389.87
653.359	428.17
653.699	369.44
654.039	415.4
654.379	425.62
654.719	438.38
655.058	451.15
655.398	453.7
655.737	537.96
656.077	486.9
656.416	440.94
656.756	377.1
657.095	382.21
657.435	379.66
657.774	420.51
658.113	402.64
658.452	415.4
658.792	458.81
659.131	417.96
659.47	443.49
659.809	463.92
660.148	476.68
660.487	384.76
660.826	451.15
661.164	469.02
661.503	366.89
661.842	471.58
662.181	394.98
662.519	428.17
662.858	384.76
663.196	471.58
663.535	438.38
663.873	502.22
664.212	451.15
664.55	415.4
664.888	392.42
665.226	435.83
665.565	402.64
665.903	663.08
666.241	466.47
666.579	407.74
666.917	466.47
667.255	377.1
667.593	440.94
667.931	425.62
668.268	410.3
668.606	461.36
668.944	359.23
669.282	361.78
669.619	379.66
669.957	423.06
670.294	397.53
670.632	407.74
670.969	423.06
671.307	377.1
671.644	351.57
671.981	410.3
672.318	451.15
672.656	377.1
672.993	343.91
673.33	397.53
673.667	382.21
674.004	356.67
674.341	410.3
674.678	400.08
675.015	435.83
675.351	453.7
675.688	425.62
676.025	433.28
676.362	397.53
676.698	430.72
677.035	382.21
677.371	389.87
677.708	417.96
678.044	486.9
678.38	412.85
678.717	412.85
679.053	417.96
679.389	410.3
679.725	425.62
680.062	407.74
680.398	397.53
680.734	394.98
681.07	428.17
681.406	379.66
681.742	405.19
682.077	359.23
682.413	389.87
682.749	451.15
683.085	336.25
683.42	466.47
683.756	366.89
684.091	366.89
684.427	402.64
684.762	374.55
685.098	425.62
685.433	415.4
685.768	389.87
686.104	397.53
686.439	369.44
686.774	440.94
687.109	394.98
687.444	433.28
687.779	425.62
688.114	392.42
688.449	402.64
688.784	435.83
689.119	402.64
689.454	405.19
689.789	433.28
690.123	387.32
690.458	425.62
690.792	377.1
691.127	364.34
691.461	402.64
691.796	374.55
692.13	420.51
692.465	451.15
692.799	405.19
693.133	417.96
693.467	440.94
693.802	417.96
694.136	412.85
694.47	492
694.804	410.3
695.138	397.53
695.472	415.4
695.806	372
696.139	423.06
696.473	382.21
696.807	394.98
697.141	425.62
697.474	448.6
697.808	443.49
698.141	417.96
698.475	440.94
698.808	394.98
699.142	430.72
699.475	366.89
699.808	461.36
700.142	361.78
700.475	405.19
700.808	433.28
701.141	379.66
701.474	346.46
701.807	474.13
702.14	456.26
702.473	417.96
702.806	428.17
703.139	420.51
703.472	407.74
703.804	425.62
704.137	384.76
704.47	425.62
704.802	438.38
705.135	333.69
705.467	410.3
705.8	333.69
706.132	343.91
706.464	476.68
706.797	405.19
707.129	336.25
707.461	410.3
707.793	420.51
708.125	389.87
708.457	410.3
708.789	349.01
709.121	372
709.453	417.96
709.785	443.49
710.117	407.74
710.449	448.6
710.781	392.42
711.112	349.01
711.444	438.38
711.775	349.01
712.107	379.66
712.438	402.64
712.77	356.67
713.101	420.51
713.433	392.42
713.764	377.1
714.095	412.85
714.426	440.94
714.757	438.38
715.089	356.67
715.42	446.04
715.751	433.28
716.082	361.78
716.412	420.51
716.743	374.55
717.074	461.36
717.405	387.32
717.736	412.85
718.066	402.64
718.397	425.62
718.727	433.28
719.058	512.43
719.388	433.28
719.719	428.17
720.049	405.19
720.38	412.85
720.71	382.21
721.04	341.35
721.37	359.23
721.7	440.94
722.031	351.57
722.361	407.74
722.691	417.96
723.021	366.89
723.35	366.89
723.68	387.32
724.01	405.19
724.34	400.08
724.67	354.12
724.999	394.98
725.329	369.44
725.658	430.72
725.988	402.64
726.317	461.36
726.647	425.62
726.976	366.89
727.306	407.74
727.635	443.49
727.964	387.32
728.293	384.76
728.622	420.51
728.952	359.23
729.281	423.06
729.61	456.26
729.939	394.98
730.267	417.96
730.596	382.21
730.925	361.78
731.254	451.15
731.583	435.83
731.911	349.01
732.24	453.7
732.568	412.85
732.897	397.53
733.225	384.76
733.554	372
733.882	407.74
734.21	397.53
734.539	394.98
734.867	364.34
735.195	331.14
735.523	400.08
735.851	451.15
736.179	456.26
736.507	394.98
736.835	448.6
737.163	366.89
737.491	366.89
737.819	384.76
738.147	384.76
738.474	415.4
738.802	415.4
739.13	440.94
739.457	440.94
739.785	394.98
740.112	354.12
740.44	364.34
740.767	412.85
741.094	443.49
741.422	369.44
741.749	456.26
742.076	369.44
742.403	417.96
742.73	397.53
743.057	438.38
743.384	405.19
743.711	387.32
744.038	343.91
744.365	410.3
744.692	400.08
745.018	389.87
745.345	451.15
745.672	461.36
745.998	341.35
746.325	438.38
746.651	438.38
746.978	433.28
747.304	387.32
747.631	428.17
747.957	394.98
748.283	354.12
748.61	428.17
748.936	425.62
749.262	410.3
749.588	415.4
749.914	420.51
750.24	435.83
750.566	349.01
750.892	433.28
751.218	308.16
751.543	356.67
751.869	374.55
752.195	285.18
752.521	402.64
752.846	402.64
753.172	420.51
753.497	394.98
753.823	364.34
754.148	433.28
754.473	382.21
754.799	392.42
755.124	435.83
755.449	451.15
755.774	453.7
756.1	484.34
756.425	417.96
756.75	430.72
757.075	397.53
757.4	509.88
757.724	469.02
758.049	451.15
758.374	387.32
758.699	435.83
759.024	364.34
759.348	425.62
759.673	377.1
759.997	497.11
760.322	405.19
760.646	446.04
760.971	415.4
761.295	440.94
761.619	435.83
761.944	466.47
762.268	497.11
762.592	430.72
762.916	463.92
763.24	507.32
763.564	364.34
763.888	440.94
764.212	571.16
764.536	606.91
764.86	578.82
765.184	537.96
765.508	617.12
765.831	624.78
766.155	897.99
766.478	767.77
766.802	726.91
767.126	760.11
767.449	821.39
767.772	839.26
768.096	882.67
768.419	928.63
768.742	1025.66
769.066	1005.23
769.389	1000.13
769.712	1071.62
770.035	1079.28
770.358	1097.15
770.681	1245.25
771.004	1074.17
771.327	1217.16
771.65	1283.55
771.972	1347.39
772.295	1452.07
772.618	1342.28
772.941	1449.52
773.263	1462.29
773.586	1452.07
773.908	1648.68
774.231	1664
774.553	1778.91
774.875	1812.1
775.198	1873.38
775.52	1817.21
775.842	1809.55
776.164	1842.74
776.487	1791.67
776.809	1878.49
777.131	1978.07
777.453	1858.06
777.775	1883.6
778.096	2113.4
778.418	2054.67
778.74	1993.39
779.062	1947.43
779.384	2108.29
779.705	2447.89
780.027	2680.25
780.348	2690.46
780.67	2626.63
780.991	2675.14
781.313	3019.85
781.634	3017.29
781.955	2864.09
782.277	2746.64
782.598	2754.3
782.919	2749.19
783.24	2843.67
783.561	2889.63
783.882	2744.08
784.203	2938.14
784.524	2818.13
784.845	2818.13
785.166	2544.92
785.487	2580.67
785.807	2565.35
786.128	2432.57
786.449	2371.29
786.769	2613.86
787.09	2774.72
787.41	2864.09
787.731	3032.62
788.051	3308.38
788.372	3356.89
788.692	3566.27
789.012	3808.84
789.332	3739.9
789.653	3836.93
789.973	4076.95
790.293	3962.04
790.613	3504.99
790.933	3267.53
791.253	3213.9
791.573	2935.59
791.893	2810.47
792.212	2807.92
792.532	2698.12
792.852	2652.16
793.171	2537.26
793.491	2521.94
793.811	2529.6
794.13	2521.94
794.45	2453
794.769	2475.98
795.088	2718.55
795.408	2682.8
795.727	2836.01
796.046	2741.53
796.365	2736.42
796.684	2470.87
797.004	2335.54
797.323	2498.96
797.642	2961.12
797.96	2907.5
798.279	2841.11
798.598	2779.83
798.917	2519.39
799.236	2585.77
799.554	2320.22
799.873	2184.89
800.192	2287.03
800.51	2284.48
800.829	2281.92
801.147	2205.32
801.466	2069.99
