Data from 2025-12-03_xpw_interference_micrometer_634_reference_FLMS141361__138__388.txt Node

Date: Wed Dec 03 15:51:26 MST 2025
User: james
Spectrometer: FLMS14136
Trigger mode: 0
Integration Time (sec): 1.000000E-1
Scans to average: 1
Electric dark correction enabled: true
Nonlinearity correction enabled: false
Boxcar width: 0
XAxis mode: Wavelengths
Number of Pixels in Spectrum: 2048
>>>>>Begin Spectral Data<<<<<
339.315	-53.3
339.697	-53.3
340.079	-53.3
340.461	-124.8
340.843	-135.01
341.225	-124.8
341.607	-104.37
341.989	-99.26
342.371	-83.94
342.752	-48.2
343.134	-104.37
343.516	-53.3
343.897	0.32
344.279	48.83
344.661	82.03
345.042	59.05
345.423	13.09
345.805	107.56
346.186	69.26
346.567	107.56
346.949	130.54
347.33	168.84
347.711	196.93
348.092	212.25
348.473	242.89
348.854	283.74
349.235	355.24
349.616	260.76
349.997	314.38
350.378	319.49
350.758	242.89
351.139	319.49
351.52	350.13
351.9	324.6
352.281	311.83
352.661	334.81
353.042	388.43
353.422	429.29
353.803	431.84
354.183	431.84
354.563	396.09
354.943	429.29
355.324	393.54
355.704	383.33
356.084	398.65
356.464	365.45
356.844	383.33
357.224	268.42
357.603	396.09
357.983	393.54
358.363	477.8
358.743	380.77
359.122	403.75
359.502	360.35
359.882	396.09
360.261	375.67
360.641	337.37
361.02	360.35
361.399	398.65
361.779	370.56
362.158	421.63
362.537	332.26
362.916	378.22
363.296	311.83
363.675	398.65
364.054	322.04
364.433	304.17
364.812	342.47
365.19	426.73
365.569	373.11
365.948	345.03
366.327	365.45
366.705	380.77
367.084	380.77
367.463	365.45
367.841	411.41
368.22	339.92
368.598	373.11
368.977	332.26
369.355	360.35
369.733	368.01
370.111	383.33
370.49	293.96
370.868	319.49
371.246	322.04
371.624	378.22
372.002	360.35
372.38	339.92
372.758	352.69
373.136	380.77
373.513	342.47
373.891	342.47
374.269	332.26
374.646	396.09
375.024	419.07
375.402	411.41
375.779	375.67
376.157	385.88
376.534	293.96
376.911	342.47
377.289	347.58
377.666	283.74
378.043	350.13
378.42	365.45
378.797	350.13
379.175	270.98
379.552	334.81
379.929	337.37
380.305	406.31
380.682	378.22
381.059	370.56
381.436	355.24
381.813	368.01
382.189	334.81
382.566	439.5
382.943	393.54
383.319	299.06
383.696	327.15
384.072	283.74
384.448	316.94
384.825	350.13
385.201	311.83
385.577	327.15
385.953	334.81
386.329	357.79
386.706	327.15
387.082	370.56
387.458	378.22
387.834	385.88
388.209	362.9
388.585	342.47
388.961	347.58
389.337	403.75
389.713	355.24
390.088	355.24
390.464	329.7
390.839	408.86
391.215	380.77
391.59	380.77
391.966	365.45
392.341	424.18
392.716	332.26
393.092	352.69
393.467	383.33
393.842	375.67
394.217	431.84
394.592	380.77
394.967	334.81
395.342	288.85
395.717	385.88
396.092	388.43
396.467	347.58
396.841	339.92
397.216	347.58
397.591	416.52
397.965	413.97
398.34	368.01
398.714	368.01
399.089	408.86
399.463	421.63
399.838	385.88
400.212	398.65
400.586	327.15
400.961	439.5
401.335	383.33
401.709	396.09
402.083	362.9
402.457	388.43
402.831	347.58
403.205	396.09
403.579	406.31
403.953	360.35
404.326	449.71
404.7	352.69
405.074	431.84
405.447	365.45
405.821	368.01
406.195	357.79
406.568	416.52
406.942	449.71
407.315	339.92
407.688	403.75
408.062	357.79
408.435	283.74
408.808	332.26
409.181	429.29
409.554	350.13
409.927	398.65
410.3	472.69
410.673	360.35
411.046	378.22
411.419	403.75
411.792	378.22
412.165	383.33
412.537	347.58
412.91	373.11
413.283	396.09
413.655	398.65
414.028	421.63
414.4	424.18
414.773	355.24
415.145	375.67
415.517	434.39
415.889	311.83
416.262	406.31
416.634	421.63
417.006	365.45
417.378	375.67
417.75	411.41
418.122	431.84
418.494	413.97
418.866	385.88
419.238	426.73
419.609	378.22
419.981	444.61
420.353	431.84
420.725	411.41
421.096	370.56
421.468	342.47
421.839	406.31
422.211	337.37
422.582	373.11
422.953	439.5
423.325	380.77
423.696	345.03
424.067	332.26
424.438	365.45
424.809	419.07
425.18	434.39
425.551	375.67
425.922	396.09
426.293	472.69
426.664	393.54
427.035	472.69
427.406	380.77
427.776	360.35
428.147	424.18
428.518	380.77
428.888	362.9
429.259	408.86
429.629	378.22
429.999	421.63
430.37	373.11
430.74	375.67
431.11	439.5
431.481	383.33
431.851	373.11
432.221	442.05
432.591	329.7
432.961	316.94
433.331	365.45
433.701	396.09
434.071	347.58
434.441	388.43
434.81	362.9
435.18	401.2
435.55	396.09
435.919	398.65
436.289	378.22
436.658	416.52
437.028	368.01
437.397	431.84
437.767	454.82
438.136	419.07
438.505	380.77
438.875	378.22
439.244	413.97
439.613	365.45
439.982	362.9
440.351	373.11
440.72	378.22
441.089	360.35
441.458	472.69
441.827	431.84
442.196	365.45
442.564	459.93
442.933	413.97
443.302	475.25
443.67	276.08
444.039	421.63
444.407	434.39
444.776	396.09
445.144	375.67
445.513	383.33
445.881	362.9
446.249	375.67
446.617	416.52
446.986	452.27
447.354	401.2
447.722	401.2
448.09	401.2
448.458	375.67
448.826	439.5
449.194	439.5
449.561	419.07
449.929	332.26
450.297	411.41
450.665	413.97
451.032	398.65
451.4	424.18
451.767	426.73
452.135	500.78
452.502	375.67
452.87	378.22
453.237	411.41
453.604	396.09
453.971	434.39
454.339	406.31
454.706	403.75
455.073	408.86
455.44	380.77
455.807	462.48
456.174	406.31
456.541	421.63
456.908	403.75
457.274	403.75
457.641	459.93
458.008	442.05
458.374	383.33
458.741	370.56
459.108	360.35
459.474	398.65
459.841	403.75
460.207	406.31
460.573	413.97
460.94	378.22
461.306	413.97
461.672	416.52
462.038	401.2
462.404	421.63
462.771	393.54
463.137	493.12
463.503	431.84
463.868	449.71
464.234	388.43
464.6	406.31
464.966	449.71
465.332	342.47
465.697	393.54
466.063	419.07
466.429	385.88
466.794	413.97
467.16	436.95
467.525	431.84
467.89	388.43
468.256	411.41
468.621	390.99
468.986	421.63
469.351	383.33
469.717	403.75
470.082	403.75
470.447	480.35
470.812	403.75
471.177	406.31
471.542	406.31
471.906	411.41
472.271	342.47
472.636	431.84
473.001	467.59
473.365	350.13
473.73	495.67
474.094	416.52
474.459	454.82
474.823	365.45
475.188	398.65
475.552	390.99
475.917	421.63
476.281	390.99
476.645	426.73
477.009	413.97
477.373	408.86
477.737	398.65
478.101	337.37
478.465	360.35
478.829	365.45
479.193	383.33
479.557	378.22
479.921	398.65
480.284	393.54
480.648	380.77
481.012	431.84
481.375	429.29
481.739	439.5
482.102	426.73
482.466	347.58
482.829	413.97
483.193	449.71
483.556	439.5
483.919	421.63
484.282	413.97
484.645	380.77
485.009	470.14
485.372	424.18
485.735	429.29
486.098	370.56
486.46	383.33
486.823	378.22
487.186	411.41
487.549	403.75
487.912	419.07
488.274	396.09
488.637	393.54
488.999	434.39
489.362	350.13
489.724	403.75
490.087	421.63
490.449	436.95
490.811	421.63
491.174	368.01
491.536	406.31
491.898	378.22
492.26	431.84
492.622	383.33
492.984	444.61
493.346	375.67
493.708	393.54
494.07	373.11
494.432	436.95
494.794	426.73
495.155	396.09
495.517	375.67
495.879	406.31
496.24	472.69
496.602	436.95
496.963	442.05
497.325	493.12
497.686	385.88
498.048	388.43
498.409	390.99
498.77	408.86
499.131	393.54
499.492	396.09
499.854	454.82
500.215	393.54
500.576	342.47
500.937	370.56
501.298	339.92
501.658	396.09
502.019	385.88
502.38	375.67
502.741	434.39
503.101	393.54
503.462	477.8
503.823	375.67
504.183	390.99
504.543	355.24
504.904	390.99
505.264	436.95
505.625	345.03
505.985	362.9
506.345	345.03
506.705	439.5
507.065	411.41
507.426	411.41
507.786	421.63
508.146	365.45
508.505	373.11
508.865	388.43
509.225	419.07
509.585	495.67
509.945	472.69
510.304	462.48
510.664	465.03
511.024	505.89
511.383	457.37
511.743	454.82
512.102	419.07
512.462	477.8
512.821	390.99
513.18	350.13
513.539	375.67
513.899	398.65
514.258	416.52
514.617	408.86
514.976	439.5
515.335	442.05
515.694	373.11
516.053	401.2
516.412	357.79
516.771	342.47
517.129	429.29
517.488	436.95
517.847	403.75
518.205	373.11
518.564	406.31
518.922	388.43
519.281	411.41
519.639	375.67
519.998	390.99
520.356	375.67
520.714	429.29
521.073	454.82
521.431	365.45
521.789	393.54
522.147	411.41
522.505	419.07
522.863	416.52
523.221	401.2
523.579	360.35
523.937	434.39
524.295	393.54
524.652	416.52
525.01	465.03
525.368	398.65
525.725	426.73
526.083	401.2
526.44	355.24
526.798	390.99
527.155	388.43
527.513	385.88
527.87	424.18
528.227	431.84
528.584	429.29
528.942	408.86
529.299	436.95
529.656	370.56
530.013	419.07
530.37	419.07
530.727	454.82
531.083	385.88
531.44	362.9
531.797	342.47
532.154	398.65
532.511	411.41
532.867	416.52
533.224	462.48
533.58	385.88
533.937	429.29
534.293	419.07
534.65	442.05
535.006	424.18
535.362	355.24
535.718	408.86
536.075	454.82
536.431	408.86
536.787	350.13
537.143	401.2
537.499	413.97
537.855	365.45
538.211	378.22
538.567	368.01
538.923	439.5
539.278	299.06
539.634	385.88
539.99	378.22
540.345	388.43
540.701	475.25
541.056	567.17
541.412	390.99
541.767	439.5
542.123	434.39
542.478	421.63
542.833	482.91
543.188	419.07
543.544	444.61
543.899	457.37
544.254	368.01
544.609	362.9
544.964	378.22
545.319	380.77
545.674	380.77
546.029	383.33
546.383	360.35
546.738	419.07
547.093	332.26
547.447	388.43
547.802	436.95
548.157	383.33
548.511	413.97
548.866	442.05
549.22	444.61
549.574	421.63
549.929	406.31
550.283	396.09
550.637	434.39
550.991	401.2
551.345	408.86
551.699	421.63
552.053	436.95
552.407	426.73
552.761	388.43
553.115	424.18
553.469	480.35
553.823	431.84
554.176	355.24
554.53	403.75
554.884	385.88
555.237	638.66
555.591	459.93
555.944	416.52
556.298	472.69
556.651	421.63
557.005	447.16
557.358	408.86
557.711	442.05
558.064	413.97
558.417	419.07
558.771	482.91
559.124	429.29
559.477	429.29
559.83	380.77
560.182	398.65
560.535	444.61
560.888	424.18
561.241	429.29
561.594	413.97
561.946	424.18
562.299	401.2
562.651	421.63
563.004	444.61
563.356	431.84
563.709	447.16
564.061	429.29
564.413	434.39
564.766	355.24
565.118	393.54
565.47	385.88
565.822	362.9
566.174	406.31
566.526	375.67
566.878	431.84
567.23	375.67
567.582	406.31
567.934	426.73
568.286	482.91
568.638	459.93
568.989	375.67
569.341	406.31
569.693	436.95
570.044	424.18
570.396	480.35
570.747	375.67
571.098	416.52
571.45	401.2
571.801	411.41
572.152	378.22
572.504	406.31
572.855	462.48
573.206	444.61
573.557	434.39
573.908	413.97
574.259	396.09
574.61	368.01
574.961	396.09
575.311	426.73
575.662	421.63
576.013	442.05
576.364	429.29
576.714	447.16
577.065	370.56
577.415	419.07
577.766	413.97
578.116	327.15
578.467	396.09
578.817	373.11
579.167	424.18
579.518	370.56
579.868	327.15
580.218	442.05
580.568	365.45
580.918	401.2
581.268	424.18
581.618	357.79
581.968	475.25
582.318	390.99
582.668	393.54
583.017	345.03
583.367	413.97
583.717	390.99
584.066	439.5
584.416	462.48
584.765	396.09
585.115	355.24
585.464	322.04
585.814	413.97
586.163	316.94
586.512	345.03
586.862	380.77
587.211	401.2
587.56	411.41
587.909	408.86
588.258	390.99
588.607	434.39
588.956	388.43
589.305	439.5
589.654	357.79
590.002	449.71
590.351	421.63
590.7	393.54
591.048	388.43
591.397	306.72
591.746	419.07
592.094	388.43
592.443	380.77
592.791	398.65
593.139	408.86
593.488	352.69
593.836	337.37
594.184	373.11
594.532	408.86
594.88	465.03
595.228	360.35
595.576	352.69
595.924	365.45
596.272	337.37
596.62	385.88
596.968	465.03
597.316	350.13
597.664	385.88
598.011	373.11
598.359	452.27
598.706	447.16
599.054	393.54
599.402	482.91
599.749	375.67
600.096	383.33
600.444	406.31
600.791	436.95
601.138	470.14
601.485	385.88
601.833	401.2
602.18	380.77
602.527	401.2
602.874	449.71
603.221	421.63
603.568	413.97
603.914	362.9
604.261	393.54
604.608	434.39
604.955	352.69
605.301	355.24
605.648	426.73
605.995	385.88
606.341	447.16
606.688	426.73
607.034	436.95
607.38	406.31
607.727	365.45
608.073	411.41
608.419	365.45
608.765	370.56
609.112	385.88
609.458	462.48
609.804	413.97
610.15	370.56
610.496	332.26
610.842	355.24
611.187	398.65
611.533	350.13
611.879	398.65
612.225	477.8
612.57	416.52
612.916	444.61
613.261	465.03
613.607	403.75
613.952	508.44
614.298	396.09
614.643	355.24
614.989	365.45
615.334	467.59
615.679	442.05
616.024	375.67
616.369	431.84
616.714	421.63
617.059	350.13
617.404	357.79
617.749	339.92
618.094	347.58
618.439	403.75
618.784	434.39
619.129	398.65
619.473	368.01
619.818	398.65
620.163	401.2
620.507	401.2
620.852	383.33
621.196	362.9
621.54	383.33
621.885	434.39
622.229	393.54
622.573	355.24
622.918	375.67
623.262	401.2
623.606	396.09
623.95	380.77
624.294	447.16
624.638	401.2
624.982	403.75
625.326	416.52
625.67	424.18
626.013	401.2
626.357	429.29
626.701	375.67
627.044	380.77
627.388	390.99
627.731	393.54
628.075	362.9
628.418	401.2
628.762	357.79
629.105	327.15
629.448	457.37
629.792	406.31
630.135	465.03
630.478	362.9
630.821	429.29
631.164	345.03
631.507	350.13
631.85	462.48
632.193	421.63
632.536	419.07
632.879	416.52
633.221	429.29
633.564	388.43
633.907	337.37
634.249	413.97
634.592	416.52
634.935	454.82
635.277	373.11
635.619	408.86
635.962	518.65
636.304	421.63
636.646	421.63
636.989	350.13
637.331	368.01
637.673	370.56
638.015	393.54
638.357	368.01
638.699	413.97
639.041	419.07
639.383	352.69
639.725	390.99
640.067	485.46
640.408	390.99
640.75	352.69
641.092	406.31
641.433	398.65
641.775	462.48
642.116	500.78
642.458	411.41
642.799	396.09
643.141	398.65
643.482	413.97
643.823	419.07
644.164	362.9
644.506	442.05
644.847	434.39
645.188	396.09
645.529	388.43
645.87	416.52
646.211	419.07
646.552	401.2
646.893	401.2
647.233	419.07
647.574	380.77
647.915	388.43
648.255	357.79
648.596	332.26
648.937	403.75
649.277	398.65
649.618	337.37
649.958	362.9
650.298	350.13
650.639	385.88
650.979	398.65
651.319	408.86
651.659	411.41
651.999	429.29
652.339	360.35
652.679	413.97
653.019	342.47
653.359	413.97
653.699	388.43
654.039	424.18
654.379	380.77
654.719	436.95
655.058	457.37
655.398	434.39
655.737	467.59
656.077	347.58
656.416	462.48
656.756	436.95
657.095	421.63
657.435	477.8
657.774	383.33
658.113	357.79
658.452	370.56
658.792	352.69
659.131	380.77
659.47	375.67
659.809	403.75
660.148	459.93
660.487	411.41
660.826	398.65
661.164	390.99
661.503	426.73
661.842	408.86
662.181	347.58
662.519	424.18
662.858	408.86
663.196	396.09
663.535	368.01
663.873	357.79
664.212	396.09
664.55	434.39
664.888	431.84
665.226	444.61
665.565	322.04
665.903	605.47
666.241	508.44
666.579	403.75
666.917	390.99
667.255	385.88
667.593	454.82
667.931	370.56
668.268	472.69
668.606	444.61
668.944	401.2
669.282	355.24
669.619	424.18
669.957	393.54
670.294	396.09
670.632	388.43
670.969	350.13
671.307	375.67
671.644	436.95
671.981	401.2
672.318	444.61
672.656	434.39
672.993	345.03
673.33	426.73
673.667	362.9
674.004	345.03
674.341	375.67
674.678	457.37
675.015	426.73
675.351	396.09
675.688	431.84
676.025	406.31
676.362	334.81
676.698	380.77
677.035	385.88
677.371	357.79
677.708	345.03
678.044	360.35
678.38	419.07
678.717	436.95
679.053	398.65
679.389	345.03
679.725	332.26
680.062	373.11
680.398	411.41
680.734	403.75
681.07	385.88
681.406	375.67
681.742	396.09
682.077	352.69
682.413	345.03
682.749	396.09
683.085	390.99
683.42	375.67
683.756	406.31
684.091	406.31
684.427	365.45
684.762	357.79
685.098	390.99
685.433	390.99
685.768	396.09
686.104	365.45
686.439	362.9
686.774	368.01
687.109	454.82
687.444	452.27
687.779	370.56
688.114	345.03
688.449	342.47
688.784	380.77
689.119	424.18
689.454	373.11
689.789	385.88
690.123	365.45
690.458	337.37
690.792	324.6
691.127	334.81
691.461	401.2
691.796	406.31
692.13	347.58
692.465	431.84
692.799	442.05
693.133	378.22
693.467	431.84
693.802	429.29
694.136	378.22
694.47	393.54
694.804	388.43
695.138	383.33
695.472	393.54
695.806	408.86
696.139	365.45
696.473	403.75
696.807	365.45
697.141	431.84
697.474	373.11
697.808	442.05
698.141	375.67
698.475	416.52
698.808	342.47
699.142	355.24
699.475	470.14
699.808	457.37
700.142	350.13
700.475	426.73
700.808	396.09
701.141	373.11
701.474	375.67
701.807	419.07
702.14	365.45
702.473	350.13
702.806	385.88
703.139	447.16
703.472	413.97
703.804	396.09
704.137	347.58
704.47	370.56
704.802	426.73
705.135	472.69
705.467	390.99
705.8	383.33
706.132	408.86
706.464	396.09
706.797	398.65
707.129	424.18
707.461	401.2
707.793	337.37
708.125	385.88
708.457	439.5
708.789	365.45
709.121	327.15
709.453	434.39
709.785	411.41
710.117	347.58
710.449	457.37
710.781	378.22
711.112	426.73
711.444	470.14
711.775	419.07
712.107	334.81
712.438	485.46
712.77	436.95
713.101	465.03
713.433	332.26
713.764	411.41
714.095	370.56
714.426	380.77
714.757	390.99
715.089	375.67
715.42	393.54
715.751	403.75
716.082	388.43
716.412	408.86
716.743	360.35
717.074	442.05
717.405	416.52
717.736	403.75
718.066	362.9
718.397	357.79
718.727	378.22
719.058	447.16
719.388	426.73
719.719	401.2
720.049	429.29
720.38	393.54
720.71	375.67
721.04	339.92
721.37	398.65
721.7	368.01
722.031	416.52
722.361	339.92
722.691	368.01
723.021	419.07
723.35	429.29
723.68	411.41
724.01	470.14
724.34	444.61
724.67	368.01
724.999	470.14
725.329	368.01
725.658	429.29
725.988	452.27
726.317	424.18
726.647	408.86
726.976	454.82
727.306	408.86
727.635	342.47
727.964	390.99
728.293	342.47
728.622	482.91
728.952	439.5
729.281	462.48
729.61	322.04
729.939	385.88
730.267	357.79
730.596	393.54
730.925	362.9
731.254	375.67
731.583	462.48
731.911	413.97
732.24	396.09
732.568	431.84
732.897	416.52
733.225	413.97
733.554	360.35
733.882	385.88
734.21	357.79
734.539	401.2
734.867	380.77
735.195	327.15
735.523	493.12
735.851	408.86
736.179	393.54
736.507	347.58
736.835	408.86
737.163	398.65
737.491	352.69
737.819	365.45
738.147	383.33
738.474	419.07
738.802	439.5
739.13	375.67
739.457	416.52
739.785	406.31
740.112	383.33
740.44	393.54
740.767	447.16
741.094	396.09
741.422	431.84
741.749	385.88
742.076	370.56
742.403	324.6
742.73	385.88
743.057	362.9
743.384	411.41
743.711	413.97
744.038	406.31
744.365	401.2
744.692	411.41
745.018	327.15
745.345	370.56
745.672	380.77
745.998	429.29
746.325	424.18
746.651	419.07
746.978	368.01
747.304	413.97
747.631	475.25
747.957	416.52
748.283	393.54
748.61	398.65
748.936	365.45
749.262	411.41
749.588	390.99
749.914	426.73
750.24	429.29
750.566	370.56
750.892	332.26
751.218	332.26
751.543	406.31
751.869	388.43
752.195	388.43
752.521	416.52
752.846	396.09
753.172	416.52
753.497	388.43
753.823	444.61
754.148	385.88
754.473	416.52
754.799	390.99
755.124	408.86
755.449	406.31
755.774	380.77
756.1	426.73
756.425	388.43
756.75	413.97
757.075	365.45
757.4	526.32
757.724	447.16
758.049	383.33
758.374	390.99
758.699	431.84
759.024	380.77
759.348	350.13
759.673	365.45
759.997	449.71
760.322	429.29
760.646	378.22
760.971	403.75
761.295	385.88
761.619	408.86
761.944	439.5
762.268	408.86
762.592	436.95
762.916	457.37
763.24	459.93
763.564	490.57
763.888	531.42
764.212	569.72
764.536	472.69
764.86	536.53
765.184	577.38
765.508	653.98
765.831	687.18
766.155	919.54
766.478	733.14
766.802	717.82
767.126	791.87
767.449	812.29
767.772	919.54
768.096	881.23
768.419	858.25
768.742	988.48
769.066	983.37
769.389	991.03
769.712	1052.31
770.035	1154.45
770.358	1049.76
770.681	1103.38
771.004	1174.87
771.327	1164.66
771.65	1251.47
771.972	1340.84
772.295	1363.82
772.618	1394.46
772.941	1450.64
773.263	1442.98
773.586	1481.28
773.908	1591.07
774.231	1596.18
774.553	1751.94
774.875	1905.14
775.198	1951.1
775.52	1820.88
775.842	1879.61
776.164	1785.13
776.487	1815.77
776.809	1808.11
777.131	1874.5
777.453	1818.32
777.775	1795.34
778.096	1979.19
778.418	2032.81
778.74	1933.23
779.062	1945.99
779.384	2117.07
779.705	2295.81
780.027	2599.66
780.348	2676.26
780.67	2464.33
780.991	2717.11
781.313	2969.9
781.634	2975
781.955	2824.36
782.277	2732.43
782.598	2778.39
782.919	2709.45
783.24	2757.97
783.561	2852.44
783.882	2990.32
784.203	2977.56
784.524	2900.96
784.845	2839.68
785.166	2589.44
785.487	2551.14
785.807	2658.39
786.128	2528.16
786.449	2466.88
786.769	2689.03
787.09	2724.77
787.41	2793.71
787.731	3128.21
788.051	3363.12
788.372	3380.99
788.692	3541.85
789.012	3843.15
789.332	3804.85
789.653	3927.41
789.973	4034.66
790.293	3965.72
790.613	3345.24
790.933	3240.56
791.253	3230.34
791.573	3038.84
791.893	2860.1
792.212	2745.2
792.532	2666.05
792.852	2599.66
793.171	2418.37
793.491	2456.67
793.811	2551.14
794.13	2517.95
794.45	2510.29
794.769	2428.58
795.088	2637.96
795.408	2770.73
795.727	2842.23
796.046	2724.77
796.365	2658.39
796.684	2558.8
797.004	2436.24
797.323	2482.2
797.642	2786.05
797.96	2824.36
798.279	2980.11
798.598	2786.05
798.917	2589.44
799.236	2423.47
