Data from 2025-12-03_xpw_interference_micrometer_634_reference_FLMS141361__116__366.txt Node

Date: Wed Dec 03 15:51:24 MST 2025
User: james
Spectrometer: FLMS14136
Trigger mode: 0
Integration Time (sec): 1.000000E-1
Scans to average: 1
Electric dark correction enabled: true
Nonlinearity correction enabled: false
Boxcar width: 0
XAxis mode: Wavelengths
Number of Pixels in Spectrum: 2048
>>>>>Begin Spectral Data<<<<<
339.315	-76.76
339.697	-76.76
340.079	-76.76
340.461	-109.95
340.843	-94.63
341.225	-99.74
341.607	-92.08
341.989	-135.49
342.371	-84.42
342.752	-25.69
343.134	-74.21
343.516	-25.69
343.897	-51.23
344.279	10.05
344.661	33.03
345.042	30.48
345.423	12.61
345.805	107.08
346.186	122.4
346.567	104.53
346.949	168.36
347.33	237.3
347.711	206.66
348.092	229.64
348.473	170.92
348.854	211.77
349.235	273.05
349.616	283.27
349.997	288.37
350.378	398.17
350.758	352.21
351.139	372.63
351.52	326.67
351.9	370.08
352.281	433.91
352.661	364.97
353.042	375.19
353.422	418.59
353.803	421.15
354.183	395.61
354.563	428.81
354.943	387.95
355.324	418.59
355.704	410.93
356.084	418.59
356.464	387.95
356.844	423.7
357.224	321.57
357.603	410.93
357.983	347.1
358.363	311.35
358.743	405.83
359.122	421.15
359.502	344.55
359.882	408.38
360.261	375.19
360.641	387.95
361.02	313.91
361.399	444.13
361.779	321.57
362.158	362.42
362.537	326.67
362.916	357.31
363.296	390.51
363.675	364.97
364.054	380.29
364.433	357.31
364.812	439.02
365.19	344.55
365.569	423.7
365.948	329.23
366.327	403.27
366.705	347.1
367.084	393.06
367.463	380.29
367.841	359.87
368.22	395.61
368.598	341.99
368.977	364.97
369.355	303.69
369.733	329.23
370.111	382.85
370.49	298.59
370.868	413.49
371.246	280.71
371.624	293.48
372.002	273.05
372.38	329.23
372.758	462
373.136	375.19
373.513	393.06
373.891	311.35
374.269	349.65
374.646	359.87
375.024	382.85
375.402	364.97
375.779	364.97
376.157	329.23
376.534	349.65
376.911	303.69
377.289	352.21
377.666	357.31
378.043	344.55
378.42	349.65
378.797	341.99
379.175	477.32
379.552	439.02
379.929	393.06
380.305	370.08
380.682	395.61
381.059	382.85
381.436	306.25
381.813	354.76
382.189	426.25
382.566	464.56
382.943	405.83
383.319	347.1
383.696	311.35
384.072	301.14
384.448	354.76
384.825	382.85
385.201	387.95
385.577	324.12
385.953	349.65
386.329	367.53
386.706	395.61
387.082	352.21
387.458	408.38
387.834	359.87
388.209	428.81
388.585	341.99
388.961	354.76
389.337	500.3
389.713	400.72
390.088	408.38
390.464	462
390.839	433.91
391.215	387.95
391.59	426.25
391.966	357.31
392.341	390.51
392.716	354.76
393.092	367.53
393.467	423.7
393.842	387.95
394.217	364.97
394.592	377.74
394.967	326.67
395.342	405.83
395.717	387.95
396.092	382.85
396.467	403.27
396.841	413.49
397.216	413.49
397.591	367.53
397.965	364.97
398.34	426.25
398.714	400.72
399.089	364.97
399.463	418.59
399.838	362.42
400.212	362.42
400.586	390.51
400.961	408.38
401.335	377.74
401.709	416.04
402.083	416.04
402.457	405.83
402.831	423.7
403.205	367.53
403.579	326.67
403.953	408.38
404.326	382.85
404.7	380.29
405.074	372.63
405.447	367.53
405.821	393.06
406.195	421.15
406.568	359.87
406.942	431.36
407.315	357.31
407.688	324.12
408.062	364.97
408.435	370.08
408.808	390.51
409.181	362.42
409.554	444.13
409.927	474.77
410.3	405.83
410.673	405.83
411.046	410.93
411.419	375.19
411.792	405.83
412.165	433.91
412.537	444.13
412.91	370.08
413.283	403.27
413.655	433.91
414.028	477.32
414.4	395.61
414.773	380.29
415.145	354.76
415.517	421.15
415.889	403.27
416.262	393.06
416.634	451.79
417.006	393.06
417.378	482.43
417.75	354.76
418.122	436.47
418.494	431.36
418.866	451.79
419.238	375.19
419.609	408.38
419.981	357.31
420.353	385.4
420.725	431.36
421.096	474.77
421.468	439.02
421.839	418.59
422.211	413.49
422.582	410.93
422.953	426.25
423.325	387.95
423.696	403.27
424.067	405.83
424.438	400.72
424.809	377.74
425.18	387.95
425.551	467.11
425.922	413.49
426.293	410.93
426.664	449.23
427.035	393.06
427.406	357.31
427.776	421.15
428.147	441.57
428.518	449.23
428.888	339.44
429.259	403.27
429.629	416.04
429.999	441.57
430.37	387.95
430.74	431.36
431.11	456.9
431.481	444.13
431.851	467.11
432.221	408.38
432.591	400.72
432.961	372.63
433.331	354.76
433.701	393.06
434.071	433.91
434.441	462
434.81	456.9
435.18	459.45
435.55	472.22
435.919	451.79
436.289	426.25
436.658	439.02
437.028	387.95
437.397	405.83
437.767	446.68
438.136	418.59
438.505	433.91
438.875	444.13
439.244	444.13
439.613	393.06
439.982	352.21
440.351	364.97
440.72	467.11
441.089	400.72
441.458	416.04
441.827	497.75
442.196	387.95
442.564	464.56
442.933	400.72
443.302	423.7
443.67	387.95
444.039	464.56
444.407	426.25
444.776	390.51
445.144	431.36
445.513	428.81
445.881	446.68
446.249	408.38
446.617	451.79
446.986	410.93
447.354	464.56
447.722	490.09
448.09	428.81
448.458	431.36
448.826	502.86
449.194	446.68
449.561	347.1
449.929	408.38
450.297	400.72
450.665	421.15
451.032	413.49
451.4	444.13
451.767	403.27
452.135	395.61
452.502	451.79
452.87	359.87
453.237	426.25
453.604	436.47
453.971	423.7
454.339	472.22
454.706	421.15
455.073	382.85
455.44	444.13
455.807	441.57
456.174	359.87
456.541	354.76
456.908	370.08
457.274	405.83
457.641	410.93
458.008	421.15
458.374	352.21
458.741	421.15
459.108	454.34
459.474	467.11
459.841	405.83
460.207	400.72
460.573	416.04
460.94	426.25
461.306	449.23
461.672	423.7
462.038	446.68
462.404	413.49
462.771	372.63
463.137	428.81
463.503	426.25
463.868	428.81
464.234	436.47
464.6	390.51
464.966	439.02
465.332	484.98
465.697	423.7
466.063	428.81
466.429	410.93
466.794	428.81
467.16	375.19
467.525	431.36
467.89	433.91
468.256	456.9
468.621	418.59
468.986	408.38
469.351	410.93
469.717	431.36
470.082	469.66
470.447	403.27
470.812	439.02
471.177	436.47
471.542	390.51
471.906	403.27
472.271	436.47
472.636	444.13
473.001	418.59
473.365	431.36
473.73	436.47
474.094	479.88
474.459	426.25
474.823	444.13
475.188	395.61
475.552	459.45
475.917	393.06
476.281	439.02
476.645	441.57
477.009	444.13
477.373	474.77
477.737	390.51
478.101	387.95
478.465	426.25
478.829	359.87
479.193	344.55
479.557	436.47
479.921	474.77
480.284	500.3
480.648	436.47
481.012	393.06
481.375	372.63
481.739	410.93
482.102	490.09
482.466	393.06
482.829	462
483.193	416.04
483.556	426.25
483.919	428.81
484.282	426.25
484.645	390.51
485.009	408.38
485.372	433.91
485.735	367.53
486.098	474.77
486.46	431.36
486.823	459.45
487.186	518.18
487.549	479.88
487.912	334.33
488.274	375.19
488.637	357.31
488.999	418.59
489.362	403.27
489.724	454.34
490.087	423.7
490.449	398.17
490.811	377.74
491.174	395.61
491.536	410.93
491.898	431.36
492.26	439.02
492.622	464.56
492.984	418.59
493.346	400.72
493.708	441.57
494.07	454.34
494.432	487.54
494.794	428.81
495.155	431.36
495.517	410.93
495.879	385.4
496.24	459.45
496.602	418.59
496.963	456.9
497.325	400.72
497.686	454.34
498.048	362.42
498.409	403.27
498.77	413.49
499.131	472.22
499.492	462
499.854	349.65
500.215	364.97
500.576	446.68
500.937	421.15
501.298	431.36
501.658	375.19
502.019	413.49
502.38	454.34
502.741	451.79
503.101	456.9
503.462	433.91
503.823	436.47
504.183	451.79
504.543	390.51
504.904	408.38
505.264	359.87
505.625	382.85
505.985	451.79
506.345	416.04
506.705	418.59
507.065	416.04
507.426	446.68
507.786	436.47
508.146	464.56
508.505	423.7
508.865	428.81
509.225	362.42
509.585	530.94
509.945	436.47
510.304	395.61
510.664	382.85
511.024	370.08
511.383	449.23
511.743	423.7
512.102	413.49
512.462	405.83
512.821	416.04
513.18	439.02
513.539	456.9
513.899	421.15
514.258	444.13
514.617	413.49
514.976	413.49
515.335	398.17
515.694	497.75
516.053	462
516.412	370.08
516.771	364.97
517.129	439.02
517.488	484.98
517.847	456.9
518.205	482.43
518.564	311.35
518.922	433.91
519.281	426.25
519.639	469.66
519.998	477.32
520.356	426.25
520.714	513.07
521.073	444.13
521.431	408.38
521.789	403.27
522.147	474.77
522.505	482.43
522.863	385.4
523.221	403.27
523.579	441.57
523.937	395.61
524.295	451.79
524.652	469.66
525.01	431.36
525.368	467.11
525.725	439.02
526.083	370.08
526.44	316.46
526.798	359.87
527.155	454.34
527.513	423.7
527.87	390.51
528.227	398.17
528.584	410.93
528.942	421.15
529.299	426.25
529.656	467.11
530.013	439.02
530.37	410.93
530.727	431.36
531.083	439.02
531.44	418.59
531.797	408.38
532.154	416.04
532.511	349.65
532.867	423.7
533.224	372.63
533.58	479.88
533.937	367.53
534.293	436.47
534.65	431.36
535.006	446.68
535.362	454.34
535.718	408.38
536.075	413.49
536.431	456.9
536.787	428.81
537.143	416.04
537.499	393.06
537.855	380.29
538.211	341.99
538.567	444.13
538.923	469.66
539.278	431.36
539.634	380.29
539.99	426.25
540.345	400.72
540.701	454.34
541.056	421.15
541.412	472.22
541.767	423.7
542.123	380.29
542.478	462
542.833	426.25
543.188	421.15
543.544	410.93
543.899	400.72
544.254	390.51
544.609	469.66
544.964	390.51
545.319	400.72
545.674	441.57
546.029	462
546.383	408.38
546.738	451.79
547.093	385.4
547.447	364.97
547.802	385.4
548.157	428.81
548.511	405.83
548.866	433.91
549.22	459.45
549.574	347.1
549.929	367.53
550.283	408.38
550.637	400.72
550.991	377.74
551.345	428.81
551.699	372.63
552.053	336.89
552.407	431.36
552.761	449.23
553.115	408.38
553.469	533.5
553.823	377.74
554.176	359.87
554.53	408.38
554.884	403.27
555.237	671.38
555.591	444.13
555.944	426.25
556.298	449.23
556.651	400.72
557.005	459.45
557.358	364.97
557.711	393.06
558.064	449.23
558.417	441.57
558.771	469.66
559.124	428.81
559.477	426.25
559.83	377.74
560.182	492.64
560.535	464.56
560.888	347.1
561.241	377.74
561.594	387.95
561.946	451.79
562.299	441.57
562.651	433.91
563.004	393.06
563.356	444.13
563.709	451.79
564.061	395.61
564.413	395.61
564.766	426.25
565.118	446.68
565.47	334.33
565.822	387.95
566.174	423.7
566.526	382.85
566.878	439.02
567.23	382.85
567.582	408.38
567.934	431.36
568.286	462
568.638	459.45
568.989	421.15
569.341	393.06
569.693	482.43
570.044	441.57
570.396	464.56
570.747	405.83
571.098	405.83
571.45	528.39
571.801	329.23
572.152	370.08
572.504	433.91
572.855	439.02
573.206	398.17
573.557	416.04
573.908	390.51
574.259	380.29
574.61	398.17
574.961	439.02
575.311	484.98
575.662	451.79
576.013	446.68
576.364	500.3
576.714	387.95
577.065	375.19
577.415	441.57
577.766	469.66
578.116	398.17
578.467	403.27
578.817	423.7
579.167	431.36
579.518	433.91
579.868	474.77
580.218	410.93
580.568	400.72
580.918	410.93
581.268	400.72
581.618	431.36
581.968	421.15
582.318	446.68
582.668	410.93
583.017	395.61
583.367	472.22
583.717	497.75
584.066	474.77
584.416	431.36
584.765	357.31
585.115	421.15
585.464	428.81
585.814	416.04
586.163	416.04
586.512	403.27
586.862	431.36
587.211	377.74
587.56	377.74
587.909	428.81
588.258	385.4
588.607	426.25
588.956	459.45
589.305	418.59
589.654	439.02
590.002	454.34
590.351	357.31
590.7	433.91
591.048	413.49
591.397	433.91
591.746	400.72
592.094	418.59
592.443	405.83
592.791	405.83
593.139	380.29
593.488	456.9
593.836	464.56
594.184	413.49
594.532	393.06
594.88	426.25
595.228	444.13
595.576	462
595.924	467.11
596.272	497.75
596.62	469.66
596.968	385.4
597.316	375.19
597.664	393.06
598.011	428.81
598.359	413.49
598.706	459.45
599.054	444.13
599.402	395.61
599.749	372.63
600.096	370.08
600.444	464.56
600.791	410.93
601.138	398.17
601.485	349.65
601.833	405.83
602.18	472.22
602.527	472.22
602.874	439.02
603.221	426.25
603.568	418.59
603.914	451.79
604.261	390.51
604.608	357.31
604.955	387.95
605.301	464.56
605.648	405.83
605.995	410.93
606.341	423.7
606.688	393.06
607.034	400.72
607.38	433.91
607.727	405.83
608.073	410.93
608.419	364.97
608.765	400.72
609.112	426.25
609.458	423.7
609.804	410.93
610.15	418.59
610.496	426.25
610.842	423.7
611.187	390.51
611.533	482.43
611.879	464.56
612.225	428.81
612.57	451.79
612.916	354.76
613.261	426.25
613.607	380.29
613.952	408.38
614.298	502.86
614.643	510.52
614.989	347.1
615.334	370.08
615.679	449.23
616.024	431.36
616.369	413.49
616.714	341.99
617.059	390.51
617.404	398.17
617.749	456.9
618.094	390.51
618.439	405.83
618.784	390.51
619.129	433.91
619.473	408.38
619.818	329.23
620.163	449.23
620.507	441.57
620.852	395.61
621.196	439.02
621.54	426.25
621.885	382.85
622.229	410.93
622.573	408.38
622.918	418.59
623.262	408.38
623.606	380.29
623.95	456.9
624.294	484.98
624.638	510.52
624.982	372.63
625.326	441.57
625.67	428.81
626.013	405.83
626.357	413.49
626.701	467.11
627.044	364.97
627.388	357.31
627.731	464.56
628.075	410.93
628.418	341.99
628.762	347.1
629.105	362.42
629.448	451.79
629.792	421.15
630.135	395.61
630.478	403.27
630.821	441.57
631.164	431.36
631.507	436.47
631.85	444.13
632.193	400.72
632.536	349.65
632.879	395.61
633.221	428.81
633.564	482.43
633.907	405.83
634.249	395.61
634.592	398.17
634.935	413.49
635.277	441.57
635.619	403.27
635.962	393.06
636.304	382.85
636.646	446.68
636.989	436.47
637.331	400.72
637.673	380.29
638.015	426.25
638.357	398.17
638.699	331.78
639.041	431.36
639.383	426.25
639.725	439.02
640.067	403.27
640.408	380.29
640.75	431.36
641.092	469.66
641.433	398.17
641.775	446.68
642.116	410.93
642.458	451.79
642.799	423.7
643.141	413.49
643.482	398.17
643.823	467.11
644.164	451.79
644.506	472.22
644.847	344.55
645.188	423.7
645.529	357.31
645.87	400.72
646.211	426.25
646.552	382.85
646.893	395.61
647.233	413.49
647.574	364.97
647.915	393.06
648.255	421.15
648.596	393.06
648.937	390.51
649.277	413.49
649.618	400.72
649.958	421.15
650.298	400.72
650.639	375.19
650.979	410.93
651.319	349.65
651.659	426.25
651.999	451.79
652.339	408.38
652.679	395.61
653.019	472.22
653.359	393.06
653.699	410.93
654.039	423.7
654.379	393.06
654.719	421.15
655.058	380.29
655.398	400.72
655.737	497.75
656.077	472.22
656.416	405.83
656.756	436.47
657.095	416.04
657.435	439.02
657.774	334.33
658.113	331.78
658.452	408.38
658.792	387.95
659.131	377.74
659.47	367.53
659.809	431.36
660.148	459.45
660.487	408.38
660.826	454.34
661.164	321.57
661.503	507.96
661.842	367.53
662.181	408.38
662.519	385.4
662.858	385.4
663.196	403.27
663.535	439.02
663.873	413.49
664.212	408.38
664.55	382.85
664.888	364.97
665.226	398.17
665.565	431.36
665.903	602.44
666.241	477.32
666.579	341.99
666.917	398.17
667.255	421.15
667.593	418.59
667.931	408.38
668.268	354.76
668.606	382.85
668.944	456.9
669.282	403.27
669.619	372.63
669.957	490.09
670.294	436.47
670.632	433.91
670.969	385.4
671.307	451.79
671.644	413.49
671.981	403.27
672.318	410.93
672.656	387.95
672.993	436.47
673.33	436.47
673.667	426.25
674.004	416.04
674.341	439.02
674.678	433.91
675.015	393.06
675.351	408.38
675.688	403.27
676.025	403.27
676.362	416.04
676.698	410.93
677.035	459.45
677.371	375.19
677.708	421.15
678.044	449.23
678.38	354.76
678.717	362.42
679.053	387.95
679.389	380.29
679.725	398.17
680.062	423.7
680.398	370.08
680.734	393.06
681.07	426.25
681.406	377.74
681.742	426.25
682.077	410.93
682.413	390.51
682.749	418.59
683.085	377.74
683.42	408.38
683.756	416.04
684.091	477.32
684.427	393.06
684.762	428.81
685.098	398.17
685.433	367.53
685.768	408.38
686.104	477.32
686.439	377.74
686.774	403.27
687.109	393.06
687.444	403.27
687.779	357.31
688.114	372.63
688.449	441.57
688.784	451.79
689.119	431.36
689.454	403.27
689.789	410.93
690.123	405.83
690.458	390.51
690.792	421.15
691.127	426.25
691.461	416.04
691.796	413.49
692.13	405.83
692.465	426.25
692.799	423.7
693.133	367.53
693.467	385.4
693.802	387.95
694.136	393.06
694.47	441.57
694.804	403.27
695.138	484.98
695.472	408.38
695.806	456.9
696.139	421.15
696.473	416.04
696.807	446.68
697.141	418.59
697.474	464.56
697.808	405.83
698.141	367.53
698.475	347.1
698.808	413.49
699.142	385.4
699.475	439.02
699.808	428.81
700.142	439.02
700.475	395.61
700.808	418.59
701.141	382.85
701.474	331.78
701.807	382.85
702.14	393.06
702.473	408.38
702.806	431.36
703.139	329.23
703.472	416.04
703.804	385.4
704.137	469.66
704.47	441.57
704.802	410.93
705.135	387.95
705.467	387.95
705.8	413.49
706.132	359.87
706.464	395.61
706.797	398.17
707.129	403.27
707.461	375.19
707.793	426.25
708.125	377.74
708.457	403.27
708.789	359.87
709.121	393.06
709.453	418.59
709.785	362.42
710.117	385.4
710.449	405.83
710.781	446.68
711.112	403.27
711.444	441.57
711.775	433.91
712.107	433.91
712.438	377.74
712.77	410.93
713.101	416.04
713.433	400.72
713.764	446.68
714.095	454.34
714.426	416.04
714.757	439.02
715.089	446.68
715.42	372.63
715.751	400.72
716.082	403.27
716.412	393.06
716.743	444.13
717.074	426.25
717.405	359.87
717.736	354.76
718.066	390.51
718.397	359.87
718.727	413.49
719.058	390.51
719.388	449.23
719.719	451.79
720.049	385.4
720.38	380.29
720.71	380.29
721.04	423.7
721.37	410.93
721.7	454.34
722.031	395.61
722.361	380.29
722.691	462
723.021	492.64
723.35	451.79
723.68	500.3
724.01	436.47
724.34	380.29
724.67	477.32
724.999	380.29
725.329	382.85
725.658	428.81
725.988	390.51
726.317	357.31
726.647	421.15
726.976	364.97
727.306	423.7
727.635	451.79
727.964	398.17
728.293	410.93
728.622	439.02
728.952	416.04
729.281	390.51
729.61	449.23
729.939	395.61
730.267	433.91
730.596	439.02
730.925	410.93
731.254	423.7
731.583	387.95
731.911	354.76
732.24	413.49
732.568	385.4
732.897	416.04
733.225	387.95
733.554	454.34
733.882	421.15
734.21	484.98
734.539	423.7
734.867	449.23
735.195	426.25
735.523	395.61
735.851	421.15
736.179	395.61
736.507	377.74
736.835	377.74
737.163	408.38
737.491	416.04
737.819	428.81
738.147	433.91
738.474	439.02
738.802	459.45
739.13	393.06
739.457	357.31
739.785	477.32
740.112	357.31
740.44	413.49
740.767	431.36
741.094	423.7
741.422	474.77
741.749	439.02
742.076	421.15
742.403	390.51
742.73	400.72
743.057	339.44
743.384	306.25
743.711	395.61
744.038	380.29
744.365	436.47
744.692	446.68
745.018	347.1
745.345	352.21
745.672	405.83
745.998	449.23
746.325	428.81
746.651	377.74
746.978	405.83
747.304	382.85
747.631	413.49
747.957	413.49
748.283	382.85
748.61	377.74
748.936	462
749.262	446.68
749.588	487.54
749.914	410.93
750.24	408.38
750.566	451.79
750.892	423.7
751.218	418.59
751.543	385.4
751.869	408.38
752.195	441.57
752.521	410.93
752.846	377.74
753.172	398.17
753.497	454.34
753.823	467.11
754.148	385.4
754.473	413.49
754.799	362.42
755.124	451.79
755.449	387.95
755.774	423.7
756.1	446.68
756.425	410.93
756.75	334.33
757.075	367.53
757.4	538.6
757.724	382.85
758.049	436.47
758.374	408.38
758.699	372.63
759.024	433.91
759.348	431.36
759.673	484.98
759.997	418.59
760.322	329.23
760.646	395.61
760.971	456.9
761.295	446.68
761.619	449.23
761.944	410.93
762.268	495.2
762.592	495.2
762.916	490.09
763.24	495.2
763.564	431.36
763.888	523.28
764.212	548.82
764.536	648.4
764.86	666.27
765.184	630.52
765.508	650.95
765.831	684.15
766.155	962.46
766.478	696.91
766.802	725
767.126	791.39
767.449	888.42
767.772	880.76
768.096	998.21
768.419	934.38
768.742	957.36
769.066	1046.73
769.389	1033.96
769.712	1128.43
770.035	1125.88
770.358	1164.18
770.681	1284.19
771.004	1340.36
771.327	1350.58
771.65	1345.47
771.972	1501.23
772.295	1491.01
772.618	1483.35
772.941	1534.42
773.263	1455.27
773.586	1567.61
773.908	1756.56
774.231	1784.65
774.553	1881.68
774.875	1994.03
775.198	2096.16
775.52	2006.8
775.842	2027.22
776.164	1830.61
776.487	2019.56
776.809	1942.96
777.131	1958.28
777.453	2045.1
777.775	2004.24
778.096	2154.89
778.418	2269.79
778.74	2114.04
779.062	2188.09
779.384	2249.37
779.705	2527.68
780.027	2790.68
780.348	2803.45
780.67	2673.23
780.991	2964.31
781.313	3332
781.634	3234.97
781.955	3076.66
782.277	3017.93
782.598	3030.7
782.919	2989.85
783.24	3084.32
783.561	3056.23
783.882	3061.34
784.203	3058.79
784.524	3007.72
784.845	3094.53
785.166	2857.07
785.487	2839.2
785.807	2841.75
786.128	2760.04
786.449	2706.42
786.769	2711.53
787.09	2931.12
787.41	3132.84
787.731	3393.28
788.051	3595
788.372	3694.58
788.692	3840.12
789.012	4105.67
789.332	3990.77
789.653	4248.66
789.973	4437.61
790.293	4212.91
790.613	3671.6
790.933	3513.29
791.253	3314.13
791.573	3296.25
791.893	3091.98
792.212	2892.82
792.532	2793.24
792.852	2749.83
793.171	2609.39
793.491	2532.79
793.811	2601.73
794.13	2586.41
794.45	2622.16
794.769	2652.8
795.088	2839.2
795.408	2910.69
795.727	3066.45
796.046	2941.33
796.365	2890.26
796.684	2614.5
797.004	2568.54
797.323	2668.12
797.642	3099.64
797.96	3069
798.279	3145.6
798.598	2811.11
798.917	2765.15
799.236	2611.95
799.554	2494.49
799.873	2313.2
