Data from 2025-12-03_xpw_interference_micrometer_634_reference_FLMS141361__176__426.txt Node

Date: Wed Dec 03 15:51:30 MST 2025
User: james
Spectrometer: FLMS14136
Trigger mode: 0
Integration Time (sec): 1.000000E-1
Scans to average: 1
Electric dark correction enabled: true
Nonlinearity correction enabled: false
Boxcar width: 0
XAxis mode: Wavelengths
Number of Pixels in Spectrum: 2048
>>>>>Begin Spectral Data<<<<<
339.315	-56.65
339.697	-56.65
340.079	-56.65
340.461	-128.15
340.843	-146.02
341.225	-77.08
341.607	-87.29
341.989	-161.34
342.371	-128.15
342.752	-74.53
343.134	-10.69
343.516	-51.55
343.897	40.38
344.279	-20.91
344.661	42.93
345.042	104.21
345.423	78.68
345.805	-8.14
346.186	32.72
346.567	132.3
346.949	188.47
347.33	139.96
347.711	183.36
348.092	178.26
348.473	165.49
348.854	280.39
349.235	323.8
349.616	323.8
349.997	249.75
350.378	356.99
350.758	341.67
351.139	354.44
351.52	354.44
351.9	326.35
352.281	400.4
352.661	341.67
353.042	354.44
353.422	323.8
353.803	410.62
354.183	433.6
354.563	362.1
354.943	339.12
355.324	369.76
355.704	356.99
356.084	351.89
356.464	382.53
356.844	428.49
357.224	377.42
357.603	303.37
357.983	346.78
358.363	392.74
358.743	339.12
359.122	344.23
359.502	293.16
359.882	288.05
360.261	326.35
360.641	336.57
361.02	436.15
361.399	410.62
361.779	367.21
362.158	308.48
362.537	334.01
362.916	385.08
363.296	351.89
363.675	318.69
364.054	326.35
364.433	431.04
364.812	359.55
365.19	351.89
365.569	377.42
365.948	323.8
366.327	280.39
366.705	346.78
367.084	305.93
367.463	328.91
367.841	405.51
368.22	311.03
368.598	339.12
368.977	298.27
369.355	305.93
369.733	282.95
370.111	290.61
370.49	336.57
370.868	356.99
371.246	288.05
371.624	349.33
372.002	346.78
372.38	328.91
372.758	226.77
373.136	300.82
373.513	367.21
373.891	334.01
374.269	346.78
374.646	300.82
375.024	351.89
375.402	349.33
375.779	390.19
376.157	359.55
376.534	367.21
376.911	331.46
377.289	356.99
377.666	408.06
378.043	377.42
378.42	379.97
378.797	372.31
379.175	410.62
379.552	359.55
379.929	374.87
380.305	331.46
380.682	362.1
381.059	321.25
381.436	397.85
381.813	364.65
382.189	356.99
382.566	336.57
382.943	346.78
383.319	334.01
383.696	395.29
384.072	349.33
384.448	339.12
384.825	334.01
385.201	349.33
385.577	334.01
385.953	331.46
386.329	418.28
386.706	395.29
387.082	387.63
387.458	354.44
387.834	321.25
388.209	364.65
388.585	400.4
388.961	369.76
389.337	323.8
389.713	295.71
390.088	436.15
390.464	346.78
390.839	300.82
391.215	431.04
391.59	369.76
391.966	410.62
392.341	334.01
392.716	356.99
393.092	362.1
393.467	423.38
393.842	377.42
394.217	364.65
394.592	405.51
394.967	413.17
395.342	346.78
395.717	390.19
396.092	405.51
396.467	379.97
396.841	377.42
397.216	400.4
397.591	372.31
397.965	436.15
398.34	377.42
398.714	400.4
399.089	377.42
399.463	418.28
399.838	374.87
400.212	400.4
400.586	387.63
400.961	323.8
401.335	359.55
401.709	385.08
402.083	413.17
402.457	354.44
402.831	405.51
403.205	397.85
403.579	349.33
403.953	336.57
404.326	395.29
404.7	395.29
405.074	313.59
405.447	367.21
405.821	390.19
406.195	328.91
406.568	374.87
406.942	492.32
407.315	359.55
407.688	372.31
408.062	346.78
408.435	364.65
408.808	351.89
409.181	413.17
409.554	413.17
409.927	410.62
410.3	344.23
410.673	408.06
411.046	341.67
411.419	387.63
411.792	377.42
412.165	410.62
412.537	451.47
412.91	377.42
413.283	369.76
413.655	390.19
414.028	346.78
414.4	367.21
414.773	369.76
415.145	372.31
415.517	341.67
415.889	395.29
416.262	395.29
416.634	428.49
417.006	382.53
417.378	387.63
417.75	456.58
418.122	379.97
418.494	364.65
418.866	336.57
419.238	379.97
419.609	400.4
419.981	423.38
420.353	410.62
420.725	364.65
421.096	372.31
421.468	433.6
421.839	433.6
422.211	464.24
422.582	415.72
422.953	402.95
423.325	387.63
423.696	408.06
424.067	387.63
424.438	456.58
424.809	346.78
425.18	385.08
425.551	410.62
425.922	420.83
426.293	420.83
426.664	431.04
427.035	420.83
427.406	402.95
427.776	438.7
428.147	397.85
428.518	443.81
428.888	459.13
429.259	413.17
429.629	410.62
429.999	405.51
430.37	402.95
430.74	385.08
431.11	311.03
431.481	377.42
431.851	400.4
432.221	397.85
432.591	390.19
432.961	423.38
433.331	369.76
433.701	397.85
434.071	344.23
434.441	428.49
434.81	351.89
435.18	413.17
435.55	379.97
435.919	385.08
436.289	385.08
436.658	413.17
437.028	392.74
437.397	377.42
437.767	390.19
438.136	410.62
438.505	464.24
438.875	428.49
439.244	374.87
439.613	397.85
439.982	336.57
440.351	377.42
440.72	354.44
441.089	420.83
441.458	395.29
441.827	415.72
442.196	395.29
442.564	548.5
442.933	469.34
443.302	415.72
443.67	415.72
444.039	354.44
444.407	456.58
444.776	369.76
445.144	425.94
445.513	379.97
445.881	390.19
446.249	420.83
446.617	377.42
446.986	517.86
447.354	356.99
447.722	387.63
448.09	392.74
448.458	349.33
448.826	420.83
449.194	385.08
449.561	379.97
449.929	392.74
450.297	448.92
450.665	454.02
451.032	441.26
451.4	454.02
451.767	402.95
452.135	369.76
452.502	402.95
452.87	428.49
453.237	362.1
453.604	367.21
453.971	372.31
454.339	397.85
454.706	415.72
455.073	448.92
455.44	425.94
455.807	372.31
456.174	344.23
456.541	415.72
456.908	354.44
457.274	415.72
457.641	402.95
458.008	359.55
458.374	390.19
458.741	410.62
459.108	379.97
459.474	459.13
459.841	382.53
460.207	402.95
460.573	382.53
460.94	428.49
461.306	359.55
461.672	418.28
462.038	397.85
462.404	356.99
462.771	451.47
463.137	418.28
463.503	369.76
463.868	405.51
464.234	441.26
464.6	372.31
464.966	334.01
465.332	413.17
465.697	405.51
466.063	397.85
466.429	418.28
466.794	349.33
467.16	454.02
467.525	425.94
467.89	379.97
468.256	482.11
468.621	367.21
468.986	418.28
469.351	431.04
469.717	408.06
470.082	443.81
470.447	385.08
470.812	364.65
471.177	413.17
471.542	415.72
471.906	387.63
472.271	415.72
472.636	369.76
473.001	413.17
473.365	359.55
473.73	436.15
474.094	431.04
474.459	438.7
474.823	387.63
475.188	387.63
475.552	390.19
475.917	413.17
476.281	441.26
476.645	379.97
477.009	425.94
477.373	423.38
477.737	402.95
478.101	356.99
478.465	428.49
478.829	441.26
479.193	443.81
479.557	402.95
479.921	369.76
480.284	374.87
480.648	377.42
481.012	377.42
481.375	418.28
481.739	418.28
482.102	451.47
482.466	385.08
482.829	502.54
483.193	425.94
483.556	446.36
483.919	346.78
484.282	385.08
484.645	413.17
485.009	385.08
485.372	400.4
485.735	390.19
486.098	420.83
486.46	428.49
486.823	400.4
487.186	367.21
487.549	438.7
487.912	321.25
488.274	395.29
488.637	397.85
488.999	436.15
489.362	451.47
489.724	392.74
490.087	456.58
490.449	400.4
490.811	364.65
491.174	428.49
491.536	382.53
491.898	354.44
492.26	372.31
492.622	446.36
492.984	441.26
493.346	367.21
493.708	379.97
494.07	367.21
494.432	385.08
494.794	402.95
495.155	477
495.517	423.38
495.879	461.68
496.24	379.97
496.602	402.95
496.963	374.87
497.325	387.63
497.686	428.49
498.048	362.1
498.409	402.95
498.77	395.29
499.131	369.76
499.492	369.76
499.854	392.74
500.215	438.7
500.576	456.58
500.937	418.28
501.298	408.06
501.658	418.28
502.019	374.87
502.38	441.26
502.741	410.62
503.101	410.62
503.462	487.22
503.823	451.47
504.183	387.63
504.543	351.89
504.904	428.49
505.264	395.29
505.625	387.63
505.985	395.29
506.345	295.71
506.705	461.68
507.065	431.04
507.426	390.19
507.786	395.29
508.146	425.94
508.505	418.28
508.865	387.63
509.225	351.89
509.585	533.18
509.945	369.76
510.304	385.08
510.664	446.36
511.024	418.28
511.383	346.78
511.743	351.89
512.102	395.29
512.462	405.51
512.821	313.59
513.18	410.62
513.539	356.99
513.899	471.9
514.258	410.62
514.617	405.51
514.976	408.06
515.335	436.15
515.694	438.7
516.053	397.85
516.412	395.29
516.771	420.83
517.129	415.72
517.488	436.15
517.847	425.94
518.205	415.72
518.564	397.85
518.922	405.51
519.281	410.62
519.639	425.94
519.998	431.04
520.356	390.19
520.714	405.51
521.073	397.85
521.431	390.19
521.789	408.06
522.147	423.38
522.505	379.97
522.863	466.79
523.221	387.63
523.579	369.76
523.937	382.53
524.295	443.81
524.652	364.65
525.01	441.26
525.368	351.89
525.725	408.06
526.083	423.38
526.44	451.47
526.798	464.24
527.155	387.63
527.513	349.33
527.87	387.63
528.227	392.74
528.584	392.74
528.942	385.08
529.299	443.81
529.656	410.62
530.013	428.49
530.37	423.38
530.727	390.19
531.083	438.7
531.44	402.95
531.797	436.15
532.154	387.63
532.511	387.63
532.867	431.04
533.224	372.31
533.58	420.83
533.937	369.76
534.293	400.4
534.65	418.28
535.006	418.28
535.362	372.31
535.718	326.35
536.075	418.28
536.431	410.62
536.787	420.83
537.143	402.95
537.499	379.97
537.855	431.04
538.211	402.95
538.567	433.6
538.923	505.09
539.278	454.02
539.634	408.06
539.99	433.6
540.345	387.63
540.701	418.28
541.056	387.63
541.412	374.87
541.767	433.6
542.123	482.11
542.478	456.58
542.833	374.87
543.188	431.04
543.544	443.81
543.899	392.74
544.254	451.47
544.609	436.15
544.964	397.85
545.319	433.6
545.674	402.95
546.029	402.95
546.383	410.62
546.738	400.4
547.093	413.17
547.447	377.42
547.802	402.95
548.157	448.92
548.511	443.81
548.866	418.28
549.22	390.19
549.574	397.85
549.929	446.36
550.283	382.53
550.637	415.72
550.991	423.38
551.345	354.44
551.699	425.94
552.053	382.53
552.407	385.08
552.761	387.63
553.115	359.55
553.469	425.94
553.823	418.28
554.176	349.33
554.53	400.4
554.884	413.17
555.237	681.27
555.591	482.11
555.944	469.34
556.298	377.42
556.651	428.49
557.005	395.29
557.358	418.28
557.711	410.62
558.064	379.97
558.417	349.33
558.771	487.22
559.124	466.79
559.477	454.02
559.83	392.74
560.182	392.74
560.535	431.04
560.888	420.83
561.241	402.95
561.594	402.95
561.946	372.31
562.299	438.7
562.651	367.21
563.004	326.35
563.356	372.31
563.709	510.2
564.061	431.04
564.413	374.87
564.766	420.83
565.118	433.6
565.47	436.15
565.822	418.28
566.174	415.72
566.526	408.06
566.878	397.85
567.23	410.62
567.582	425.94
567.934	425.94
568.286	400.4
568.638	451.47
568.989	464.24
569.341	379.97
569.693	400.4
570.044	408.06
570.396	377.42
570.747	377.42
571.098	438.7
571.45	402.95
571.801	385.08
572.152	395.29
572.504	487.22
572.855	461.68
573.206	423.38
573.557	436.15
573.908	374.87
574.259	431.04
574.61	413.17
574.961	479.56
575.311	512.75
575.662	410.62
576.013	413.17
576.364	408.06
576.714	436.15
577.065	423.38
577.415	454.02
577.766	418.28
578.116	395.29
578.467	405.51
578.817	443.81
579.167	387.63
579.518	420.83
579.868	461.68
580.218	415.72
580.568	469.34
580.918	446.36
581.268	382.53
581.618	418.28
581.968	441.26
582.318	456.58
582.668	410.62
583.017	433.6
583.367	431.04
583.717	418.28
584.066	415.72
584.416	438.7
584.765	454.02
585.115	428.49
585.464	420.83
585.814	395.29
586.163	456.58
586.512	418.28
586.862	390.19
587.211	316.14
587.56	359.55
587.909	400.4
588.258	456.58
588.607	367.21
588.956	477
589.305	402.95
589.654	448.92
590.002	405.51
590.351	405.51
590.7	359.55
591.048	408.06
591.397	395.29
591.746	425.94
592.094	405.51
592.443	397.85
592.791	410.62
593.139	395.29
593.488	395.29
593.836	420.83
594.184	415.72
594.532	397.85
594.88	451.47
595.228	405.51
595.576	392.74
595.924	420.83
596.272	405.51
596.62	356.99
596.968	344.23
597.316	413.17
597.664	443.81
598.011	436.15
598.359	425.94
598.706	400.4
599.054	402.95
599.402	428.49
599.749	400.4
600.096	379.97
600.444	408.06
600.791	423.38
601.138	471.9
601.485	454.02
601.833	362.1
602.18	410.62
602.527	423.38
602.874	402.95
603.221	448.92
603.568	474.45
603.914	454.02
604.261	408.06
604.608	448.92
604.955	425.94
605.301	428.49
605.648	433.6
605.995	425.94
606.341	390.19
606.688	374.87
607.034	390.19
607.38	454.02
607.727	369.76
608.073	433.6
608.419	431.04
608.765	402.95
609.112	397.85
609.458	474.45
609.804	402.95
610.15	362.1
610.496	331.46
610.842	405.51
611.187	402.95
611.533	464.24
611.879	402.95
612.225	377.42
612.57	395.29
612.916	413.17
613.261	489.77
613.607	413.17
613.952	405.51
614.298	405.51
614.643	418.28
614.989	339.12
615.334	438.7
615.679	410.62
616.024	379.97
616.369	420.83
616.714	438.7
617.059	400.4
617.404	413.17
617.749	408.06
618.094	423.38
618.439	456.58
618.784	413.17
619.129	433.6
619.473	436.15
619.818	397.85
620.163	405.51
620.507	382.53
620.852	382.53
621.196	415.72
621.54	415.72
621.885	410.62
622.229	387.63
622.573	356.99
622.918	441.26
623.262	395.29
623.606	402.95
623.95	466.79
624.294	364.65
624.638	351.89
624.982	420.83
625.326	341.67
625.67	420.83
626.013	395.29
626.357	387.63
626.701	443.81
627.044	443.81
627.388	397.85
627.731	385.08
628.075	395.29
628.418	377.42
628.762	402.95
629.105	385.08
629.448	410.62
629.792	431.04
630.135	349.33
630.478	372.31
630.821	379.97
631.164	367.21
631.507	356.99
631.85	433.6
632.193	423.38
632.536	408.06
632.879	405.51
633.221	390.19
633.564	438.7
633.907	397.85
634.249	420.83
634.592	446.36
634.935	433.6
635.277	446.36
635.619	374.87
635.962	392.74
636.304	313.59
636.646	351.89
636.989	395.29
637.331	431.04
637.673	387.63
638.015	410.62
638.357	413.17
638.699	395.29
639.041	428.49
639.383	451.47
639.725	418.28
640.067	402.95
640.408	405.51
640.75	369.76
641.092	413.17
641.433	379.97
641.775	392.74
642.116	379.97
642.458	418.28
642.799	408.06
643.141	413.17
643.482	474.45
643.823	443.81
644.164	374.87
644.506	446.36
644.847	377.42
645.188	336.57
645.529	346.78
645.87	339.12
646.211	369.76
646.552	425.94
646.893	420.83
647.233	339.12
647.574	418.28
647.915	438.7
648.255	385.08
648.596	362.1
648.937	397.85
649.277	420.83
649.618	410.62
649.958	395.29
650.298	326.35
650.639	328.91
650.979	356.99
651.319	346.78
651.659	395.29
651.999	354.44
652.339	356.99
652.679	400.4
653.019	400.4
653.359	364.65
653.699	354.44
654.039	400.4
654.379	443.81
654.719	402.95
655.058	359.55
655.398	385.08
655.737	408.06
656.077	397.85
656.416	423.38
656.756	356.99
657.095	410.62
657.435	441.26
657.774	446.36
658.113	402.95
658.452	420.83
658.792	402.95
659.131	367.21
659.47	390.19
659.809	382.53
660.148	438.7
660.487	346.78
660.826	390.19
661.164	418.28
661.503	402.95
661.842	425.94
662.181	364.65
662.519	392.74
662.858	415.72
663.196	397.85
663.535	374.87
663.873	405.51
664.212	392.74
664.55	415.72
664.888	420.83
665.226	420.83
665.565	420.83
665.903	566.37
666.241	395.29
666.579	377.42
666.917	372.31
667.255	362.1
667.593	362.1
667.931	405.51
668.268	318.69
668.606	433.6
668.944	520.41
669.282	367.21
669.619	390.19
669.957	321.25
670.294	413.17
670.632	328.91
670.969	385.08
671.307	413.17
671.644	428.49
671.981	392.74
672.318	428.49
672.656	451.47
672.993	397.85
673.33	410.62
673.667	397.85
674.004	385.08
674.341	413.17
674.678	436.15
675.015	489.77
675.351	405.51
675.688	420.83
676.025	392.74
676.362	379.97
676.698	354.44
677.035	369.76
677.371	408.06
677.708	377.42
678.044	392.74
678.38	446.36
678.717	382.53
679.053	344.23
679.389	456.58
679.725	356.99
680.062	405.51
680.398	346.78
680.734	385.08
681.07	374.87
681.406	379.97
681.742	349.33
682.077	390.19
682.413	400.4
682.749	385.08
683.085	408.06
683.42	479.56
683.756	438.7
684.091	428.49
684.427	420.83
684.762	385.08
685.098	359.55
685.433	359.55
685.768	420.83
686.104	367.21
686.439	405.51
686.774	392.74
687.109	397.85
687.444	392.74
687.779	379.97
688.114	400.4
688.449	464.24
688.784	436.15
689.119	479.56
689.454	397.85
689.789	311.03
690.123	397.85
690.458	385.08
690.792	395.29
691.127	410.62
691.461	413.17
691.796	425.94
692.13	410.62
692.465	405.51
692.799	402.95
693.133	377.42
693.467	354.44
693.802	305.93
694.136	349.33
694.47	402.95
694.804	446.36
695.138	369.76
695.472	415.72
695.806	402.95
696.139	448.92
696.473	405.51
696.807	377.42
697.141	374.87
697.474	454.02
697.808	431.04
698.141	323.8
698.475	405.51
698.808	395.29
699.142	413.17
699.475	382.53
699.808	405.51
700.142	344.23
700.475	415.72
700.808	413.17
701.141	397.85
701.474	395.29
701.807	395.29
702.14	379.97
702.473	372.31
702.806	405.51
703.139	405.51
703.472	425.94
703.804	372.31
704.137	377.42
704.47	349.33
704.802	425.94
705.135	456.58
705.467	402.95
705.8	415.72
706.132	408.06
706.464	354.44
706.797	374.87
707.129	443.81
707.461	364.65
707.793	354.44
708.125	415.72
708.457	390.19
708.789	392.74
709.121	405.51
709.453	385.08
709.785	374.87
710.117	372.31
710.449	397.85
710.781	425.94
711.112	425.94
711.444	359.55
711.775	377.42
712.107	405.51
712.438	390.19
712.77	420.83
713.101	392.74
713.433	359.55
713.764	354.44
714.095	413.17
714.426	326.35
714.757	423.38
715.089	464.24
715.42	436.15
715.751	428.49
716.082	374.87
716.412	362.1
716.743	438.7
717.074	456.58
717.405	385.08
717.736	410.62
718.066	372.31
718.397	405.51
718.727	354.44
719.058	379.97
719.388	413.17
719.719	402.95
720.049	282.95
720.38	425.94
720.71	402.95
721.04	408.06
721.37	392.74
721.7	415.72
722.031	466.79
722.361	351.89
722.691	522.96
723.021	408.06
723.35	364.65
723.68	323.8
724.01	392.74
724.34	423.38
724.67	415.72
724.999	354.44
725.329	334.01
725.658	423.38
725.988	356.99
726.317	420.83
726.647	425.94
726.976	405.51
727.306	397.85
727.635	425.94
727.964	443.81
728.293	410.62
728.622	385.08
728.952	364.65
729.281	410.62
729.61	423.38
729.939	387.63
730.267	369.76
730.596	385.08
730.925	448.92
731.254	377.42
731.583	385.08
731.911	321.25
732.24	395.29
732.568	446.36
732.897	395.29
733.225	379.97
733.554	418.28
733.882	456.58
734.21	400.4
734.539	395.29
734.867	372.31
735.195	436.15
735.523	385.08
735.851	372.31
736.179	344.23
736.507	413.17
736.835	425.94
737.163	461.68
737.491	392.74
737.819	446.36
738.147	351.89
738.474	374.87
738.802	423.38
739.13	397.85
739.457	461.68
739.785	392.74
740.112	364.65
740.44	438.7
740.767	420.83
741.094	382.53
741.422	300.82
741.749	349.33
742.076	364.65
742.403	448.92
742.73	454.02
743.057	464.24
743.384	423.38
743.711	385.08
744.038	364.65
744.365	438.7
744.692	392.74
745.018	392.74
745.345	441.26
745.672	456.58
745.998	415.72
746.325	397.85
746.651	459.13
746.978	413.17
747.304	390.19
747.631	425.94
747.957	410.62
748.283	385.08
748.61	438.7
748.936	392.74
749.262	446.36
749.588	387.63
749.914	390.19
750.24	405.51
750.566	377.42
750.892	364.65
751.218	374.87
751.543	448.92
751.869	456.58
752.195	456.58
752.521	466.79
752.846	374.87
753.172	415.72
753.497	385.08
753.823	461.68
754.148	446.36
754.473	415.72
754.799	441.26
755.124	431.04
755.449	448.92
755.774	431.04
756.1	318.69
756.425	362.1
756.75	423.38
757.075	441.26
757.4	607.23
757.724	423.38
758.049	489.77
758.374	484.66
758.699	402.95
759.024	321.25
759.348	423.38
759.673	390.19
759.997	443.81
760.322	382.53
760.646	382.53
760.971	387.63
761.295	443.81
761.619	402.95
761.944	402.95
762.268	418.28
762.592	471.9
762.916	433.6
763.24	433.6
763.564	479.56
763.888	522.96
764.212	566.37
764.536	545.94
764.86	576.58
765.184	568.92
765.508	637.87
765.831	648.08
766.155	1020.87
766.478	780.85
766.802	645.53
767.126	750.21
767.449	944.27
767.772	992.79
768.096	928.95
768.419	923.84
768.742	944.27
769.066	980.02
769.389	1102.58
769.712	1064.28
770.035	1066.83
770.358	1031.09
770.681	1232.8
771.004	1217.48
771.327	1230.25
771.65	1296.64
771.972	1340.04
772.295	1426.86
772.618	1342.6
772.941	1424.31
773.263	1493.25
773.586	1536.65
773.908	1605.6
774.231	1674.54
774.553	1710.28
774.875	1894.13
775.198	2001.37
775.52	1832.85
775.842	1871.15
776.164	1894.13
776.487	1858.38
776.809	1891.57
777.131	1889.02
777.453	1883.91
777.775	1827.74
778.096	1860.93
778.418	1980.94
778.74	2024.35
779.062	1955.41
779.384	2080.52
779.705	2358.84
780.027	2565.67
780.348	2573.33
780.67	2649.93
780.991	2739.3
781.313	2958.89
781.634	2976.76
781.955	2872.07
782.277	2772.49
782.598	2660.14
782.919	2892.5
783.24	2818.45
783.561	2849.09
783.882	2813.34
784.203	2930.8
784.524	2798.02
784.845	2683.12
785.166	2601.41
785.487	2573.33
785.807	2499.28
786.128	2453.32
786.449	2453.32
786.769	2621.84
787.09	2616.73
787.41	2800.58
787.731	3002.29
788.051	3313.81
788.372	3413.39
788.692	3558.93
789.012	3722.35
789.332	3632.98
789.653	3865.34
789.973	3998.11
790.293	3850.02
790.613	3369.98
790.933	3239.76
791.253	3068.68
791.573	2843.98
791.893	2805.68
792.212	2729.08
792.532	2588.65
792.852	2476.3
793.171	2440.55
793.491	2427.78
793.811	2374.16
794.13	2333.31
794.45	2435.44
794.769	2514.6
795.088	2637.16
795.408	2660.14
795.727	2849.09
796.046	2803.13
796.365	2573.33
796.684	2506.94
797.004	2251.6
797.323	2514.6
797.642	2808.24
797.96	2892.5
798.279	2767.38
798.598	2583.54
798.917	2512.05
799.236	2351.18
