Data from 2025-12-03_xpw_interference_micrometer_634_reference_FLMS141361__145__395.txt Node

Date: Wed Dec 03 15:51:27 MST 2025
User: james
Spectrometer: FLMS14136
Trigger mode: 0
Integration Time (sec): 1.000000E-1
Scans to average: 1
Electric dark correction enabled: true
Nonlinearity correction enabled: false
Boxcar width: 0
XAxis mode: Wavelengths
Number of Pixels in Spectrum: 2048
>>>>>Begin Spectral Data<<<<<
339.315	-58.41
339.697	-58.41
340.079	-58.41
340.461	-129.9
340.843	-101.82
341.225	-58.41
341.607	-81.39
341.989	-48.2
342.371	-73.73
342.752	-55.86
343.134	-53.3
343.516	-60.96
343.897	-68.62
344.279	-9.89
344.661	7.98
345.042	56.49
345.423	92.24
345.805	59.05
346.186	41.17
346.567	122.88
346.949	130.54
347.33	133.09
347.711	102.45
348.092	189.27
348.473	199.48
348.854	225.02
349.235	265.87
349.616	265.87
349.997	217.36
350.378	299.06
350.758	250.55
351.139	301.62
351.52	373.11
351.9	355.24
352.281	385.88
352.661	345.03
353.042	334.81
353.422	436.95
353.803	388.43
354.183	347.58
354.563	311.83
354.943	368.01
355.324	368.01
355.704	368.01
356.084	357.79
356.464	350.13
356.844	393.54
357.224	357.79
357.603	383.33
357.983	352.69
358.363	380.77
358.743	370.56
359.122	362.9
359.502	375.67
359.882	355.24
360.261	339.92
360.641	401.2
361.02	360.35
361.399	316.94
361.779	337.37
362.158	345.03
362.537	324.6
362.916	288.85
363.296	327.15
363.675	347.58
364.054	434.39
364.433	316.94
364.812	360.35
365.19	352.69
365.569	327.15
365.948	314.38
366.327	316.94
366.705	329.7
367.084	365.45
367.463	337.37
367.841	332.26
368.22	322.04
368.598	293.96
368.977	270.98
369.355	393.54
369.733	319.49
370.111	319.49
370.49	352.69
370.868	314.38
371.246	309.28
371.624	396.09
372.002	304.17
372.38	345.03
372.758	388.43
373.136	350.13
373.513	357.79
373.891	316.94
374.269	373.11
374.646	383.33
375.024	329.7
375.402	255.66
375.779	306.72
376.157	314.38
376.534	390.99
376.911	355.24
377.289	357.79
377.666	296.51
378.043	291.4
378.42	334.81
378.797	327.15
379.175	342.47
379.552	388.43
379.929	309.28
380.305	429.29
380.682	362.9
381.059	345.03
381.436	362.9
381.813	375.67
382.189	368.01
382.566	293.96
382.943	342.47
383.319	339.92
383.696	260.76
384.072	311.83
384.448	362.9
384.825	299.06
385.201	385.88
385.577	334.81
385.953	339.92
386.329	329.7
386.706	324.6
387.082	388.43
387.458	306.72
387.834	396.09
388.209	329.7
388.585	342.47
388.961	352.69
389.337	332.26
389.713	362.9
390.088	380.77
390.464	365.45
390.839	299.06
391.215	350.13
391.59	319.49
391.966	350.13
392.341	347.58
392.716	345.03
393.092	426.73
393.467	329.7
393.842	380.77
394.217	347.58
394.592	362.9
394.967	388.43
395.342	370.56
395.717	309.28
396.092	306.72
396.467	360.35
396.841	352.69
397.216	421.63
397.591	375.67
397.965	398.65
398.34	355.24
398.714	390.99
399.089	365.45
399.463	316.94
399.838	332.26
400.212	408.86
400.586	360.35
400.961	322.04
401.335	322.04
401.709	350.13
402.083	393.54
402.457	416.52
402.831	365.45
403.205	401.2
403.579	370.56
403.953	365.45
404.326	408.86
404.7	408.86
405.074	324.6
405.447	390.99
405.821	393.54
406.195	362.9
406.568	352.69
406.942	383.33
407.315	426.73
407.688	385.88
408.062	385.88
408.435	365.45
408.808	370.56
409.181	357.79
409.554	424.18
409.927	347.58
410.3	388.43
410.673	370.56
411.046	373.11
411.419	447.16
411.792	352.69
412.165	337.37
412.537	390.99
412.91	411.41
413.283	316.94
413.655	380.77
414.028	383.33
414.4	329.7
414.773	416.52
415.145	419.07
415.517	329.7
415.889	380.77
416.262	309.28
416.634	429.29
417.006	424.18
417.378	324.6
417.75	390.99
418.122	411.41
418.494	368.01
418.866	365.45
419.238	434.39
419.609	365.45
419.981	375.67
420.353	383.33
420.725	311.83
421.096	355.24
421.468	419.07
421.839	378.22
422.211	396.09
422.582	431.84
422.953	342.47
423.325	332.26
423.696	378.22
424.067	342.47
424.438	370.56
424.809	360.35
425.18	375.67
425.551	352.69
425.922	350.13
426.293	385.88
426.664	345.03
427.035	424.18
427.406	355.24
427.776	406.31
428.147	347.58
428.518	316.94
428.888	350.13
429.259	398.65
429.629	362.9
429.999	362.9
430.37	286.3
430.74	370.56
431.11	434.39
431.481	319.49
431.851	401.2
432.221	408.86
432.591	416.52
432.961	370.56
433.331	370.56
433.701	396.09
434.071	378.22
434.441	388.43
434.81	370.56
435.18	406.31
435.55	398.65
435.919	357.79
436.289	311.83
436.658	406.31
437.028	403.75
437.397	347.58
437.767	281.19
438.136	355.24
438.505	419.07
438.875	396.09
439.244	388.43
439.613	339.92
439.982	419.07
440.351	383.33
440.72	373.11
441.089	378.22
441.458	431.84
441.827	388.43
442.196	390.99
442.564	472.69
442.933	383.33
443.302	406.31
443.67	408.86
444.039	421.63
444.407	370.56
444.776	345.03
445.144	383.33
445.513	373.11
445.881	380.77
446.249	370.56
446.617	480.35
446.986	360.35
447.354	375.67
447.722	370.56
448.09	396.09
448.458	424.18
448.826	477.8
449.194	449.71
449.561	385.88
449.929	444.61
450.297	360.35
450.665	398.65
451.032	383.33
451.4	403.75
451.767	339.92
452.135	375.67
452.502	413.97
452.87	385.88
453.237	375.67
453.604	375.67
453.971	475.25
454.339	426.73
454.706	342.47
455.073	378.22
455.44	373.11
455.807	401.2
456.174	424.18
456.541	380.77
456.908	413.97
457.274	426.73
457.641	350.13
458.008	411.41
458.374	370.56
458.741	396.09
459.108	378.22
459.474	355.24
459.841	380.77
460.207	339.92
460.573	419.07
460.94	352.69
461.306	429.29
461.672	401.2
462.038	370.56
462.404	408.86
462.771	431.84
463.137	352.69
463.503	329.7
463.868	355.24
464.234	311.83
464.6	365.45
464.966	385.88
465.332	390.99
465.697	388.43
466.063	396.09
466.429	383.33
466.794	424.18
467.16	421.63
467.525	383.33
467.89	383.33
468.256	370.56
468.621	273.53
468.986	385.88
469.351	421.63
469.717	309.28
470.082	345.03
470.447	378.22
470.812	398.65
471.177	436.95
471.542	390.99
471.906	393.54
472.271	449.71
472.636	413.97
473.001	419.07
473.365	345.03
473.73	436.95
474.094	347.58
474.459	324.6
474.823	413.97
475.188	362.9
475.552	368.01
475.917	388.43
476.281	408.86
476.645	462.48
477.009	411.41
477.373	408.86
477.737	332.26
478.101	419.07
478.465	360.35
478.829	390.99
479.193	439.5
479.557	370.56
479.921	322.04
480.284	375.67
480.648	416.52
481.012	475.25
481.375	375.67
481.739	411.41
482.102	408.86
482.466	368.01
482.829	503.33
483.193	403.75
483.556	396.09
483.919	362.9
484.282	403.75
484.645	380.77
485.009	401.2
485.372	439.5
485.735	406.31
486.098	360.35
486.46	380.77
486.823	375.67
487.186	357.79
487.549	408.86
487.912	365.45
488.274	334.81
488.637	352.69
488.999	378.22
489.362	388.43
489.724	383.33
490.087	383.33
490.449	355.24
490.811	337.37
491.174	444.61
491.536	447.16
491.898	345.03
492.26	337.37
492.622	362.9
492.984	324.6
493.346	413.97
493.708	393.54
494.07	398.65
494.432	390.99
494.794	419.07
495.155	380.77
495.517	401.2
495.879	419.07
496.24	426.73
496.602	413.97
496.963	334.81
497.325	406.31
497.686	449.71
498.048	373.11
498.409	416.52
498.77	413.97
499.131	419.07
499.492	419.07
499.854	314.38
500.215	352.69
500.576	370.56
500.937	429.29
501.298	403.75
501.658	378.22
502.019	314.38
502.38	365.45
502.741	373.11
503.101	360.35
503.462	378.22
503.823	388.43
504.183	393.54
504.543	385.88
504.904	385.88
505.264	398.65
505.625	434.39
505.985	462.48
506.345	398.65
506.705	413.97
507.065	403.75
507.426	406.31
507.786	329.7
508.146	393.54
508.505	350.13
508.865	324.6
509.225	388.43
509.585	472.69
509.945	457.37
510.304	401.2
510.664	444.61
511.024	413.97
511.383	416.52
511.743	362.9
512.102	406.31
512.462	426.73
512.821	436.95
513.18	383.33
513.539	350.13
513.899	362.9
514.258	408.86
514.617	368.01
514.976	436.95
515.335	385.88
515.694	385.88
516.053	449.71
516.412	322.04
516.771	393.54
517.129	413.97
517.488	429.29
517.847	388.43
518.205	390.99
518.564	385.88
518.922	339.92
519.281	373.11
519.639	408.86
519.998	401.2
520.356	439.5
520.714	390.99
521.073	421.63
521.431	352.69
521.789	390.99
522.147	362.9
522.505	411.41
522.863	339.92
523.221	375.67
523.579	345.03
523.937	375.67
524.295	370.56
524.652	442.05
525.01	322.04
525.368	434.39
525.725	403.75
526.083	365.45
526.44	355.24
526.798	370.56
527.155	477.8
527.513	457.37
527.87	357.79
528.227	373.11
528.584	380.77
528.942	347.58
529.299	352.69
529.656	439.5
530.013	436.95
530.37	345.03
530.727	408.86
531.083	390.99
531.44	413.97
531.797	383.33
532.154	403.75
532.511	393.54
532.867	380.77
533.224	345.03
533.58	447.16
533.937	442.05
534.293	411.41
534.65	385.88
535.006	378.22
535.362	378.22
535.718	339.92
536.075	329.7
536.431	362.9
536.787	286.3
537.143	337.37
537.499	329.7
537.855	385.88
538.211	350.13
538.567	388.43
538.923	383.33
539.278	350.13
539.634	373.11
539.99	365.45
540.345	398.65
540.701	396.09
541.056	452.27
541.412	401.2
541.767	398.65
542.123	393.54
542.478	429.29
542.833	350.13
543.188	319.49
543.544	373.11
543.899	452.27
544.254	403.75
544.609	411.41
544.964	442.05
545.319	396.09
545.674	355.24
546.029	390.99
546.383	401.2
546.738	411.41
547.093	408.86
547.447	362.9
547.802	421.63
548.157	390.99
548.511	390.99
548.866	393.54
549.22	411.41
549.574	396.09
549.929	355.24
550.283	380.77
550.637	329.7
550.991	385.88
551.345	454.82
551.699	368.01
552.053	426.73
552.407	355.24
552.761	388.43
553.115	390.99
553.469	413.97
553.823	429.29
554.176	352.69
554.53	475.25
554.884	370.56
555.237	692.28
555.591	429.29
555.944	452.27
556.298	467.59
556.651	365.45
557.005	419.07
557.358	465.03
557.711	411.41
558.064	316.94
558.417	362.9
558.771	510.99
559.124	385.88
559.477	370.56
559.83	398.65
560.182	278.64
560.535	419.07
560.888	465.03
561.241	431.84
561.594	368.01
561.946	396.09
562.299	378.22
562.651	390.99
563.004	401.2
563.356	322.04
563.709	296.51
564.061	388.43
564.413	365.45
564.766	380.77
565.118	350.13
565.47	373.11
565.822	439.5
566.174	449.71
566.526	380.77
566.878	365.45
567.23	396.09
567.582	419.07
567.934	424.18
568.286	370.56
568.638	413.97
568.989	419.07
569.341	408.86
569.693	431.84
570.044	421.63
570.396	390.99
570.747	413.97
571.098	403.75
571.45	442.05
571.801	431.84
572.152	411.41
572.504	411.41
572.855	401.2
573.206	390.99
573.557	360.35
573.908	390.99
574.259	436.95
574.61	375.67
574.961	375.67
575.311	462.48
575.662	411.41
576.013	362.9
576.364	352.69
576.714	383.33
577.065	421.63
577.415	365.45
577.766	411.41
578.116	339.92
578.467	416.52
578.817	385.88
579.167	439.5
579.518	416.52
579.868	396.09
580.218	368.01
580.568	470.14
580.918	439.5
581.268	408.86
581.618	480.35
581.968	465.03
582.318	362.9
582.668	373.11
583.017	424.18
583.367	434.39
583.717	421.63
584.066	436.95
584.416	355.24
584.765	375.67
585.115	390.99
585.464	406.31
585.814	368.01
586.163	398.65
586.512	383.33
586.862	339.92
587.211	408.86
587.56	347.58
587.909	419.07
588.258	375.67
588.607	385.88
588.956	419.07
589.305	327.15
589.654	403.75
590.002	393.54
590.351	383.33
590.7	429.29
591.048	419.07
591.397	345.03
591.746	390.99
592.094	442.05
592.443	444.61
592.791	465.03
593.139	378.22
593.488	426.73
593.836	390.99
594.184	380.77
594.532	350.13
594.88	429.29
595.228	434.39
595.576	309.28
595.924	447.16
596.272	436.95
596.62	439.5
596.968	385.88
597.316	421.63
597.664	403.75
598.011	403.75
598.359	362.9
598.706	332.26
599.054	380.77
599.402	380.77
599.749	380.77
600.096	411.41
600.444	385.88
600.791	411.41
601.138	329.7
601.485	406.31
601.833	360.35
602.18	383.33
602.527	360.35
602.874	334.81
603.221	347.58
603.568	426.73
603.914	442.05
604.261	360.35
604.608	419.07
604.955	383.33
605.301	352.69
605.648	401.2
605.995	375.67
606.341	357.79
606.688	416.52
607.034	457.37
607.38	345.03
607.727	388.43
608.073	413.97
608.419	388.43
608.765	337.37
609.112	368.01
609.458	378.22
609.804	385.88
610.15	393.54
610.496	403.75
610.842	434.39
611.187	434.39
611.533	352.69
611.879	380.77
612.225	385.88
612.57	385.88
612.916	365.45
613.261	401.2
613.607	370.56
613.952	362.9
614.298	413.97
614.643	408.86
614.989	355.24
615.334	345.03
615.679	370.56
616.024	375.67
616.369	429.29
616.714	393.54
617.059	368.01
617.404	355.24
617.749	413.97
618.094	352.69
618.439	401.2
618.784	337.37
619.129	419.07
619.473	375.67
619.818	350.13
620.163	380.77
620.507	373.11
620.852	403.75
621.196	373.11
621.54	401.2
621.885	426.73
622.229	401.2
622.573	360.35
622.918	360.35
623.262	452.27
623.606	429.29
623.95	334.81
624.294	416.52
624.638	416.52
624.982	396.09
625.326	357.79
625.67	352.69
626.013	403.75
626.357	383.33
626.701	383.33
627.044	413.97
627.388	401.2
627.731	401.2
628.075	411.41
628.418	498.23
628.762	345.03
629.105	365.45
629.448	390.99
629.792	457.37
630.135	449.71
630.478	403.75
630.821	408.86
631.164	370.56
631.507	403.75
631.85	342.47
632.193	457.37
632.536	306.72
632.879	385.88
633.221	390.99
633.564	411.41
633.907	444.61
634.249	439.5
634.592	398.65
634.935	385.88
635.277	406.31
635.619	375.67
635.962	352.69
636.304	362.9
636.646	383.33
636.989	403.75
637.331	378.22
637.673	396.09
638.015	365.45
638.357	334.81
638.699	309.28
639.041	337.37
639.383	362.9
639.725	332.26
640.067	434.39
640.408	411.41
640.75	373.11
641.092	350.13
641.433	360.35
641.775	380.77
642.116	299.06
642.458	411.41
642.799	334.81
643.141	416.52
643.482	329.7
643.823	339.92
644.164	329.7
644.506	429.29
644.847	373.11
645.188	339.92
645.529	370.56
645.87	396.09
646.211	352.69
646.552	416.52
646.893	411.41
647.233	447.16
647.574	383.33
647.915	385.88
648.255	459.93
648.596	365.45
648.937	388.43
649.277	396.09
649.618	449.71
649.958	398.65
650.298	403.75
650.639	373.11
650.979	419.07
651.319	465.03
651.659	362.9
651.999	350.13
652.339	385.88
652.679	388.43
653.019	390.99
653.359	329.7
653.699	396.09
654.039	383.33
654.379	413.97
654.719	380.77
655.058	370.56
655.398	373.11
655.737	416.52
656.077	411.41
656.416	406.31
656.756	345.03
657.095	365.45
657.435	368.01
657.774	360.35
658.113	342.47
658.452	368.01
658.792	357.79
659.131	337.37
659.47	390.99
659.809	370.56
660.148	413.97
660.487	408.86
660.826	393.54
661.164	447.16
661.503	436.95
661.842	457.37
662.181	393.54
662.519	334.81
662.858	347.58
663.196	352.69
663.535	439.5
663.873	401.2
664.212	368.01
664.55	424.18
664.888	345.03
665.226	281.19
665.565	299.06
665.903	653.98
666.241	411.41
666.579	393.54
666.917	431.84
667.255	380.77
667.593	342.47
667.931	442.05
668.268	385.88
668.606	401.2
668.944	436.95
669.282	350.13
669.619	390.99
669.957	368.01
670.294	406.31
670.632	408.86
670.969	416.52
671.307	360.35
671.644	434.39
671.981	403.75
672.318	362.9
672.656	362.9
672.993	375.67
673.33	324.6
673.667	314.38
674.004	375.67
674.341	380.77
674.678	378.22
675.015	327.15
675.351	327.15
675.688	383.33
676.025	406.31
676.362	393.54
676.698	403.75
677.035	388.43
677.371	334.81
677.708	393.54
678.044	370.56
678.38	334.81
678.717	393.54
679.053	332.26
679.389	370.56
679.725	365.45
680.062	388.43
680.398	380.77
680.734	390.99
681.07	350.13
681.406	327.15
681.742	342.47
682.077	334.81
682.413	365.45
682.749	350.13
683.085	373.11
683.42	385.88
683.756	454.82
684.091	419.07
684.427	416.52
684.762	411.41
685.098	388.43
685.433	421.63
685.768	347.58
686.104	378.22
686.439	416.52
686.774	413.97
687.109	380.77
687.444	342.47
687.779	378.22
688.114	362.9
688.449	360.35
688.784	401.2
689.119	365.45
689.454	403.75
689.789	375.67
690.123	365.45
690.458	401.2
690.792	378.22
691.127	385.88
691.461	383.33
691.796	378.22
692.13	355.24
692.465	347.58
692.799	403.75
693.133	380.77
693.467	357.79
693.802	373.11
694.136	393.54
694.47	462.48
694.804	390.99
695.138	373.11
695.472	355.24
695.806	365.45
696.139	339.92
696.473	319.49
696.807	345.03
697.141	413.97
697.474	408.86
697.808	375.67
698.141	396.09
698.475	408.86
698.808	304.17
699.142	357.79
699.475	368.01
699.808	342.47
700.142	413.97
700.475	413.97
700.808	398.65
701.141	398.65
701.474	426.73
701.807	380.77
702.14	426.73
702.473	357.79
702.806	403.75
703.139	413.97
703.472	365.45
703.804	444.61
704.137	357.79
704.47	396.09
704.802	380.77
705.135	347.58
705.467	411.41
705.8	388.43
706.132	388.43
706.464	426.73
706.797	357.79
707.129	350.13
707.461	393.54
707.793	413.97
708.125	475.25
708.457	322.04
708.789	370.56
709.121	442.05
709.453	396.09
709.785	385.88
710.117	365.45
710.449	380.77
710.781	345.03
711.112	337.37
711.444	352.69
711.775	357.79
712.107	385.88
712.438	408.86
712.77	352.69
713.101	360.35
713.433	398.65
713.764	362.9
714.095	388.43
714.426	452.27
714.757	380.77
715.089	332.26
715.42	385.88
715.751	439.5
716.082	345.03
716.412	345.03
716.743	370.56
717.074	373.11
717.405	362.9
717.736	332.26
718.066	357.79
718.397	396.09
718.727	426.73
719.058	406.31
719.388	396.09
719.719	403.75
720.049	373.11
720.38	403.75
720.71	398.65
721.04	378.22
721.37	370.56
721.7	339.92
722.031	334.81
722.361	393.54
722.691	424.18
723.021	370.56
723.35	411.41
723.68	429.29
724.01	421.63
724.34	411.41
724.67	442.05
724.999	375.67
725.329	352.69
725.658	319.49
725.988	411.41
726.317	426.73
726.647	408.86
726.976	452.27
727.306	329.7
727.635	401.2
727.964	413.97
728.293	454.82
728.622	436.95
728.952	390.99
729.281	385.88
729.61	396.09
729.939	375.67
730.267	332.26
730.596	385.88
730.925	383.33
731.254	337.37
731.583	388.43
731.911	411.41
732.24	424.18
732.568	355.24
732.897	378.22
733.225	332.26
733.554	421.63
733.882	431.84
734.21	388.43
734.539	342.47
734.867	319.49
735.195	396.09
735.523	416.52
735.851	332.26
736.179	416.52
736.507	360.35
736.835	388.43
737.163	393.54
737.491	421.63
737.819	347.58
738.147	380.77
738.474	373.11
738.802	457.37
739.13	345.03
739.457	424.18
739.785	447.16
740.112	350.13
740.44	378.22
740.767	424.18
741.094	401.2
741.422	362.9
741.749	345.03
742.076	347.58
742.403	365.45
742.73	309.28
743.057	365.45
743.384	368.01
743.711	393.54
744.038	393.54
744.365	442.05
744.692	398.65
745.018	429.29
745.345	406.31
745.672	406.31
745.998	365.45
746.325	383.33
746.651	347.58
746.978	388.43
747.304	403.75
747.631	413.97
747.957	401.2
748.283	408.86
748.61	373.11
748.936	360.35
749.262	401.2
749.588	360.35
749.914	424.18
750.24	385.88
750.566	365.45
750.892	396.09
751.218	401.2
751.543	401.2
751.869	332.26
752.195	424.18
752.521	342.47
752.846	396.09
753.172	477.8
753.497	360.35
753.823	355.24
754.148	396.09
754.473	368.01
754.799	383.33
755.124	380.77
755.449	424.18
755.774	429.29
756.1	408.86
756.425	278.64
756.75	416.52
757.075	416.52
757.4	516.1
757.724	413.97
758.049	411.41
758.374	373.11
758.699	485.46
759.024	442.05
759.348	447.16
759.673	396.09
759.997	319.49
760.322	339.92
760.646	355.24
760.971	388.43
761.295	419.07
761.619	421.63
761.944	462.48
762.268	383.33
762.592	526.32
762.916	465.03
763.24	503.33
763.564	477.8
763.888	508.44
764.212	539.08
764.536	518.65
764.86	533.98
765.184	618.24
765.508	602.92
765.831	633.56
766.155	899.11
766.478	779.1
766.802	697.39
767.126	817.4
767.449	863.36
767.772	1031.88
768.096	983.37
768.419	932.3
768.742	945.07
769.066	1034.44
769.389	1139.13
769.712	1131.47
770.035	1151.89
770.358	1182.53
770.681	1218.28
771.004	1320.42
771.327	1353.61
771.65	1389.36
771.972	1404.68
772.295	1575.75
772.618	1601.29
772.941	1534.9
773.263	1598.73
773.586	1677.89
773.908	1831.09
774.231	1889.82
774.553	1968.97
774.875	2076.22
775.198	2137.5
775.52	2030.25
775.842	1976.63
776.164	2043.02
776.487	2091.54
776.809	2066
777.131	2099.2
777.453	2157.92
777.775	2099.2
778.096	2231.97
778.418	2260.06
778.74	2127.28
779.062	2224.31
779.384	2418.37
779.705	2775.84
780.027	2898.4
780.348	2806.48
780.67	2793.71
780.991	3023.52
781.313	3324.82
781.634	3488.23
781.955	3146.08
782.277	3046.5
782.598	3095.01
782.919	3215.02
783.24	3148.63
783.561	3319.71
783.882	3102.67
784.203	3151.19
784.524	3171.61
784.845	3041.39
785.166	2798.82
785.487	2900.96
785.807	2847.34
786.128	2760.52
786.449	2803.93
786.769	2957.13
787.09	3095.01
787.41	3105.23
787.731	3587.82
788.051	3705.27
788.372	3822.73
788.692	4167.43
789.012	4116.36
789.332	4144.45
789.653	4284.89
789.973	4522.35
790.293	4381.92
790.613	3881.45
790.933	3656.76
791.253	3552.07
791.573	3437.17
791.893	3105.23
792.212	3069.48
792.532	2946.92
792.852	2768.18
793.171	2852.44
793.491	2834.57
793.811	2791.16
794.13	2729.88
794.45	2660.94
794.769	2745.2
795.088	2939.26
795.408	2913.72
795.727	3128.21
796.046	3082.25
796.365	2865.21
796.684	2701.79
797.004	2653.28
797.323	2724.77
797.642	3069.48
797.96	3082.25
798.279	3102.67
798.598	2967.34
798.917	2839.68
799.236	2617.53
799.554	2461.78
