Data from 2025-12-03_xpw_interference_micrometer_634_reference_FLMS141361__162__412.txt Node

Date: Wed Dec 03 15:51:29 MST 2025
User: james
Spectrometer: FLMS14136
Trigger mode: 0
Integration Time (sec): 1.000000E-1
Scans to average: 1
Electric dark correction enabled: true
Nonlinearity correction enabled: false
Boxcar width: 0
XAxis mode: Wavelengths
Number of Pixels in Spectrum: 2048
>>>>>Begin Spectral Data<<<<<
339.315	-66.87
339.697	-66.87
340.079	-66.87
340.461	-125.59
340.843	-64.31
341.225	-61.76
341.607	-140.91
341.989	-100.06
342.371	-66.87
342.752	-102.61
343.134	-38.78
343.516	-54.1
343.897	-28.57
344.279	55.7
344.661	32.72
345.042	37.82
345.423	-0.48
345.805	73.57
346.186	111.87
346.567	124.64
346.949	157.83
347.33	170.6
347.711	221.67
348.092	257.41
348.473	247.2
348.854	254.86
349.235	157.83
349.616	275.29
349.997	323.8
350.378	282.95
350.758	364.65
351.139	336.57
351.52	308.48
351.9	387.63
352.281	305.93
352.661	362.1
353.042	354.44
353.422	374.87
353.803	436.15
354.183	420.83
354.563	382.53
354.943	377.42
355.324	341.67
355.704	341.67
356.084	374.87
356.464	331.46
356.844	385.08
357.224	413.17
357.603	443.81
357.983	356.99
358.363	423.38
358.743	346.78
359.122	433.6
359.502	402.95
359.882	395.29
360.261	443.81
360.641	349.33
361.02	372.31
361.399	362.1
361.779	290.61
362.158	305.93
362.537	272.73
362.916	305.93
363.296	372.31
363.675	454.02
364.054	390.19
364.433	382.53
364.812	267.63
365.19	295.71
365.569	367.21
365.948	308.48
366.327	351.89
366.705	318.69
367.084	313.59
367.463	374.87
367.841	379.97
368.22	362.1
368.598	339.12
368.977	351.89
369.355	285.5
369.733	349.33
370.111	362.1
370.49	344.23
370.868	387.63
371.246	303.37
371.624	385.08
372.002	346.78
372.38	408.06
372.758	369.76
373.136	341.67
373.513	346.78
373.891	395.29
374.269	339.12
374.646	395.29
375.024	316.14
375.402	354.44
375.779	367.21
376.157	339.12
376.534	346.78
376.911	415.72
377.289	413.17
377.666	344.23
378.043	267.63
378.42	410.62
378.797	341.67
379.175	387.63
379.552	428.49
379.929	441.26
380.305	431.04
380.682	351.89
381.059	364.65
381.436	364.65
381.813	308.48
382.189	374.87
382.566	351.89
382.943	280.39
383.319	341.67
383.696	374.87
384.072	402.95
384.448	448.92
384.825	341.67
385.201	392.74
385.577	382.53
385.953	372.31
386.329	385.08
386.706	413.17
387.082	397.85
387.458	346.78
387.834	305.93
388.209	392.74
388.585	336.57
388.961	425.94
389.337	323.8
389.713	395.29
390.088	351.89
390.464	298.27
390.839	336.57
391.215	321.25
391.59	326.35
391.966	428.49
392.341	369.76
392.716	344.23
393.092	397.85
393.467	410.62
393.842	405.51
394.217	369.76
394.592	397.85
394.967	379.97
395.342	446.36
395.717	311.03
396.092	385.08
396.467	415.72
396.841	369.76
397.216	423.38
397.591	408.06
397.965	423.38
398.34	336.57
398.714	395.29
399.089	259.97
399.463	349.33
399.838	356.99
400.212	420.83
400.586	372.31
400.961	423.38
401.335	410.62
401.709	369.76
402.083	390.19
402.457	387.63
402.831	387.63
403.205	395.29
403.579	415.72
403.953	395.29
404.326	364.65
404.7	359.55
405.074	331.46
405.447	356.99
405.821	341.67
406.195	464.24
406.568	385.08
406.942	443.81
407.315	379.97
407.688	397.85
408.062	351.89
408.435	382.53
408.808	382.53
409.181	374.87
409.554	328.91
409.927	382.53
410.3	402.95
410.673	346.78
411.046	326.35
411.419	385.08
411.792	341.67
412.165	392.74
412.537	349.33
412.91	344.23
413.283	377.42
413.655	402.95
414.028	402.95
414.4	359.55
414.773	392.74
415.145	339.12
415.517	402.95
415.889	372.31
416.262	298.27
416.634	413.17
417.006	385.08
417.378	336.57
417.75	382.53
418.122	379.97
418.494	356.99
418.866	408.06
419.238	385.08
419.609	448.92
419.981	354.44
420.353	374.87
420.725	364.65
421.096	438.7
421.468	415.72
421.839	402.95
422.211	397.85
422.582	387.63
422.953	420.83
423.325	351.89
423.696	351.89
424.067	379.97
424.438	349.33
424.809	369.76
425.18	356.99
425.551	367.21
425.922	369.76
426.293	303.37
426.664	308.48
427.035	477
427.406	405.51
427.776	420.83
428.147	413.17
428.518	400.4
428.888	372.31
429.259	402.95
429.629	390.19
429.999	408.06
430.37	369.76
430.74	341.67
431.11	341.67
431.481	354.44
431.851	385.08
432.221	359.55
432.591	413.17
432.961	402.95
433.331	336.57
433.701	326.35
434.071	410.62
434.441	443.81
434.81	408.06
435.18	446.36
435.55	410.62
435.919	359.55
436.289	367.21
436.658	405.51
437.028	443.81
437.397	400.4
437.767	410.62
438.136	374.87
438.505	392.74
438.875	372.31
439.244	395.29
439.613	364.65
439.982	418.28
440.351	392.74
440.72	377.42
441.089	459.13
441.458	397.85
441.827	374.87
442.196	331.46
442.564	425.94
442.933	359.55
443.302	395.29
443.67	351.89
444.039	408.06
444.407	372.31
444.776	477
445.144	454.02
445.513	448.92
445.881	395.29
446.249	356.99
446.617	362.1
446.986	423.38
447.354	410.62
447.722	418.28
448.09	405.51
448.458	336.57
448.826	443.81
449.194	410.62
449.561	405.51
449.929	433.6
450.297	395.29
450.665	443.81
451.032	374.87
451.4	377.42
451.767	387.63
452.135	408.06
452.502	367.21
452.87	428.49
453.237	395.29
453.604	385.08
453.971	379.97
454.339	456.58
454.706	456.58
455.073	428.49
455.44	459.13
455.807	395.29
456.174	448.92
456.541	367.21
456.908	374.87
457.274	374.87
457.641	382.53
458.008	369.76
458.374	405.51
458.741	428.49
459.108	428.49
459.474	372.31
459.841	334.01
460.207	443.81
460.573	390.19
460.94	441.26
461.306	433.6
461.672	443.81
462.038	367.21
462.404	400.4
462.771	349.33
463.137	326.35
463.503	423.38
463.868	431.04
464.234	349.33
464.6	369.76
464.966	390.19
465.332	372.31
465.697	425.94
466.063	374.87
466.429	379.97
466.794	446.36
467.16	377.42
467.525	438.7
467.89	464.24
468.256	374.87
468.621	474.45
468.986	344.23
469.351	390.19
469.717	423.38
470.082	326.35
470.447	341.67
470.812	464.24
471.177	400.4
471.542	443.81
471.906	410.62
472.271	336.57
472.636	423.38
473.001	420.83
473.365	392.74
473.73	374.87
474.094	395.29
474.459	351.89
474.823	369.76
475.188	382.53
475.552	326.35
475.917	387.63
476.281	433.6
476.645	262.52
477.009	408.06
477.373	334.01
477.737	390.19
478.101	382.53
478.465	474.45
478.829	471.9
479.193	469.34
479.557	451.47
479.921	402.95
480.284	397.85
480.648	390.19
481.012	410.62
481.375	425.94
481.739	356.99
482.102	334.01
482.466	390.19
482.829	436.15
483.193	367.21
483.556	334.01
483.919	367.21
484.282	492.32
484.645	413.17
485.009	420.83
485.372	397.85
485.735	456.58
486.098	395.29
486.46	448.92
486.823	349.33
487.186	415.72
487.549	362.1
487.912	382.53
488.274	359.55
488.637	359.55
488.999	423.38
489.362	362.1
489.724	438.7
490.087	374.87
490.449	374.87
490.811	382.53
491.174	382.53
491.536	395.29
491.898	423.38
492.26	397.85
492.622	316.14
492.984	367.21
493.346	438.7
493.708	387.63
494.07	354.44
494.432	379.97
494.794	395.29
495.155	431.04
495.517	374.87
495.879	372.31
496.24	415.72
496.602	443.81
496.963	400.4
497.325	423.38
497.686	346.78
498.048	397.85
498.409	428.49
498.77	374.87
499.131	397.85
499.492	379.97
499.854	420.83
500.215	425.94
500.576	362.1
500.937	354.44
501.298	400.4
501.658	369.76
502.019	362.1
502.38	418.28
502.741	413.17
503.101	425.94
503.462	354.44
503.823	418.28
504.183	354.44
504.543	387.63
504.904	423.38
505.264	377.42
505.625	415.72
505.985	397.85
506.345	364.65
506.705	372.31
507.065	359.55
507.426	387.63
507.786	456.58
508.146	372.31
508.505	474.45
508.865	446.36
509.225	354.44
509.585	474.45
509.945	397.85
510.304	418.28
510.664	413.17
511.024	397.85
511.383	413.17
511.743	354.44
512.102	400.4
512.462	454.02
512.821	374.87
513.18	321.25
513.539	413.17
513.899	415.72
514.258	423.38
514.617	408.06
514.976	408.06
515.335	443.81
515.694	408.06
516.053	402.95
516.412	446.36
516.771	369.76
517.129	408.06
517.488	420.83
517.847	413.17
518.205	443.81
518.564	410.62
518.922	431.04
519.281	446.36
519.639	397.85
519.998	377.42
520.356	400.4
520.714	451.47
521.073	372.31
521.431	461.68
521.789	410.62
522.147	359.55
522.505	446.36
522.863	392.74
523.221	400.4
523.579	410.62
523.937	405.51
524.295	418.28
524.652	448.92
525.01	446.36
525.368	436.15
525.725	423.38
526.083	405.51
526.44	369.76
526.798	433.6
527.155	459.13
527.513	448.92
527.87	428.49
528.227	425.94
528.584	397.85
528.942	395.29
529.299	451.47
529.656	431.04
530.013	413.17
530.37	374.87
530.727	402.95
531.083	431.04
531.44	364.65
531.797	387.63
532.154	469.34
532.511	459.13
532.867	451.47
533.224	423.38
533.58	385.08
533.937	410.62
534.293	385.08
534.65	369.76
535.006	433.6
535.362	397.85
535.718	405.51
536.075	372.31
536.431	359.55
536.787	423.38
537.143	466.79
537.499	397.85
537.855	408.06
538.211	415.72
538.567	433.6
538.923	454.02
539.278	369.76
539.634	466.79
539.99	448.92
540.345	402.95
540.701	397.85
541.056	374.87
541.412	413.17
541.767	410.62
542.123	387.63
542.478	385.08
542.833	382.53
543.188	392.74
543.544	334.01
543.899	379.97
544.254	459.13
544.609	367.21
544.964	377.42
545.319	418.28
545.674	395.29
546.029	390.19
546.383	364.65
546.738	415.72
547.093	354.44
547.447	387.63
547.802	374.87
548.157	392.74
548.511	392.74
548.866	402.95
549.22	328.91
549.574	346.78
549.929	372.31
550.283	377.42
550.637	423.38
550.991	415.72
551.345	390.19
551.699	351.89
552.053	385.08
552.407	433.6
552.761	387.63
553.115	451.47
553.469	382.53
553.823	428.49
554.176	454.02
554.53	369.76
554.884	374.87
555.237	637.87
555.591	451.47
555.944	387.63
556.298	466.79
556.651	428.49
557.005	402.95
557.358	405.51
557.711	400.4
558.064	387.63
558.417	374.87
558.771	479.56
559.124	459.13
559.477	359.55
559.83	369.76
560.182	413.17
560.535	466.79
560.888	385.08
561.241	390.19
561.594	410.62
561.946	382.53
562.299	433.6
562.651	382.53
563.004	359.55
563.356	349.33
563.709	392.74
564.061	387.63
564.413	459.13
564.766	374.87
565.118	390.19
565.47	448.92
565.822	415.72
566.174	369.76
566.526	305.93
566.878	359.55
567.23	334.01
567.582	387.63
567.934	364.65
568.286	405.51
568.638	385.08
568.989	433.6
569.341	446.36
569.693	397.85
570.044	423.38
570.396	392.74
570.747	331.46
571.098	351.89
571.45	431.04
571.801	387.63
572.152	397.85
572.504	367.21
572.855	438.7
573.206	461.68
573.557	461.68
573.908	451.47
574.259	390.19
574.61	405.51
574.961	395.29
575.311	359.55
575.662	385.08
576.013	420.83
576.364	464.24
576.714	346.78
577.065	359.55
577.415	351.89
577.766	410.62
578.116	377.42
578.467	385.08
578.817	451.47
579.167	433.6
579.518	374.87
579.868	446.36
580.218	397.85
580.568	461.68
580.918	418.28
581.268	377.42
581.618	377.42
581.968	369.76
582.318	364.65
582.668	293.16
583.017	369.76
583.367	451.47
583.717	405.51
584.066	382.53
584.416	402.95
584.765	400.4
585.115	400.4
585.464	346.78
585.814	377.42
586.163	418.28
586.512	379.97
586.862	405.51
587.211	359.55
587.56	395.29
587.909	374.87
588.258	425.94
588.607	372.31
588.956	400.4
589.305	356.99
589.654	408.06
590.002	392.74
590.351	341.67
590.7	390.19
591.048	364.65
591.397	420.83
591.746	382.53
592.094	413.17
592.443	344.23
592.791	372.31
593.139	364.65
593.488	418.28
593.836	356.99
594.184	408.06
594.532	413.17
594.88	408.06
595.228	374.87
595.576	359.55
595.924	405.51
596.272	397.85
596.62	374.87
596.968	372.31
597.316	415.72
597.664	423.38
598.011	456.58
598.359	459.13
598.706	387.63
599.054	402.95
599.402	392.74
599.749	408.06
600.096	425.94
600.444	400.4
600.791	448.92
601.138	423.38
601.485	395.29
601.833	423.38
602.18	425.94
602.527	420.83
602.874	392.74
603.221	433.6
603.568	402.95
603.914	392.74
604.261	395.29
604.608	346.78
604.955	413.17
605.301	397.85
605.648	520.41
605.995	331.46
606.341	313.59
606.688	438.7
607.034	385.08
607.38	390.19
607.727	438.7
608.073	413.17
608.419	379.97
608.765	438.7
609.112	395.29
609.458	415.72
609.804	438.7
610.15	385.08
610.496	431.04
610.842	397.85
611.187	362.1
611.533	390.19
611.879	397.85
612.225	425.94
612.57	400.4
612.916	392.74
613.261	420.83
613.607	451.47
613.952	423.38
614.298	400.4
614.643	408.06
614.989	385.08
615.334	359.55
615.679	316.14
616.024	390.19
616.369	410.62
616.714	367.21
617.059	374.87
617.404	410.62
617.749	308.48
618.094	344.23
618.439	339.12
618.784	408.06
619.129	328.91
619.473	359.55
619.818	408.06
620.163	441.26
620.507	354.44
620.852	405.51
621.196	359.55
621.54	400.4
621.885	431.04
622.229	408.06
622.573	408.06
622.918	390.19
623.262	400.4
623.606	374.87
623.95	410.62
624.294	379.97
624.638	415.72
624.982	369.76
625.326	295.71
625.67	339.12
626.013	369.76
626.357	367.21
626.701	405.51
627.044	390.19
627.388	390.19
627.731	431.04
628.075	425.94
628.418	443.81
628.762	431.04
629.105	425.94
629.448	385.08
629.792	367.21
630.135	295.71
630.478	369.76
630.821	397.85
631.164	433.6
631.507	451.47
631.85	451.47
632.193	410.62
632.536	400.4
632.879	438.7
633.221	415.72
633.564	461.68
633.907	400.4
634.249	385.08
634.592	400.4
634.935	448.92
635.277	425.94
635.619	374.87
635.962	423.38
636.304	390.19
636.646	410.62
636.989	428.49
637.331	356.99
637.673	413.17
638.015	436.15
638.357	431.04
638.699	446.36
639.041	410.62
639.383	367.21
639.725	362.1
640.067	410.62
640.408	397.85
640.75	405.51
641.092	441.26
641.433	408.06
641.775	420.83
642.116	420.83
642.458	459.13
642.799	400.4
643.141	364.65
643.482	395.29
643.823	385.08
644.164	364.65
644.506	466.79
644.847	428.49
645.188	372.31
645.529	423.38
645.87	479.56
646.211	387.63
646.552	405.51
646.893	438.7
647.233	367.21
647.574	339.12
647.915	349.33
648.255	377.42
648.596	369.76
648.937	318.69
649.277	354.44
649.618	369.76
649.958	390.19
650.298	441.26
650.639	344.23
650.979	423.38
651.319	395.29
651.659	359.55
651.999	339.12
652.339	382.53
652.679	367.21
653.019	377.42
653.359	390.19
653.699	446.36
654.039	408.06
654.379	318.69
654.719	369.76
655.058	323.8
655.398	387.63
655.737	441.26
656.077	431.04
656.416	420.83
656.756	423.38
657.095	369.76
657.435	420.83
657.774	374.87
658.113	323.8
658.452	362.1
658.792	405.51
659.131	313.59
659.47	351.89
659.809	418.28
660.148	438.7
660.487	469.34
660.826	351.89
661.164	413.17
661.503	410.62
661.842	400.4
662.181	405.51
662.519	362.1
662.858	377.42
663.196	308.48
663.535	415.72
663.873	326.35
664.212	382.53
664.55	431.04
664.888	339.12
665.226	387.63
665.565	385.08
665.903	545.94
666.241	420.83
666.579	349.33
666.917	390.19
667.255	392.74
667.593	351.89
667.931	466.79
668.268	385.08
668.606	425.94
668.944	387.63
669.282	372.31
669.619	367.21
669.957	392.74
670.294	418.28
670.632	385.08
670.969	377.42
671.307	369.76
671.644	372.31
671.981	446.36
672.318	397.85
672.656	415.72
672.993	415.72
673.33	402.95
673.667	377.42
674.004	405.51
674.341	433.6
674.678	351.89
675.015	382.53
675.351	415.72
675.688	418.28
676.025	377.42
676.362	464.24
676.698	356.99
677.035	454.02
677.371	354.44
677.708	395.29
678.044	362.1
678.38	385.08
678.717	346.78
679.053	346.78
679.389	372.31
679.725	438.7
680.062	397.85
680.398	328.91
680.734	385.08
681.07	331.46
681.406	390.19
681.742	451.47
682.077	415.72
682.413	418.28
682.749	367.21
683.085	395.29
683.42	436.15
683.756	367.21
684.091	339.12
684.427	364.65
684.762	377.42
685.098	433.6
685.433	441.26
685.768	471.9
686.104	423.38
686.439	374.87
686.774	397.85
687.109	431.04
687.444	390.19
687.779	423.38
688.114	382.53
688.449	374.87
688.784	339.12
689.119	385.08
689.454	377.42
689.789	367.21
690.123	346.78
690.458	339.12
690.792	372.31
691.127	420.83
691.461	395.29
691.796	359.55
692.13	410.62
692.465	454.02
692.799	405.51
693.133	408.06
693.467	379.97
693.802	374.87
694.136	356.99
694.47	382.53
694.804	385.08
695.138	436.15
695.472	433.6
695.806	364.65
696.139	341.67
696.473	459.13
696.807	423.38
697.141	387.63
697.474	392.74
697.808	428.49
698.141	425.94
698.475	448.92
698.808	374.87
699.142	392.74
699.475	339.12
699.808	448.92
700.142	436.15
700.475	397.85
700.808	402.95
701.141	410.62
701.474	339.12
701.807	351.89
702.14	308.48
702.473	382.53
702.806	400.4
703.139	349.33
703.472	356.99
703.804	374.87
704.137	428.49
704.47	405.51
704.802	415.72
705.135	425.94
705.467	423.38
705.8	405.51
706.132	362.1
706.464	408.06
706.797	428.49
707.129	311.03
707.461	387.63
707.793	428.49
708.125	425.94
708.457	425.94
708.789	377.42
709.121	431.04
709.453	379.97
709.785	382.53
710.117	362.1
710.449	451.47
710.781	405.51
711.112	395.29
711.444	367.21
711.775	443.81
712.107	390.19
712.438	402.95
712.77	356.99
713.101	369.76
713.433	418.28
713.764	405.51
714.095	382.53
714.426	379.97
714.757	369.76
715.089	359.55
715.42	469.34
715.751	433.6
716.082	369.76
716.412	344.23
716.743	425.94
717.074	364.65
717.405	372.31
717.736	359.55
718.066	387.63
718.397	428.49
718.727	448.92
719.058	428.49
719.388	374.87
719.719	385.08
720.049	446.36
720.38	441.26
720.71	354.44
721.04	413.17
721.37	321.25
721.7	387.63
722.031	415.72
722.361	351.89
722.691	367.21
723.021	433.6
723.35	400.4
723.68	402.95
724.01	418.28
724.34	405.51
724.67	408.06
724.999	415.72
725.329	454.02
725.658	456.58
725.988	428.49
726.317	339.12
726.647	372.31
726.976	402.95
727.306	341.67
727.635	374.87
727.964	400.4
728.293	397.85
728.622	443.81
728.952	280.39
729.281	428.49
729.61	431.04
729.939	359.55
730.267	418.28
730.596	433.6
730.925	364.65
731.254	415.72
731.583	466.79
731.911	374.87
732.24	372.31
732.568	387.63
732.897	413.17
733.225	362.1
733.554	331.46
733.882	336.57
734.21	405.51
734.539	372.31
734.867	418.28
735.195	443.81
735.523	385.08
735.851	397.85
736.179	311.03
736.507	390.19
736.835	402.95
737.163	402.95
737.491	369.76
737.819	392.74
738.147	374.87
738.474	341.67
738.802	377.42
739.13	400.4
739.457	428.49
739.785	362.1
740.112	387.63
740.44	369.76
740.767	385.08
741.094	344.23
741.422	397.85
741.749	410.62
742.076	379.97
742.403	367.21
742.73	438.7
743.057	339.12
743.384	379.97
743.711	415.72
744.038	425.94
744.365	482.11
744.692	349.33
745.018	277.84
745.345	377.42
745.672	372.31
745.998	395.29
746.325	415.72
746.651	374.87
746.978	425.94
747.304	387.63
747.631	367.21
747.957	387.63
748.283	413.17
748.61	448.92
748.936	374.87
749.262	385.08
749.588	441.26
749.914	408.06
750.24	410.62
750.566	377.42
750.892	433.6
751.218	415.72
751.543	441.26
751.869	374.87
752.195	405.51
752.521	438.7
752.846	382.53
753.172	415.72
753.497	351.89
753.823	397.85
754.148	451.47
754.473	413.17
754.799	351.89
755.124	464.24
755.449	354.44
755.774	339.12
756.1	382.53
756.425	346.78
756.75	397.85
757.075	351.89
757.4	517.86
757.724	397.85
758.049	446.36
758.374	334.01
758.699	397.85
759.024	367.21
759.348	410.62
759.673	438.7
759.997	387.63
760.322	400.4
760.646	415.72
760.971	466.79
761.295	415.72
761.619	441.26
761.944	405.51
762.268	423.38
762.592	428.49
762.916	454.02
763.24	441.26
763.564	423.38
763.888	469.34
764.212	482.11
764.536	566.37
764.86	574.03
765.184	694.04
765.508	655.74
765.831	594.46
766.155	821.71
766.478	722.13
766.802	655.74
767.126	747.66
767.449	849.8
767.772	934.06
768.096	923.84
768.419	967.25
768.742	946.82
769.066	1033.64
769.389	1041.3
769.712	990.23
770.035	1092.37
770.358	1117.9
770.681	1202.16
771.004	1120.45
771.327	1186.84
771.65	1299.19
771.972	1296.64
772.295	1368.13
772.618	1352.81
772.941	1421.75
773.263	1416.65
773.586	1426.86
773.908	1534.1
774.231	1679.64
774.553	1825.19
774.875	1781.78
775.198	1883.91
775.52	1794.55
775.842	1725.6
776.164	1720.5
776.487	1914.55
776.809	1822.63
777.131	1776.67
777.453	1876.25
777.775	1781.78
778.096	1934.98
778.418	2037.12
778.74	1927.32
779.062	2016.69
779.384	2113.72
779.705	2363.95
780.027	2695.89
780.348	2537.58
780.67	2552.9
780.991	2647.37
781.313	2900.16
781.634	2994.63
781.955	2803.13
782.277	2667.8
782.598	2810.79
782.919	2744.4
783.24	2739.3
783.561	2879.73
783.882	2785.26
784.203	2754.62
784.524	2818.45
784.845	2678.01
785.166	2570.77
785.487	2603.97
785.807	2563.11
786.128	2555.45
786.449	2550.35
786.769	2460.98
787.09	2723.98
787.41	2887.39
787.731	3030.38
788.051	3237.2
788.372	3336.79
788.692	3594.68
789.012	3691.71
789.332	3625.32
789.653	3852.57
789.973	4044.07
790.293	3791.29
790.613	3298.49
790.933	3188.69
791.253	3101.88
791.573	2861.86
791.893	2713.76
792.212	2586.09
792.532	2667.8
792.852	2552.9
793.171	2458.42
793.491	2323.1
793.811	2320.54
794.13	2407.36
794.45	2351.18
794.769	2363.95
795.088	2476.3
795.408	2657.59
795.727	2772.49
796.046	2611.63
796.365	2506.94
796.684	2491.62
797.004	2397.14
797.323	2522.26
797.642	2736.74
797.96	2818.45
798.279	2683.12
798.598	2634.61
798.917	2550.35
799.236	2417.57
799.554	2218.41
