Data from 2025-12-03_xpw_interference_micrometer_634_reference_FLMS141361__189__439.txt Node

Date: Wed Dec 03 15:51:31 MST 2025
User: james
Spectrometer: FLMS14136
Trigger mode: 0
Integration Time (sec): 1.000000E-1
Scans to average: 1
Electric dark correction enabled: true
Nonlinearity correction enabled: false
Boxcar width: 0
XAxis mode: Wavelengths
Number of Pixels in Spectrum: 2048
>>>>>Begin Spectral Data<<<<<
339.315	-59.69
339.697	-59.69
340.079	-59.69
340.461	-80.11
340.843	-115.86
341.225	-31.6
341.607	-149.05
341.989	-82.67
342.371	-62.24
342.752	-100.54
343.134	-31.6
343.516	-54.58
343.897	-21.38
344.279	-11.17
344.661	29.68
345.042	65.43
345.423	27.13
345.805	55.22
346.186	85.86
346.567	142.03
346.949	139.48
347.33	165.01
347.711	170.12
348.092	195.65
348.473	244.17
348.854	251.83
349.235	315.66
349.616	272.25
349.997	233.95
350.378	295.23
350.758	282.47
351.139	285.02
351.52	353.96
351.9	356.52
352.281	341.2
352.661	384.6
353.042	366.73
353.422	399.92
353.803	438.22
354.183	359.07
354.563	384.6
354.943	387.16
355.324	351.41
355.704	407.58
356.084	397.37
356.464	430.56
356.844	433.12
357.224	384.6
357.603	320.77
357.983	417.8
358.363	407.58
358.743	405.03
359.122	384.6
359.502	435.67
359.882	397.37
360.261	376.94
360.641	359.07
361.02	415.24
361.399	394.82
361.779	387.16
362.158	407.58
362.537	392.26
362.916	410.14
363.296	333.54
363.675	356.52
364.054	407.58
364.433	353.96
364.812	336.09
365.19	297.79
365.569	336.09
365.948	356.52
366.327	328.43
366.705	295.23
367.084	351.41
367.463	356.52
367.841	366.73
368.22	376.94
368.598	407.58
368.977	267.15
369.355	356.52
369.733	387.16
370.111	382.05
370.49	336.09
370.868	300.34
371.246	382.05
371.624	346.3
372.002	399.92
372.38	341.2
372.758	323.32
373.136	343.75
373.513	412.69
373.891	315.66
374.269	384.6
374.646	333.54
375.024	353.96
375.402	369.28
375.779	320.77
376.157	343.75
376.534	328.43
376.911	384.6
377.289	371.84
377.666	384.6
378.043	374.39
378.42	356.52
378.797	384.6
379.175	338.64
379.552	374.39
379.929	384.6
380.305	336.09
380.682	262.04
381.059	336.09
381.436	410.14
381.813	364.18
382.189	336.09
382.566	333.54
382.943	402.48
383.319	346.3
383.696	328.43
384.072	330.98
384.448	353.96
384.825	415.24
385.201	361.62
385.577	341.2
385.953	379.5
386.329	405.03
386.706	338.64
387.082	384.6
387.458	338.64
387.834	305.45
388.209	364.18
388.585	290.13
388.961	323.32
389.337	417.8
389.713	392.26
390.088	394.82
390.464	374.39
390.839	359.07
391.215	433.12
391.59	343.75
391.966	379.5
392.341	333.54
392.716	397.37
393.092	348.86
393.467	343.75
393.842	371.84
394.217	389.71
394.592	330.98
394.967	315.66
395.342	369.28
395.717	359.07
396.092	371.84
396.467	353.96
396.841	366.73
397.216	356.52
397.591	346.3
397.965	394.82
398.34	435.67
398.714	315.66
399.089	376.94
399.463	453.54
399.838	445.88
400.212	364.18
400.586	412.69
400.961	387.16
401.335	384.6
401.709	425.46
402.083	287.57
402.457	364.18
402.831	382.05
403.205	450.99
403.579	343.75
403.953	325.87
404.326	338.64
404.7	399.92
405.074	361.62
405.447	389.71
405.821	376.94
406.195	397.37
406.568	458.65
406.942	476.52
407.315	417.8
407.688	351.41
408.062	366.73
408.435	376.94
408.808	353.96
409.181	376.94
409.554	374.39
409.927	371.84
410.3	382.05
410.673	435.67
411.046	422.9
411.419	333.54
411.792	435.67
412.165	328.43
412.537	394.82
412.91	359.07
413.283	359.07
413.655	364.18
414.028	371.84
414.4	369.28
414.773	351.41
415.145	376.94
415.517	353.96
415.889	369.28
416.262	346.3
416.634	415.24
417.006	392.26
417.378	374.39
417.75	376.94
418.122	371.84
418.494	379.5
418.866	313.11
419.238	374.39
419.609	351.41
419.981	394.82
420.353	366.73
420.725	394.82
421.096	379.5
421.468	384.6
421.839	384.6
422.211	336.09
422.582	364.18
422.953	382.05
423.325	420.35
423.696	399.92
424.067	366.73
424.438	364.18
424.809	394.82
425.18	356.52
425.551	366.73
425.922	336.09
426.293	394.82
426.664	318.21
427.035	438.22
427.406	371.84
427.776	366.73
428.147	374.39
428.518	417.8
428.888	392.26
429.259	369.28
429.629	336.09
429.999	374.39
430.37	422.9
430.74	415.24
431.11	290.13
431.481	341.2
431.851	369.28
432.221	461.2
432.591	440.78
432.961	389.71
433.331	374.39
433.701	397.37
434.071	356.52
434.441	376.94
434.81	402.48
435.18	353.96
435.55	371.84
435.919	361.62
436.289	417.8
436.658	410.14
437.028	430.56
437.397	420.35
437.767	405.03
438.136	382.05
438.505	479.08
438.875	438.22
439.244	371.84
439.613	374.39
439.982	399.92
440.351	438.22
440.72	458.65
441.089	466.31
441.458	420.35
441.827	320.77
442.196	382.05
442.564	376.94
442.933	328.43
443.302	376.94
443.67	359.07
444.039	353.96
444.407	438.22
444.776	417.8
445.144	428.01
445.513	412.69
445.881	430.56
446.249	387.16
446.617	412.69
446.986	468.86
447.354	394.82
447.722	366.73
448.09	402.48
448.458	359.07
448.826	417.8
449.194	328.43
449.561	351.41
449.929	338.64
450.297	371.84
450.665	402.48
451.032	448.44
451.4	369.28
451.767	361.62
452.135	369.28
452.502	384.6
452.87	382.05
453.237	346.3
453.604	328.43
453.971	453.54
454.339	435.67
454.706	333.54
455.073	392.26
455.44	387.16
455.807	369.28
456.174	461.2
456.541	420.35
456.908	415.24
457.274	397.37
457.641	417.8
458.008	371.84
458.374	448.44
458.741	405.03
459.108	463.76
459.474	366.73
459.841	384.6
460.207	361.62
460.573	410.14
460.94	476.52
461.306	453.54
461.672	318.21
462.038	323.32
462.404	376.94
462.771	359.07
463.137	425.46
463.503	417.8
463.868	450.99
464.234	346.3
464.6	402.48
464.966	410.14
465.332	402.48
465.697	443.33
466.063	412.69
466.429	405.03
466.794	428.01
467.16	415.24
467.525	384.6
467.89	374.39
468.256	456.1
468.621	412.69
468.986	405.03
469.351	313.11
469.717	353.96
470.082	405.03
470.447	471.42
470.812	394.82
471.177	415.24
471.542	435.67
471.906	405.03
472.271	366.73
472.636	369.28
473.001	374.39
473.365	369.28
473.73	425.46
474.094	417.8
474.459	443.33
474.823	471.42
475.188	392.26
475.552	302.89
475.917	458.65
476.281	405.03
476.645	443.33
477.009	405.03
477.373	394.82
477.737	463.76
478.101	425.46
478.465	440.78
478.829	476.52
479.193	405.03
479.557	430.56
479.921	384.6
480.284	407.58
480.648	379.5
481.012	323.32
481.375	361.62
481.739	318.21
482.102	336.09
482.466	376.94
482.829	430.56
483.193	399.92
483.556	453.54
483.919	382.05
484.282	361.62
484.645	473.97
485.009	397.37
485.372	343.75
485.735	394.82
486.098	405.03
486.46	369.28
486.823	412.69
487.186	445.88
487.549	364.18
487.912	374.39
488.274	397.37
488.637	405.03
488.999	353.96
489.362	410.14
489.724	353.96
490.087	366.73
490.449	420.35
490.811	405.03
491.174	392.26
491.536	359.07
491.898	407.58
492.26	428.01
492.622	425.46
492.984	338.64
493.346	361.62
493.708	422.9
494.07	376.94
494.432	348.86
494.794	371.84
495.155	384.6
495.517	328.43
495.879	422.9
496.24	366.73
496.602	384.6
496.963	415.24
497.325	443.33
497.686	364.18
498.048	387.16
498.409	394.82
498.77	364.18
499.131	389.71
499.492	405.03
499.854	448.44
500.215	450.99
500.576	399.92
500.937	443.33
501.298	369.28
501.658	371.84
502.019	443.33
502.38	387.16
502.741	415.24
503.101	407.58
503.462	394.82
503.823	405.03
504.183	417.8
504.543	410.14
504.904	433.12
505.264	410.14
505.625	374.39
505.985	397.37
506.345	473.97
506.705	384.6
507.065	453.54
507.426	405.03
507.786	315.66
508.146	425.46
508.505	450.99
508.865	430.56
509.225	374.39
509.585	468.86
509.945	384.6
510.304	330.98
510.664	422.9
511.024	420.35
511.383	356.52
511.743	466.31
512.102	384.6
512.462	328.43
512.821	382.05
513.18	371.84
513.539	410.14
513.899	399.92
514.258	407.58
514.617	374.39
514.976	379.5
515.335	392.26
515.694	387.16
516.053	371.84
516.412	359.07
516.771	412.69
517.129	384.6
517.488	392.26
517.847	410.14
518.205	371.84
518.564	399.92
518.922	410.14
519.281	430.56
519.639	330.98
519.998	430.56
520.356	422.9
520.714	402.48
521.073	433.12
521.431	394.82
521.789	387.16
522.147	369.28
522.505	430.56
522.863	425.46
523.221	420.35
523.579	366.73
523.937	417.8
524.295	417.8
524.652	410.14
525.01	422.9
525.368	438.22
525.725	407.58
526.083	463.76
526.44	325.87
526.798	394.82
527.155	366.73
527.513	407.58
527.87	374.39
528.227	336.09
528.584	425.46
528.942	366.73
529.299	382.05
529.656	369.28
530.013	417.8
530.37	389.71
530.727	366.73
531.083	435.67
531.44	402.48
531.797	387.16
532.154	361.62
532.511	412.69
532.867	420.35
533.224	384.6
533.58	351.41
533.937	323.32
534.293	343.75
534.65	407.58
535.006	410.14
535.362	425.46
535.718	394.82
536.075	415.24
536.431	407.58
536.787	407.58
537.143	481.63
537.499	420.35
537.855	405.03
538.211	397.37
538.567	402.48
538.923	366.73
539.278	428.01
539.634	456.1
539.99	392.26
540.345	374.39
540.701	392.26
541.056	422.9
541.412	333.54
541.767	410.14
542.123	364.18
542.478	410.14
542.833	348.86
543.188	466.31
543.544	387.16
543.899	420.35
544.254	417.8
544.609	397.37
544.964	410.14
545.319	453.54
545.674	407.58
546.029	412.69
546.383	356.52
546.738	458.65
547.093	364.18
547.447	412.69
547.802	369.28
548.157	325.87
548.511	361.62
548.866	323.32
549.22	333.54
549.574	366.73
549.929	382.05
550.283	348.86
550.637	394.82
550.991	415.24
551.345	422.9
551.699	384.6
552.053	366.73
552.407	333.54
552.761	353.96
553.115	389.71
553.469	405.03
553.823	417.8
554.176	399.92
554.53	384.6
554.884	382.05
555.237	624.62
555.591	351.41
555.944	407.58
556.298	394.82
556.651	369.28
557.005	387.16
557.358	399.92
557.711	402.48
558.064	420.35
558.417	325.87
558.771	463.76
559.124	448.44
559.477	374.39
559.83	417.8
560.182	402.48
560.535	415.24
560.888	422.9
561.241	415.24
561.594	448.44
561.946	374.39
562.299	435.67
562.651	430.56
563.004	445.88
563.356	473.97
563.709	389.71
564.061	410.14
564.413	366.73
564.766	343.75
565.118	338.64
565.47	366.73
565.822	422.9
566.174	412.69
566.526	425.46
566.878	514.82
567.23	346.3
567.582	308
567.934	399.92
568.286	374.39
568.638	369.28
568.989	412.69
569.341	366.73
569.693	453.54
570.044	425.46
570.396	412.69
570.747	394.82
571.098	402.48
571.45	384.6
571.801	348.86
572.152	450.99
572.504	450.99
572.855	384.6
573.206	415.24
573.557	402.48
573.908	407.58
574.259	428.01
574.61	415.24
574.961	399.92
575.311	461.2
575.662	448.44
576.013	458.65
576.364	425.46
576.714	366.73
577.065	428.01
577.415	407.58
577.766	463.76
578.116	410.14
578.467	402.48
578.817	443.33
579.167	463.76
579.518	420.35
579.868	438.22
580.218	481.63
580.568	430.56
580.918	410.14
581.268	356.52
581.618	387.16
581.968	458.65
582.318	392.26
582.668	433.12
583.017	433.12
583.367	417.8
583.717	433.12
584.066	328.43
584.416	394.82
584.765	374.39
585.115	407.58
585.464	420.35
585.814	371.84
586.163	359.07
586.512	343.75
586.862	397.37
587.211	387.16
587.56	389.71
587.909	417.8
588.258	405.03
588.607	412.69
588.956	422.9
589.305	330.98
589.654	443.33
590.002	461.2
590.351	430.56
590.7	389.71
591.048	430.56
591.397	384.6
591.746	346.3
592.094	366.73
592.443	351.41
592.791	392.26
593.139	450.99
593.488	453.54
593.836	422.9
594.184	410.14
594.532	399.92
594.88	412.69
595.228	461.2
595.576	374.39
595.924	397.37
596.272	325.87
596.62	369.28
596.968	371.84
597.316	415.24
597.664	417.8
598.011	387.16
598.359	397.37
598.706	353.96
599.054	389.71
599.402	361.62
599.749	371.84
600.096	382.05
600.444	410.14
600.791	443.33
601.138	415.24
601.485	405.03
601.833	415.24
602.18	407.58
602.527	364.18
602.874	435.67
603.221	399.92
603.568	379.5
603.914	443.33
604.261	389.71
604.608	399.92
604.955	448.44
605.301	382.05
605.648	410.14
605.995	417.8
606.341	305.45
606.688	351.41
607.034	328.43
607.38	412.69
607.727	438.22
608.073	356.52
608.419	425.46
608.765	361.62
609.112	399.92
609.458	412.69
609.804	407.58
610.15	435.67
610.496	364.18
610.842	433.12
611.187	410.14
611.533	433.12
611.879	384.6
612.225	364.18
612.57	399.92
612.916	397.37
613.261	445.88
613.607	384.6
613.952	399.92
614.298	397.37
614.643	392.26
614.989	277.36
615.334	389.71
615.679	382.05
616.024	320.77
616.369	450.99
616.714	371.84
617.059	382.05
617.404	369.28
617.749	399.92
618.094	412.69
618.439	399.92
618.784	410.14
619.129	433.12
619.473	433.12
619.818	338.64
620.163	387.16
620.507	407.58
620.852	456.1
621.196	359.07
621.54	382.05
621.885	356.52
622.229	351.41
622.573	405.03
622.918	351.41
623.262	425.46
623.606	438.22
623.95	405.03
624.294	435.67
624.638	384.6
624.982	364.18
625.326	407.58
625.67	425.46
626.013	405.03
626.357	405.03
626.701	384.6
627.044	376.94
627.388	384.6
627.731	420.35
628.075	440.78
628.418	399.92
628.762	392.26
629.105	399.92
629.448	407.58
629.792	448.44
630.135	392.26
630.478	450.99
630.821	392.26
631.164	356.52
631.507	382.05
631.85	384.6
632.193	417.8
632.536	456.1
632.879	428.01
633.221	384.6
633.564	425.46
633.907	397.37
634.249	394.82
634.592	397.37
634.935	384.6
635.277	389.71
635.619	412.69
635.962	328.43
636.304	397.37
636.646	425.46
636.989	371.84
637.331	410.14
637.673	376.94
638.015	412.69
638.357	379.5
638.699	379.5
639.041	397.37
639.383	392.26
639.725	415.24
640.067	422.9
640.408	417.8
640.75	407.58
641.092	384.6
641.433	384.6
641.775	405.03
642.116	376.94
642.458	448.44
642.799	379.5
643.141	389.71
643.482	440.78
643.823	473.97
644.164	402.48
644.506	458.65
644.847	382.05
645.188	356.52
645.529	374.39
645.87	456.1
646.211	402.48
646.552	461.2
646.893	479.08
647.233	430.56
647.574	399.92
647.915	389.71
648.255	346.3
648.596	382.05
648.937	407.58
649.277	448.44
649.618	438.22
649.958	376.94
650.298	399.92
650.639	341.2
650.979	371.84
651.319	397.37
651.659	438.22
651.999	371.84
652.339	425.46
652.679	420.35
653.019	376.94
653.359	463.76
653.699	410.14
654.039	420.35
654.379	417.8
654.719	376.94
655.058	445.88
655.398	433.12
655.737	371.84
656.077	346.3
656.416	402.48
656.756	343.75
657.095	328.43
657.435	343.75
657.774	422.9
658.113	440.78
658.452	440.78
658.792	402.48
659.131	379.5
659.47	364.18
659.809	346.3
660.148	361.62
660.487	389.71
660.826	361.62
661.164	394.82
661.503	371.84
661.842	379.5
662.181	351.41
662.519	369.28
662.858	328.43
663.196	348.86
663.535	274.81
663.873	374.39
664.212	422.9
664.55	392.26
664.888	412.69
665.226	361.62
665.565	384.6
665.903	614.41
666.241	425.46
666.579	435.67
666.917	410.14
667.255	410.14
667.593	346.3
667.931	369.28
668.268	389.71
668.606	402.48
668.944	407.58
669.282	428.01
669.619	402.48
669.957	407.58
670.294	425.46
670.632	407.58
670.969	382.05
671.307	399.92
671.644	397.37
671.981	420.35
672.318	330.98
672.656	405.03
672.993	422.9
673.33	397.37
673.667	392.26
674.004	415.24
674.341	374.39
674.678	348.86
675.015	336.09
675.351	333.54
675.688	394.82
676.025	440.78
676.362	422.9
676.698	402.48
677.035	456.1
677.371	425.46
677.708	366.73
678.044	369.28
678.38	410.14
678.717	389.71
679.053	456.1
679.389	376.94
679.725	397.37
680.062	448.44
680.398	356.52
680.734	359.07
681.07	402.48
681.406	361.62
681.742	407.58
682.077	366.73
682.413	397.37
682.749	394.82
683.085	359.07
683.42	402.48
683.756	341.2
684.091	392.26
684.427	338.64
684.762	351.41
685.098	450.99
685.433	420.35
685.768	348.86
686.104	371.84
686.439	420.35
686.774	402.48
687.109	422.9
687.444	417.8
687.779	435.67
688.114	341.2
688.449	399.92
688.784	348.86
689.119	351.41
689.454	399.92
689.789	359.07
690.123	346.3
690.458	341.2
690.792	379.5
691.127	412.69
691.461	366.73
691.796	387.16
692.13	405.03
692.465	366.73
692.799	323.32
693.133	376.94
693.467	428.01
693.802	466.31
694.136	376.94
694.47	333.54
694.804	402.48
695.138	402.48
695.472	353.96
695.806	402.48
696.139	369.28
696.473	415.24
696.807	456.1
697.141	384.6
697.474	399.92
697.808	448.44
698.141	405.03
698.475	399.92
698.808	410.14
699.142	422.9
699.475	330.98
699.808	384.6
700.142	428.01
700.475	458.65
700.808	384.6
701.141	384.6
701.474	364.18
701.807	315.66
702.14	371.84
702.473	369.28
702.806	394.82
703.139	425.46
703.472	458.65
703.804	394.82
704.137	402.48
704.47	440.78
704.802	359.07
705.135	397.37
705.467	343.75
705.8	364.18
706.132	382.05
706.464	443.33
706.797	397.37
707.129	379.5
707.461	379.5
707.793	359.07
708.125	343.75
708.457	366.73
708.789	438.22
709.121	458.65
709.453	443.33
709.785	389.71
710.117	346.3
710.449	422.9
710.781	371.84
711.112	353.96
711.444	361.62
711.775	351.41
712.107	359.07
712.438	348.86
712.77	389.71
713.101	348.86
713.433	410.14
713.764	320.77
714.095	376.94
714.426	376.94
714.757	458.65
715.089	382.05
715.42	338.64
715.751	422.9
716.082	433.12
716.412	366.73
716.743	389.71
717.074	433.12
717.405	415.24
717.736	353.96
718.066	438.22
718.397	356.52
718.727	394.82
719.058	435.67
719.388	399.92
719.719	315.66
720.049	428.01
720.38	384.6
720.71	394.82
721.04	356.52
721.37	330.98
721.7	330.98
722.031	410.14
722.361	399.92
722.691	412.69
723.021	399.92
723.35	476.52
723.68	422.9
724.01	387.16
724.34	353.96
724.67	387.16
724.999	461.2
725.329	440.78
725.658	417.8
725.988	394.82
726.317	407.58
726.647	392.26
726.976	356.52
727.306	417.8
727.635	410.14
727.964	366.73
728.293	405.03
728.622	382.05
728.952	433.12
729.281	443.33
729.61	336.09
729.939	405.03
730.267	374.39
730.596	359.07
730.925	353.96
731.254	361.62
731.583	445.88
731.911	389.71
732.24	392.26
732.568	359.07
732.897	384.6
733.225	369.28
733.554	361.62
733.882	399.92
734.21	356.52
734.539	405.03
734.867	366.73
735.195	405.03
735.523	387.16
735.851	387.16
736.179	430.56
736.507	412.69
736.835	318.21
737.163	361.62
737.491	351.41
737.819	433.12
738.147	374.39
738.474	382.05
738.802	369.28
739.13	420.35
739.457	425.46
739.785	430.56
740.112	379.5
740.44	448.44
740.767	387.16
741.094	369.28
741.422	361.62
741.749	392.26
742.076	422.9
742.403	376.94
742.73	356.52
743.057	394.82
743.384	369.28
743.711	348.86
744.038	341.2
744.365	407.58
744.692	384.6
745.018	438.22
745.345	402.48
745.672	353.96
745.998	346.3
746.325	389.71
746.651	382.05
746.978	374.39
747.304	394.82
747.631	336.09
747.957	392.26
748.283	394.82
748.61	399.92
748.936	399.92
749.262	417.8
749.588	410.14
749.914	369.28
750.24	382.05
750.566	382.05
750.892	402.48
751.218	341.2
751.543	341.2
751.869	359.07
752.195	410.14
752.521	420.35
752.846	384.6
753.172	415.24
753.497	346.3
753.823	392.26
754.148	325.87
754.473	420.35
754.799	369.28
755.124	371.84
755.449	364.18
755.774	392.26
756.1	407.58
756.425	458.65
756.75	384.6
757.075	353.96
757.4	502.06
757.724	417.8
758.049	407.58
758.374	527.59
758.699	415.24
759.024	366.73
759.348	387.16
759.673	325.87
759.997	399.92
760.322	471.42
760.646	433.12
760.971	320.77
761.295	458.65
761.619	494.4
761.944	458.65
762.268	491.84
762.592	440.78
762.916	458.65
763.24	471.42
763.564	468.86
763.888	504.61
764.212	540.36
764.536	453.54
764.86	571
765.184	611.85
765.508	563.34
765.831	683.35
766.155	925.92
766.478	724.2
766.802	765.06
767.126	759.95
767.449	831.44
767.772	910.6
768.096	979.54
768.419	964.22
768.742	946.35
769.066	1033.16
769.389	1035.71
769.712	1071.46
770.035	1038.27
770.358	1109.76
770.681	1229.77
771.004	1125.08
771.327	1158.28
771.65	1298.71
771.972	1329.35
772.295	1467.23
772.618	1459.57
772.941	1395.74
773.263	1480
773.586	1546.39
773.908	1671.51
774.231	1740.45
774.553	1697.04
774.875	1965.14
775.198	2044.3
775.52	1916.63
775.842	1891.1
776.164	1852.79
776.487	1906.42
776.809	1878.33
777.131	1962.59
777.453	1852.79
777.775	1993.23
778.096	2023.87
778.418	2108.13
778.74	2021.32
779.062	2120.9
779.384	2291.98
779.705	2486.03
780.027	2636.68
780.348	2766.9
780.67	2544.76
780.991	2815.42
781.313	2973.73
781.634	3195.87
781.955	2915
782.277	2971.17
782.598	2953.3
782.919	2960.96
783.24	3032.46
783.561	2958.41
783.882	2884.36
784.203	2889.47
784.524	2966.07
784.845	2935.43
785.166	2692.86
785.487	2692.86
785.807	2720.94
786.128	2575.4
786.449	2549.87
786.769	2595.83
787.09	2912.45
787.41	3045.22
787.731	3246.94
788.051	3484.4
788.372	3354.18
788.692	3772.94
789.012	3813.79
789.332	3854.64
789.653	4028.27
789.973	4219.78
790.293	4051.25
790.613	3566.11
790.933	3269.92
791.253	3080.97
791.573	3078.42
791.893	2835.85
792.212	2797.54
792.532	2782.22
792.852	2611.15
793.171	2493.69
793.491	2427.3
793.811	2511.57
794.13	2641.79
794.45	2534.55
794.769	2465.61
795.088	2652
795.408	2848.61
795.727	3024.8
796.046	2848.61
796.365	2764.35
796.684	2611.15
797.004	2460.5
797.323	2588.17
797.642	2899.68
797.96	2968.62
798.279	2897.13
798.598	2756.69
798.917	2595.83
799.236	2501.35
799.554	2263.89
799.873	2100.47
800.192	2251.12
800.51	2312.4
800.829	2194.95
801.147	2279.21
