Data from 2025-12-03_xpw_interference_micrometer_634_reference_FLMS141361__107__357.txt Node

Date: Wed Dec 03 15:51:23 MST 2025
User: james
Spectrometer: FLMS14136
Trigger mode: 0
Integration Time (sec): 1.000000E-1
Scans to average: 1
Electric dark correction enabled: true
Nonlinearity correction enabled: false
Boxcar width: 0
XAxis mode: Wavelengths
Number of Pixels in Spectrum: 2048
>>>>>Begin Spectral Data<<<<<
339.315	-55.54
339.697	-55.54
340.079	-55.54
340.461	-98.94
340.843	-124.48
341.225	-58.09
341.607	-78.52
341.989	-86.18
342.371	-93.84
342.752	-106.6
343.134	-12.13
343.516	3.19
343.897	-63.2
344.279	-9.58
344.661	69.58
345.042	-50.43
345.423	100.22
345.805	21.07
346.186	102.77
346.567	133.41
346.949	128.31
347.33	123.2
347.711	123.2
348.092	194.7
348.473	281.51
348.854	273.85
349.235	291.72
349.616	220.23
349.997	286.62
350.378	248.32
350.758	230.44
351.139	375.98
351.52	411.73
351.9	301.94
352.281	319.81
352.661	355.56
353.042	322.36
353.422	284.06
353.803	396.41
354.183	416.84
354.563	419.39
354.943	365.77
355.324	414.29
355.704	358.11
356.084	368.32
356.464	373.43
356.844	414.29
357.224	406.63
357.603	363.22
357.983	368.32
358.363	396.41
358.743	365.77
359.122	368.32
359.502	304.49
359.882	378.54
360.261	388.75
360.641	373.43
361.02	393.86
361.399	409.18
361.779	332.58
362.158	388.75
362.537	360.66
362.916	324.92
363.296	358.11
363.675	330.02
364.054	388.75
364.433	304.49
364.812	358.11
365.19	291.72
365.569	284.06
365.948	307.04
366.327	363.22
366.705	347.9
367.084	268.74
367.463	378.54
367.841	327.47
368.22	345.34
368.598	358.11
368.977	350.45
369.355	353
369.733	347.9
370.111	337.68
370.49	291.72
370.868	360.66
371.246	330.02
371.624	296.83
372.002	317.26
372.38	335.13
372.758	273.85
373.136	340.24
373.513	353
373.891	358.11
374.269	296.83
374.646	327.47
375.024	345.34
375.402	350.45
375.779	444.93
376.157	307.04
376.534	312.15
376.911	368.32
377.289	411.73
377.666	350.45
378.043	317.26
378.42	289.17
378.797	347.9
379.175	330.02
379.552	319.81
379.929	322.36
380.305	330.02
380.682	393.86
381.059	355.56
381.436	381.09
381.813	350.45
382.189	375.98
382.566	462.8
382.943	393.86
383.319	427.05
383.696	360.66
384.072	353
384.448	365.77
384.825	386.2
385.201	342.79
385.577	421.95
385.953	396.41
386.329	398.97
386.706	388.75
387.082	360.66
387.458	350.45
387.834	327.47
388.209	363.22
388.585	317.26
388.961	355.56
389.337	360.66
389.713	378.54
390.088	335.13
390.464	358.11
390.839	358.11
391.215	386.2
391.59	327.47
391.966	317.26
392.341	378.54
392.716	358.11
393.092	373.43
393.467	317.26
393.842	312.15
394.217	388.75
394.592	332.58
394.967	411.73
395.342	342.79
395.717	391.31
396.092	398.97
396.467	314.7
396.841	289.17
397.216	253.42
397.591	324.92
397.965	429.61
398.34	358.11
398.714	370.88
399.089	388.75
399.463	398.97
399.838	398.97
400.212	368.32
400.586	416.84
400.961	429.61
401.335	383.65
401.709	368.32
402.083	383.65
402.457	393.86
402.831	393.86
403.205	386.2
403.579	342.79
403.953	416.84
404.326	330.02
404.7	340.24
405.074	378.54
405.447	375.98
405.821	276.4
406.195	319.81
406.568	386.2
406.942	475.57
407.315	378.54
407.688	378.54
408.062	309.6
408.435	368.32
408.808	406.63
409.181	358.11
409.554	383.65
409.927	416.84
410.3	353
410.673	409.18
411.046	342.79
411.419	370.88
411.792	429.61
412.165	319.81
412.537	404.07
412.91	375.98
413.283	365.77
413.655	455.14
414.028	411.73
414.4	340.24
414.773	378.54
415.145	342.79
415.517	319.81
415.889	427.05
416.262	375.98
416.634	398.97
417.006	396.41
417.378	330.02
417.75	373.43
418.122	378.54
418.494	332.58
418.866	363.22
419.238	401.52
419.609	375.98
419.981	327.47
420.353	416.84
420.725	345.34
421.096	386.2
421.468	322.36
421.839	368.32
422.211	383.65
422.582	455.14
422.953	434.71
423.325	396.41
423.696	378.54
424.067	478.12
424.438	462.8
424.809	360.66
425.18	327.47
425.551	363.22
425.922	424.5
426.293	355.56
426.664	304.49
427.035	398.97
427.406	309.6
427.776	381.09
428.147	373.43
428.518	373.43
428.888	358.11
429.259	437.27
429.629	370.88
429.999	427.05
430.37	360.66
430.74	347.9
431.11	332.58
431.481	319.81
431.851	383.65
432.221	340.24
432.591	393.86
432.961	381.09
433.331	345.34
433.701	345.34
434.071	314.7
434.441	335.13
434.81	462.8
435.18	353
435.55	393.86
435.919	393.86
436.289	363.22
436.658	437.27
437.028	370.88
437.397	411.73
437.767	447.48
438.136	427.05
438.505	332.58
438.875	452.59
439.244	483.23
439.613	378.54
439.982	373.43
440.351	396.41
440.72	437.27
441.089	386.2
441.458	414.29
441.827	391.31
442.196	383.65
442.564	470.46
442.933	373.43
443.302	350.45
443.67	381.09
444.039	406.63
444.407	388.75
444.776	360.66
445.144	355.56
445.513	365.77
445.881	398.97
446.249	353
446.617	416.84
446.986	383.65
447.354	414.29
447.722	424.5
448.09	375.98
448.458	383.65
448.826	467.91
449.194	319.81
449.561	391.31
449.929	414.29
450.297	330.02
450.665	383.65
451.032	396.41
451.4	355.56
451.767	299.38
452.135	370.88
452.502	350.45
452.87	347.9
453.237	388.75
453.604	386.2
453.971	432.16
454.339	421.95
454.706	398.97
455.073	414.29
455.44	358.11
455.807	411.73
456.174	370.88
456.541	398.97
456.908	411.73
457.274	404.07
457.641	437.27
458.008	360.66
458.374	409.18
458.741	447.48
459.108	432.16
459.474	393.86
459.841	365.77
460.207	373.43
460.573	383.65
460.94	421.95
461.306	442.37
461.672	393.86
462.038	411.73
462.404	340.24
462.771	365.77
463.137	416.84
463.503	391.31
463.868	370.88
464.234	324.92
464.6	450.03
464.966	419.39
465.332	396.41
465.697	355.56
466.063	317.26
466.429	363.22
466.794	388.75
467.16	337.68
467.525	424.5
467.89	388.75
468.256	406.63
468.621	368.32
468.986	465.35
469.351	375.98
469.717	429.61
470.082	409.18
470.447	398.97
470.812	391.31
471.177	414.29
471.542	388.75
471.906	383.65
472.271	378.54
472.636	381.09
473.001	432.16
473.365	337.68
473.73	416.84
474.094	439.82
474.459	401.52
474.823	437.27
475.188	337.68
475.552	307.04
475.917	439.82
476.281	457.69
476.645	414.29
477.009	506.21
477.373	378.54
477.737	368.32
478.101	373.43
478.465	447.48
478.829	391.31
479.193	404.07
479.557	398.97
479.921	396.41
480.284	404.07
480.648	370.88
481.012	386.2
481.375	337.68
481.739	383.65
482.102	360.66
482.466	411.73
482.829	460.25
483.193	378.54
483.556	411.73
483.919	396.41
484.282	406.63
484.645	332.58
485.009	444.93
485.372	355.56
485.735	363.22
486.098	450.03
486.46	457.69
486.823	370.88
487.186	429.61
487.549	447.48
487.912	373.43
488.274	358.11
488.637	370.88
488.999	378.54
489.362	383.65
489.724	447.48
490.087	353
490.449	360.66
490.811	322.36
491.174	391.31
491.536	398.97
491.898	406.63
492.26	345.34
492.622	375.98
492.984	401.52
493.346	378.54
493.708	307.04
494.07	353
494.432	470.46
494.794	416.84
495.155	358.11
495.517	439.82
495.879	427.05
496.24	347.9
496.602	393.86
496.963	414.29
497.325	393.86
497.686	383.65
498.048	373.43
498.409	427.05
498.77	401.52
499.131	375.98
499.492	421.95
499.854	432.16
500.215	393.86
500.576	355.56
500.937	444.93
501.298	355.56
501.658	375.98
502.019	365.77
502.38	409.18
502.741	365.77
503.101	444.93
503.462	378.54
503.823	409.18
504.183	368.32
504.543	404.07
504.904	421.95
505.264	414.29
505.625	388.75
505.985	398.97
506.345	421.95
506.705	416.84
507.065	401.52
507.426	414.29
507.786	470.46
508.146	421.95
508.505	383.65
508.865	416.84
509.225	391.31
509.585	470.46
509.945	411.73
510.304	457.69
510.664	388.75
511.024	411.73
511.383	439.82
511.743	416.84
512.102	444.93
512.462	414.29
512.821	381.09
513.18	332.58
513.539	434.71
513.899	360.66
514.258	345.34
514.617	396.41
514.976	401.52
515.335	416.84
515.694	478.12
516.053	368.32
516.412	419.39
516.771	416.84
517.129	398.97
517.488	404.07
517.847	393.86
518.205	383.65
518.564	429.61
518.922	388.75
519.281	375.98
519.639	345.34
519.998	365.77
520.356	373.43
520.714	363.22
521.073	358.11
521.431	439.82
521.789	409.18
522.147	370.88
522.505	411.73
522.863	368.32
523.221	337.68
523.579	358.11
523.937	493.44
524.295	416.84
524.652	388.75
525.01	388.75
525.368	424.5
525.725	411.73
526.083	404.07
526.44	353
526.798	291.72
527.155	411.73
527.513	355.56
527.87	375.98
528.227	432.16
528.584	421.95
528.942	355.56
529.299	444.93
529.656	353
530.013	411.73
530.37	360.66
530.727	347.9
531.083	350.45
531.44	432.16
531.797	370.88
532.154	335.13
532.511	419.39
532.867	432.16
533.224	370.88
533.58	350.45
533.937	373.43
534.293	358.11
534.65	335.13
535.006	406.63
535.362	411.73
535.718	401.52
536.075	388.75
536.431	393.86
536.787	439.82
537.143	437.27
537.499	375.98
537.855	373.43
538.211	406.63
538.567	393.86
538.923	347.9
539.278	409.18
539.634	421.95
539.99	434.71
540.345	401.52
540.701	347.9
541.056	434.71
541.412	360.66
541.767	365.77
542.123	391.31
542.478	353
542.833	432.16
543.188	442.37
543.544	424.5
543.899	345.34
544.254	396.41
544.609	452.59
544.964	427.05
545.319	360.66
545.674	342.79
546.029	419.39
546.383	391.31
546.738	342.79
547.093	406.63
547.447	457.69
547.802	373.43
548.157	360.66
548.511	340.24
548.866	388.75
549.22	358.11
549.574	406.63
549.929	396.41
550.283	457.69
550.637	393.86
550.991	429.61
551.345	388.75
551.699	404.07
552.053	363.22
552.407	375.98
552.761	409.18
553.115	465.35
553.469	375.98
553.823	345.34
554.176	409.18
554.53	378.54
554.884	396.41
555.237	567.49
555.591	368.32
555.944	414.29
556.298	383.65
556.651	434.71
557.005	391.31
557.358	342.79
557.711	406.63
558.064	386.2
558.417	401.52
558.771	498.55
559.124	427.05
559.477	409.18
559.83	444.93
560.182	406.63
560.535	383.65
560.888	347.9
561.241	378.54
561.594	375.98
561.946	404.07
562.299	386.2
562.651	378.54
563.004	363.22
563.356	409.18
563.709	411.73
564.061	347.9
564.413	353
564.766	375.98
565.118	409.18
565.47	391.31
565.822	353
566.174	355.56
566.526	398.97
566.878	521.53
567.23	370.88
567.582	421.95
567.934	409.18
568.286	383.65
568.638	455.14
568.989	457.69
569.341	330.02
569.693	322.36
570.044	396.41
570.396	375.98
570.747	358.11
571.098	427.05
571.45	319.81
571.801	383.65
572.152	373.43
572.504	363.22
572.855	337.68
573.206	396.41
573.557	411.73
573.908	365.77
574.259	330.02
574.61	393.86
574.961	373.43
575.311	381.09
575.662	388.75
576.013	427.05
576.364	345.34
576.714	396.41
577.065	365.77
577.415	398.97
577.766	327.47
578.116	414.29
578.467	373.43
578.817	398.97
579.167	424.5
579.518	444.93
579.868	370.88
580.218	355.56
580.568	404.07
580.918	381.09
581.268	457.69
581.618	375.98
581.968	414.29
582.318	396.41
582.668	350.45
583.017	337.68
583.367	465.35
583.717	391.31
584.066	424.5
584.416	457.69
584.765	358.11
585.115	457.69
585.464	416.84
585.814	421.95
586.163	383.65
586.512	398.97
586.862	368.32
587.211	409.18
587.56	370.88
587.909	391.31
588.258	439.82
588.607	439.82
588.956	470.46
589.305	411.73
589.654	427.05
590.002	429.61
590.351	404.07
590.7	424.5
591.048	401.52
591.397	368.32
591.746	383.65
592.094	340.24
592.443	340.24
592.791	350.45
593.139	388.75
593.488	401.52
593.836	391.31
594.184	406.63
594.532	401.52
594.88	485.78
595.228	370.88
595.576	360.66
595.924	388.75
596.272	411.73
596.62	391.31
596.968	391.31
597.316	375.98
597.664	378.54
598.011	345.34
598.359	350.45
598.706	401.52
599.054	444.93
599.402	388.75
599.749	358.11
600.096	401.52
600.444	437.27
600.791	381.09
601.138	388.75
601.485	419.39
601.833	396.41
602.18	368.32
602.527	416.84
602.874	363.22
603.221	358.11
603.568	424.5
603.914	388.75
604.261	409.18
604.608	401.52
604.955	363.22
605.301	381.09
605.648	383.65
605.995	383.65
606.341	370.88
606.688	421.95
607.034	370.88
607.38	391.31
607.727	416.84
608.073	294.28
608.419	370.88
608.765	391.31
609.112	416.84
609.458	393.86
609.804	378.54
610.15	386.2
610.496	360.66
610.842	388.75
611.187	370.88
611.533	353
611.879	439.82
612.225	396.41
612.57	444.93
612.916	432.16
613.261	427.05
613.607	460.25
613.952	388.75
614.298	375.98
614.643	437.27
614.989	378.54
615.334	393.86
615.679	455.14
616.024	307.04
616.369	393.86
616.714	347.9
617.059	355.56
617.404	350.45
617.749	337.68
618.094	386.2
618.439	368.32
618.784	373.43
619.129	396.41
619.473	409.18
619.818	383.65
620.163	368.32
620.507	411.73
620.852	378.54
621.196	342.79
621.54	411.73
621.885	388.75
622.229	447.48
622.573	398.97
622.918	340.24
623.262	391.31
623.606	409.18
623.95	460.25
624.294	404.07
624.638	406.63
624.982	375.98
625.326	378.54
625.67	347.9
626.013	381.09
626.357	353
626.701	358.11
627.044	358.11
627.388	398.97
627.731	355.56
628.075	421.95
628.418	353
628.762	353
629.105	409.18
629.448	368.32
629.792	319.81
630.135	319.81
630.478	309.6
630.821	373.43
631.164	378.54
631.507	360.66
631.85	386.2
632.193	335.13
632.536	375.98
632.879	383.65
633.221	396.41
633.564	414.29
633.907	383.65
634.249	368.32
634.592	411.73
634.935	424.5
635.277	386.2
635.619	401.52
635.962	363.22
636.304	401.52
636.646	391.31
636.989	404.07
637.331	437.27
637.673	350.45
638.015	411.73
638.357	406.63
638.699	309.6
639.041	378.54
639.383	360.66
639.725	457.69
640.067	393.86
640.408	350.45
640.75	368.32
641.092	340.24
641.433	347.9
641.775	406.63
642.116	375.98
642.458	398.97
642.799	447.48
643.141	409.18
643.482	368.32
643.823	393.86
644.164	398.97
644.506	419.39
644.847	393.86
645.188	429.61
645.529	345.34
645.87	450.03
646.211	398.97
646.552	411.73
646.893	414.29
647.233	322.36
647.574	342.79
647.915	378.54
648.255	386.2
648.596	355.56
648.937	401.52
649.277	437.27
649.618	332.58
649.958	317.26
650.298	419.39
650.639	355.56
650.979	378.54
651.319	330.02
651.659	378.54
651.999	378.54
652.339	439.82
652.679	368.32
653.019	406.63
653.359	363.22
653.699	378.54
654.039	373.43
654.379	414.29
654.719	393.86
655.058	375.98
655.398	465.35
655.737	452.59
656.077	442.37
656.416	350.45
656.756	388.75
657.095	391.31
657.435	319.81
657.774	406.63
658.113	442.37
658.452	450.03
658.792	401.52
659.131	345.34
659.47	327.47
659.809	360.66
660.148	439.82
660.487	284.06
660.826	383.65
661.164	409.18
661.503	421.95
661.842	388.75
662.181	373.43
662.519	401.52
662.858	419.39
663.196	365.77
663.535	342.79
663.873	375.98
664.212	370.88
664.55	368.32
664.888	409.18
665.226	375.98
665.565	358.11
665.903	554.72
666.241	444.93
666.579	404.07
666.917	409.18
667.255	327.47
667.593	375.98
667.931	406.63
668.268	375.98
668.606	327.47
668.944	373.43
669.282	393.86
669.619	332.58
669.957	388.75
670.294	419.39
670.632	360.66
670.969	335.13
671.307	375.98
671.644	434.71
671.981	444.93
672.318	416.84
672.656	383.65
672.993	388.75
673.33	360.66
673.667	350.45
674.004	373.43
674.341	381.09
674.678	434.71
675.015	432.16
675.351	406.63
675.688	345.34
676.025	355.56
676.362	411.73
676.698	411.73
677.035	404.07
677.371	393.86
677.708	434.71
678.044	355.56
678.38	386.2
678.717	365.77
679.053	335.13
679.389	411.73
679.725	419.39
680.062	378.54
680.398	322.36
680.734	342.79
681.07	437.27
681.406	393.86
681.742	378.54
682.077	375.98
682.413	375.98
682.749	383.65
683.085	330.02
683.42	312.15
683.756	353
684.091	342.79
684.427	340.24
684.762	386.2
685.098	375.98
685.433	350.45
685.768	432.16
686.104	391.31
686.439	358.11
686.774	332.58
687.109	304.49
687.444	335.13
687.779	365.77
688.114	332.58
688.449	375.98
688.784	398.97
689.119	363.22
689.454	450.03
689.789	391.31
690.123	353
690.458	353
690.792	360.66
691.127	419.39
691.461	345.34
691.796	345.34
692.13	401.52
692.465	421.95
692.799	378.54
693.133	342.79
693.467	404.07
693.802	391.31
694.136	478.12
694.47	495.99
694.804	386.2
695.138	350.45
695.472	340.24
695.806	378.54
696.139	396.41
696.473	409.18
696.807	324.92
697.141	381.09
697.474	388.75
697.808	455.14
698.141	419.39
698.475	424.5
698.808	381.09
699.142	414.29
699.475	381.09
699.808	393.86
700.142	386.2
700.475	406.63
700.808	345.34
701.141	340.24
701.474	401.52
701.807	368.32
702.14	434.71
702.473	322.36
702.806	365.77
703.139	375.98
703.472	363.22
703.804	370.88
704.137	365.77
704.47	444.93
704.802	409.18
705.135	391.31
705.467	391.31
705.8	393.86
706.132	324.92
706.464	404.07
706.797	396.41
707.129	365.77
707.461	330.02
707.793	312.15
708.125	360.66
708.457	363.22
708.789	424.5
709.121	406.63
709.453	375.98
709.785	406.63
710.117	375.98
710.449	411.73
710.781	419.39
711.112	434.71
711.444	296.83
711.775	368.32
712.107	473.01
712.438	404.07
712.77	355.56
713.101	404.07
713.433	353
713.764	335.13
714.095	340.24
714.426	347.9
714.757	355.56
715.089	370.88
715.42	373.43
715.751	365.77
716.082	378.54
716.412	383.65
716.743	432.16
717.074	421.95
717.405	419.39
717.736	414.29
718.066	406.63
718.397	421.95
718.727	411.73
719.058	358.11
719.388	396.41
719.719	373.43
720.049	355.56
720.38	355.56
720.71	368.32
721.04	388.75
721.37	447.48
721.7	383.65
722.031	388.75
722.361	378.54
722.691	465.35
723.021	368.32
723.35	391.31
723.68	429.61
724.01	414.29
724.34	391.31
724.67	301.94
724.999	345.34
725.329	393.86
725.658	350.45
725.988	365.77
726.317	324.92
726.647	342.79
726.976	396.41
727.306	345.34
727.635	398.97
727.964	424.5
728.293	375.98
728.622	337.68
728.952	353
729.281	398.97
729.61	386.2
729.939	358.11
730.267	378.54
730.596	401.52
730.925	383.65
731.254	373.43
731.583	358.11
731.911	393.86
732.24	401.52
732.568	386.2
732.897	355.56
733.225	388.75
733.554	350.45
733.882	375.98
734.21	409.18
734.539	358.11
734.867	332.58
735.195	360.66
735.523	419.39
735.851	490.89
736.179	409.18
736.507	375.98
736.835	386.2
737.163	434.71
737.491	450.03
737.819	322.36
738.147	414.29
738.474	383.65
738.802	401.52
739.13	388.75
739.457	406.63
739.785	386.2
740.112	391.31
740.44	340.24
740.767	342.79
741.094	429.61
741.422	439.82
741.749	391.31
742.076	452.59
742.403	370.88
742.73	388.75
743.057	322.36
743.384	340.24
743.711	427.05
744.038	447.48
744.365	414.29
744.692	375.98
745.018	350.45
745.345	317.26
745.672	373.43
745.998	437.27
746.325	404.07
746.651	350.45
746.978	383.65
747.304	340.24
747.631	373.43
747.957	411.73
748.283	421.95
748.61	401.52
748.936	396.41
749.262	370.88
749.588	432.16
749.914	370.88
750.24	386.2
750.566	429.61
750.892	345.34
751.218	340.24
751.543	386.2
751.869	358.11
752.195	373.43
752.521	363.22
752.846	360.66
753.172	332.58
753.497	291.72
753.823	386.2
754.148	350.45
754.473	355.56
754.799	355.56
755.124	488.33
755.449	419.39
755.774	447.48
756.1	383.65
756.425	409.18
756.75	388.75
757.075	424.5
757.4	536.85
757.724	350.45
758.049	414.29
758.374	353
758.699	396.41
759.024	375.98
759.348	365.77
759.673	370.88
759.997	421.95
760.322	419.39
760.646	368.32
760.971	393.86
761.295	416.84
761.619	442.37
761.944	378.54
762.268	495.99
762.592	396.41
762.916	429.61
763.24	452.59
763.564	429.61
763.888	508.76
764.212	603.24
764.536	516.42
764.86	585.36
765.184	603.24
765.508	593.02
765.831	628.77
766.155	881.55
766.478	677.28
766.802	700.26
767.126	730.9
767.449	917.3
767.772	932.62
768.096	896.87
768.419	927.51
768.742	901.98
769.066	996.46
769.389	942.83
769.712	1047.52
770.035	1144.55
770.358	1172.64
770.681	1182.85
771.004	1254.35
771.327	1249.24
771.65	1241.58
771.972	1272.22
772.295	1359.04
772.618	1415.21
772.941	1417.76
773.263	1392.23
773.586	1545.43
773.908	1553.09
774.231	1703.74
774.553	1752.26
774.875	1877.37
775.198	2005.04
775.52	1900.35
775.842	1777.79
776.164	1831.41
776.487	1874.82
776.809	1805.88
777.131	1874.82
777.453	1874.82
777.775	1923.33
778.096	1999.93
778.418	2058.66
778.74	1994.83
779.062	1994.83
779.384	2178.67
779.705	2400.81
780.027	2597.42
780.348	2709.77
780.67	2735.31
780.991	2806.8
781.313	2896.17
781.634	3072.35
781.955	2868.08
782.277	2794.03
782.598	2773.61
782.919	2765.95
783.24	2829.78
783.561	2896.17
783.882	2847.65
784.203	2878.3
784.524	2737.86
784.845	2742.97
785.166	2607.64
785.487	2625.51
785.807	2605.08
786.128	2528.48
786.449	2531.04
786.769	2617.85
787.09	2737.86
787.41	2962.56
787.731	3194.91
788.051	3406.84
788.372	3542.17
788.692	3565.15
789.012	3728.57
789.332	3708.14
789.653	3843.47
789.973	4096.26
790.293	3968.59
790.613	3514.09
790.933	3371.1
791.253	3215.34
791.573	3049.37
791.893	2811.91
792.212	2783.82
792.532	2748.07
792.852	2508.06
793.171	2469.75
793.491	2418.69
793.811	2505.5
794.13	2487.63
794.45	2408.47
794.769	2508.06
795.088	2702.11
795.408	2776.16
795.727	2929.36
796.046	2834.89
796.365	2694.45
796.684	2566.78
797.004	2421.24
797.323	2456.99
797.642	2842.55
797.96	2982.98
798.279	2852.76
798.598	2651.04
798.917	2628.06
799.236	2393.15
799.554	2252.72
799.873	2102.07
800.192	2219.52
