Data from 2025-12-03_xpw_interference_micrometer_634_reference_FLMS141361__199__449.txt Node

Date: Wed Dec 03 15:51:32 MST 2025
User: james
Spectrometer: FLMS14136
Trigger mode: 0
Integration Time (sec): 1.000000E-1
Scans to average: 1
Electric dark correction enabled: true
Nonlinearity correction enabled: false
Boxcar width: 0
XAxis mode: Wavelengths
Number of Pixels in Spectrum: 2048
>>>>>Begin Spectral Data<<<<<
339.315	-41.65
339.697	-41.65
340.079	-41.65
340.461	-179.53
340.843	-108.04
341.225	-125.91
341.607	-100.38
341.989	-102.93
342.371	-31.44
342.752	-92.72
343.134	-69.74
343.516	-62.08
343.897	-39.1
344.279	-3.35
344.661	-18.67
345.042	40.06
345.423	42.61
345.805	96.23
346.186	78.36
346.567	172.83
346.949	216.24
347.33	193.26
347.711	188.15
348.092	190.71
348.473	144.74
348.854	234.11
349.235	323.48
349.616	274.97
349.997	195.81
350.378	274.97
350.758	318.37
351.139	343.91
351.52	384.76
351.9	351.57
352.281	333.69
352.661	346.46
353.042	374.55
353.422	456.26
353.803	438.38
354.183	349.01
354.563	410.3
354.943	343.91
355.324	308.16
355.704	308.16
356.084	377.1
356.464	397.53
356.844	343.91
357.224	387.32
357.603	382.21
357.983	394.98
358.363	394.98
358.743	349.01
359.122	354.12
359.502	336.25
359.882	379.66
360.261	369.44
360.641	361.78
361.02	308.16
361.399	303.05
361.779	341.35
362.158	341.35
362.537	274.97
362.916	438.38
363.296	369.44
363.675	402.64
364.054	351.57
364.433	287.73
364.812	364.34
365.19	428.17
365.569	320.93
365.948	346.46
366.327	320.93
366.705	338.8
367.084	308.16
367.463	290.29
367.841	349.01
368.22	372
368.598	295.39
368.977	285.18
369.355	361.78
369.733	285.18
370.111	310.71
370.49	318.37
370.868	318.37
371.246	377.1
371.624	400.08
372.002	417.96
372.38	377.1
372.758	341.35
373.136	374.55
373.513	366.89
373.891	389.87
374.269	379.66
374.646	387.32
375.024	359.23
375.402	394.98
375.779	382.21
376.157	341.35
376.534	328.59
376.911	315.82
377.289	323.48
377.666	372
378.043	361.78
378.42	387.32
378.797	369.44
379.175	354.12
379.552	336.25
379.929	361.78
380.305	364.34
380.682	290.29
381.059	389.87
381.436	389.87
381.813	382.21
382.189	308.16
382.566	336.25
382.943	361.78
383.319	331.14
383.696	336.25
384.072	377.1
384.448	277.52
384.825	285.18
385.201	366.89
385.577	333.69
385.953	328.59
386.329	346.46
386.706	349.01
387.082	400.08
387.458	303.05
387.834	402.64
388.209	349.01
388.585	361.78
388.961	346.46
389.337	400.08
389.713	397.53
390.088	300.5
390.464	382.21
390.839	354.12
391.215	351.57
391.59	379.66
391.966	351.57
392.341	346.46
392.716	400.08
393.092	351.57
393.467	331.14
393.842	274.97
394.217	374.55
394.592	361.78
394.967	315.82
395.342	341.35
395.717	349.01
396.092	359.23
396.467	402.64
396.841	384.76
397.216	366.89
397.591	412.85
397.965	397.53
398.34	326.03
398.714	379.66
399.089	400.08
399.463	392.42
399.838	440.94
400.212	415.4
400.586	366.89
400.961	361.78
401.335	300.5
401.709	356.67
402.083	303.05
402.457	394.98
402.831	382.21
403.205	372
403.579	446.04
403.953	420.51
404.326	374.55
404.7	372
405.074	458.81
405.447	446.04
405.821	412.85
406.195	379.66
406.568	341.35
406.942	461.36
407.315	405.19
407.688	407.74
408.062	351.57
408.435	417.96
408.808	428.17
409.181	328.59
409.554	354.12
409.927	331.14
410.3	364.34
410.673	384.76
411.046	366.89
411.419	343.91
411.792	341.35
412.165	308.16
412.537	364.34
412.91	405.19
413.283	446.04
413.655	372
414.028	423.06
414.4	364.34
414.773	405.19
415.145	379.66
415.517	346.46
415.889	326.03
416.262	369.44
416.634	389.87
417.006	382.21
417.378	400.08
417.75	379.66
418.122	428.17
418.494	356.67
418.866	392.42
419.238	346.46
419.609	372
419.981	384.76
420.353	405.19
420.725	290.29
421.096	435.83
421.468	346.46
421.839	354.12
422.211	446.04
422.582	423.06
422.953	405.19
423.325	410.3
423.696	400.08
424.067	400.08
424.438	392.42
424.809	374.55
425.18	305.61
425.551	382.21
425.922	361.78
426.293	417.96
426.664	435.83
427.035	420.51
427.406	331.14
427.776	448.6
428.147	415.4
428.518	410.3
428.888	351.57
429.259	402.64
429.629	400.08
429.999	333.69
430.37	412.85
430.74	387.32
431.11	341.35
431.481	387.32
431.851	400.08
432.221	356.67
432.591	400.08
432.961	315.82
433.331	374.55
433.701	382.21
434.071	394.98
434.441	494.56
434.81	374.55
435.18	338.8
435.55	407.74
435.919	400.08
436.289	387.32
436.658	410.3
437.028	346.46
437.397	435.83
437.767	412.85
438.136	405.19
438.505	341.35
438.875	394.98
439.244	354.12
439.613	397.53
439.982	435.83
440.351	438.38
440.72	435.83
441.089	374.55
441.458	369.44
441.827	389.87
442.196	369.44
442.564	435.83
442.933	456.26
443.302	417.96
443.67	407.74
444.039	387.32
444.407	415.4
444.776	394.98
445.144	354.12
445.513	400.08
445.881	471.58
446.249	359.23
446.617	313.27
446.986	384.76
447.354	423.06
447.722	397.53
448.09	392.42
448.458	430.72
448.826	410.3
449.194	412.85
449.561	333.69
449.929	428.17
450.297	387.32
450.665	377.1
451.032	346.46
451.4	415.4
451.767	389.87
452.135	461.36
452.502	379.66
452.87	338.8
453.237	379.66
453.604	438.38
453.971	407.74
454.339	489.45
454.706	417.96
455.073	387.32
455.44	379.66
455.807	369.44
456.174	415.4
456.541	369.44
456.908	384.76
457.274	361.78
457.641	366.89
458.008	466.47
458.374	397.53
458.741	359.23
459.108	412.85
459.474	420.51
459.841	425.62
460.207	405.19
460.573	336.25
460.94	351.57
461.306	433.28
461.672	435.83
462.038	415.4
462.404	425.62
462.771	423.06
463.137	402.64
463.503	446.04
463.868	456.26
464.234	440.94
464.6	402.64
464.966	377.1
465.332	415.4
465.697	435.83
466.063	423.06
466.429	417.96
466.794	343.91
467.16	425.62
467.525	384.76
467.89	458.81
468.256	394.98
468.621	456.26
468.986	364.34
469.351	425.62
469.717	379.66
470.082	456.26
470.447	415.4
470.812	415.4
471.177	435.83
471.542	484.34
471.906	405.19
472.271	318.37
472.636	394.98
473.001	349.01
473.365	407.74
473.73	476.68
474.094	397.53
474.459	379.66
474.823	402.64
475.188	384.76
475.552	451.15
475.917	379.66
476.281	453.7
476.645	433.28
477.009	492
477.373	423.06
477.737	417.96
478.101	372
478.465	402.64
478.829	387.32
479.193	433.28
479.557	323.48
479.921	433.28
480.284	469.02
480.648	384.76
481.012	407.74
481.375	354.12
481.739	361.78
482.102	405.19
482.466	384.76
482.829	476.68
483.193	430.72
483.556	341.35
483.919	400.08
484.282	405.19
484.645	338.8
485.009	392.42
485.372	382.21
485.735	346.46
486.098	389.87
486.46	412.85
486.823	372
487.186	361.78
487.549	405.19
487.912	407.74
488.274	407.74
488.637	433.28
488.999	407.74
489.362	451.15
489.724	405.19
490.087	389.87
490.449	412.85
490.811	476.68
491.174	356.67
491.536	374.55
491.898	417.96
492.26	417.96
492.622	389.87
492.984	400.08
493.346	374.55
493.708	435.83
494.07	410.3
494.432	412.85
494.794	397.53
495.155	400.08
495.517	394.98
495.879	397.53
496.24	377.1
496.602	354.12
496.963	412.85
497.325	384.76
497.686	374.55
498.048	384.76
498.409	369.44
498.77	463.92
499.131	364.34
499.492	435.83
499.854	532.86
500.215	443.49
500.576	448.6
500.937	384.76
501.298	389.87
501.658	469.02
502.019	392.42
502.38	354.12
502.741	400.08
503.101	351.57
503.462	405.19
503.823	443.49
504.183	507.32
504.543	433.28
504.904	366.89
505.264	410.3
505.625	382.21
505.985	323.48
506.345	479.24
506.705	425.62
507.065	423.06
507.426	366.89
507.786	349.01
508.146	323.48
508.505	430.72
508.865	377.1
509.225	430.72
509.585	463.92
509.945	364.34
510.304	417.96
510.664	466.47
511.024	514.98
511.383	453.7
511.743	400.08
512.102	384.76
512.462	374.55
512.821	438.38
513.18	305.61
513.539	392.42
513.899	328.59
514.258	384.76
514.617	384.76
514.976	394.98
515.335	423.06
515.694	387.32
516.053	364.34
516.412	313.27
516.771	425.62
517.129	448.6
517.488	420.51
517.847	410.3
518.205	394.98
518.564	384.76
518.922	435.83
519.281	397.53
519.639	387.32
519.998	415.4
520.356	415.4
520.714	486.9
521.073	400.08
521.431	446.04
521.789	354.12
522.147	389.87
522.505	415.4
522.863	438.38
523.221	446.04
523.579	420.51
523.937	423.06
524.295	405.19
524.652	420.51
525.01	369.44
525.368	366.89
525.725	417.96
526.083	359.23
526.44	428.17
526.798	407.74
527.155	410.3
527.513	338.8
527.87	423.06
528.227	379.66
528.584	400.08
528.942	315.82
529.299	392.42
529.656	361.78
530.013	351.57
530.37	361.78
530.727	410.3
531.083	336.25
531.44	458.81
531.797	407.74
532.154	402.64
532.511	423.06
532.867	410.3
533.224	400.08
533.58	425.62
533.937	412.85
534.293	372
534.65	423.06
535.006	372
535.362	415.4
535.718	428.17
536.075	382.21
536.431	392.42
536.787	326.03
537.143	369.44
537.499	420.51
537.855	407.74
538.211	402.64
538.567	379.66
538.923	387.32
539.278	438.38
539.634	415.4
539.99	448.6
540.345	356.67
540.701	343.91
541.056	338.8
541.412	333.69
541.767	389.87
542.123	430.72
542.478	384.76
542.833	392.42
543.188	415.4
543.544	407.74
543.899	392.42
544.254	405.19
544.609	423.06
544.964	420.51
545.319	359.23
545.674	392.42
546.029	369.44
546.383	382.21
546.738	361.78
547.093	387.32
547.447	356.67
547.802	433.28
548.157	392.42
548.511	423.06
548.866	456.26
549.22	410.3
549.574	366.89
549.929	382.21
550.283	392.42
550.637	389.87
550.991	407.74
551.345	430.72
551.699	423.06
552.053	382.21
552.407	458.81
552.761	389.87
553.115	387.32
553.469	474.13
553.823	372
554.176	461.36
554.53	351.57
554.884	425.62
555.237	581.37
555.591	382.21
555.944	458.81
556.298	397.53
556.651	446.04
557.005	420.51
557.358	377.1
557.711	466.47
558.064	451.15
558.417	435.83
558.771	458.81
559.124	389.87
559.477	451.15
559.83	356.67
560.182	405.19
560.535	430.72
560.888	438.38
561.241	407.74
561.594	359.23
561.946	354.12
562.299	341.35
562.651	405.19
563.004	405.19
563.356	433.28
563.709	318.37
564.061	361.78
564.413	405.19
564.766	374.55
565.118	412.85
565.47	443.49
565.822	392.42
566.174	389.87
566.526	430.72
566.878	443.49
567.23	366.89
567.582	402.64
567.934	397.53
568.286	433.28
568.638	443.49
568.989	440.94
569.341	392.42
569.693	359.23
570.044	407.74
570.396	366.89
570.747	423.06
571.098	443.49
571.45	407.74
571.801	456.26
572.152	384.76
572.504	397.53
572.855	402.64
573.206	405.19
573.557	343.91
573.908	400.08
574.259	451.15
574.61	423.06
574.961	364.34
575.311	440.94
575.662	458.81
576.013	366.89
576.364	443.49
576.714	435.83
577.065	412.85
577.415	359.23
577.766	394.98
578.116	366.89
578.467	359.23
578.817	377.1
579.167	351.57
579.518	384.76
579.868	313.27
580.218	361.78
580.568	415.4
580.918	351.57
581.268	389.87
581.618	400.08
581.968	397.53
582.318	415.4
582.668	407.74
583.017	361.78
583.367	428.17
583.717	389.87
584.066	420.51
584.416	359.23
584.765	458.81
585.115	471.58
585.464	372
585.814	346.46
586.163	423.06
586.512	410.3
586.862	397.53
587.211	366.89
587.56	410.3
587.909	351.57
588.258	402.64
588.607	394.98
588.956	420.51
589.305	428.17
589.654	448.6
590.002	458.81
590.351	415.4
590.7	336.25
591.048	338.8
591.397	394.98
591.746	389.87
592.094	394.98
592.443	364.34
592.791	320.93
593.139	461.36
593.488	423.06
593.836	430.72
594.184	359.23
594.532	372
594.88	407.74
595.228	412.85
595.576	397.53
595.924	397.53
596.272	407.74
596.62	440.94
596.968	407.74
597.316	430.72
597.664	384.76
598.011	359.23
598.359	433.28
598.706	354.12
599.054	382.21
599.402	415.4
599.749	448.6
600.096	423.06
600.444	420.51
600.791	458.81
601.138	394.98
601.485	410.3
601.833	361.78
602.18	372
602.527	446.04
602.874	359.23
603.221	387.32
603.568	433.28
603.914	428.17
604.261	384.76
604.608	341.35
604.955	425.62
605.301	407.74
605.648	374.55
605.995	338.8
606.341	382.21
606.688	389.87
607.034	425.62
607.38	400.08
607.727	453.7
608.073	387.32
608.419	361.78
608.765	384.76
609.112	351.57
609.458	438.38
609.804	374.55
610.15	438.38
610.496	389.87
610.842	438.38
611.187	435.83
611.533	425.62
611.879	359.23
612.225	423.06
612.57	430.72
612.916	379.66
613.261	425.62
613.607	458.81
613.952	448.6
614.298	438.38
614.643	428.17
614.989	389.87
615.334	349.01
615.679	328.59
616.024	420.51
616.369	476.68
616.714	438.38
617.059	397.53
617.404	402.64
617.749	346.46
618.094	394.98
618.439	440.94
618.784	430.72
619.129	397.53
619.473	405.19
619.818	446.04
620.163	438.38
620.507	382.21
620.852	384.76
621.196	364.34
621.54	405.19
621.885	410.3
622.229	402.64
622.573	394.98
622.918	435.83
623.262	364.34
623.606	402.64
623.95	387.32
624.294	425.62
624.638	343.91
624.982	425.62
625.326	402.64
625.67	379.66
626.013	389.87
626.357	343.91
626.701	349.01
627.044	356.67
627.388	387.32
627.731	361.78
628.075	374.55
628.418	412.85
628.762	481.79
629.105	425.62
629.448	438.38
629.792	394.98
630.135	402.64
630.478	377.1
630.821	343.91
631.164	364.34
631.507	359.23
631.85	341.35
632.193	405.19
632.536	359.23
632.879	343.91
633.221	438.38
633.564	417.96
633.907	303.05
634.249	372
634.592	343.91
634.935	440.94
635.277	492
635.619	420.51
635.962	479.24
636.304	400.08
636.646	423.06
636.989	377.1
637.331	397.53
637.673	394.98
638.015	433.28
638.357	341.35
638.699	394.98
639.041	343.91
639.383	374.55
639.725	412.85
640.067	423.06
640.408	364.34
640.75	389.87
641.092	384.76
641.433	372
641.775	366.89
642.116	440.94
642.458	377.1
642.799	338.8
643.141	336.25
643.482	323.48
643.823	402.64
644.164	349.01
644.506	423.06
644.847	415.4
645.188	384.76
645.529	326.03
645.87	397.53
646.211	412.85
646.552	394.98
646.893	374.55
647.233	415.4
647.574	425.62
647.915	382.21
648.255	400.08
648.596	435.83
648.937	466.47
649.277	374.55
649.618	377.1
649.958	417.96
650.298	425.62
650.639	374.55
650.979	359.23
651.319	389.87
651.659	354.12
651.999	384.76
652.339	354.12
652.679	346.46
653.019	438.38
653.359	410.3
653.699	313.27
654.039	420.51
654.379	400.08
654.719	425.62
655.058	474.13
655.398	374.55
655.737	417.96
656.077	382.21
656.416	343.91
656.756	336.25
657.095	369.44
657.435	389.87
657.774	392.42
658.113	389.87
658.452	374.55
658.792	356.67
659.131	443.49
659.47	366.89
659.809	407.74
660.148	349.01
660.487	379.66
660.826	448.6
661.164	440.94
661.503	466.47
661.842	382.21
662.181	382.21
662.519	379.66
662.858	377.1
663.196	379.66
663.535	392.42
663.873	372
664.212	412.85
664.55	338.8
664.888	366.89
665.226	448.6
665.565	361.78
665.903	530.3
666.241	438.38
666.579	451.15
666.917	369.44
667.255	361.78
667.593	410.3
667.931	394.98
668.268	361.78
668.606	443.49
668.944	387.32
669.282	428.17
669.619	440.94
669.957	407.74
670.294	417.96
670.632	369.44
670.969	410.3
671.307	428.17
671.644	440.94
671.981	400.08
672.318	336.25
672.656	407.74
672.993	400.08
673.33	392.42
673.667	412.85
674.004	440.94
674.341	384.76
674.678	377.1
675.015	402.64
675.351	448.6
675.688	392.42
676.025	400.08
676.362	359.23
676.698	326.03
677.035	297.95
677.371	453.7
677.708	412.85
678.044	443.49
678.38	394.98
678.717	331.14
679.053	372
679.389	423.06
679.725	402.64
680.062	394.98
680.398	423.06
680.734	387.32
681.07	336.25
681.406	372
681.742	394.98
682.077	366.89
682.413	461.36
682.749	359.23
683.085	377.1
683.42	379.66
683.756	364.34
684.091	448.6
684.427	331.14
684.762	369.44
685.098	336.25
685.433	328.59
685.768	343.91
686.104	361.78
686.439	361.78
686.774	394.98
687.109	351.57
687.444	374.55
687.779	300.5
688.114	315.82
688.449	328.59
688.784	382.21
689.119	430.72
689.454	382.21
689.789	410.3
690.123	407.74
690.458	361.78
690.792	412.85
691.127	356.67
691.461	341.35
691.796	420.51
692.13	387.32
692.465	382.21
692.799	369.44
693.133	438.38
693.467	417.96
693.802	492
694.136	382.21
694.47	372
694.804	384.76
695.138	384.76
695.472	377.1
695.806	407.74
696.139	361.78
696.473	333.69
696.807	379.66
697.141	318.37
697.474	435.83
697.808	412.85
698.141	338.8
698.475	402.64
698.808	382.21
699.142	420.51
699.475	341.35
699.808	372
700.142	361.78
700.475	443.49
700.808	397.53
701.141	361.78
701.474	377.1
701.807	438.38
702.14	417.96
702.473	446.04
702.806	377.1
703.139	400.08
703.472	394.98
703.804	359.23
704.137	354.12
704.47	400.08
704.802	392.42
705.135	359.23
705.467	382.21
705.8	394.98
706.132	300.5
706.464	423.06
706.797	433.28
707.129	433.28
707.461	359.23
707.793	310.71
708.125	356.67
708.457	351.57
708.789	356.67
709.121	382.21
709.453	356.67
709.785	349.01
710.117	392.42
710.449	364.34
710.781	453.7
711.112	384.76
711.444	428.17
711.775	366.89
712.107	410.3
712.438	346.46
712.77	410.3
713.101	374.55
713.433	328.59
713.764	320.93
714.095	323.48
714.426	351.57
714.757	349.01
715.089	300.5
715.42	397.53
715.751	389.87
716.082	377.1
716.412	407.74
716.743	377.1
717.074	405.19
717.405	361.78
717.736	420.51
718.066	379.66
718.397	374.55
718.727	400.08
719.058	356.67
719.388	387.32
719.719	361.78
720.049	415.4
720.38	377.1
720.71	374.55
721.04	359.23
721.37	341.35
721.7	400.08
722.031	359.23
722.361	384.76
722.691	407.74
723.021	372
723.35	387.32
723.68	412.85
724.01	364.34
724.34	420.51
724.67	356.67
724.999	364.34
725.329	305.61
725.658	333.69
725.988	351.57
726.317	384.76
726.647	400.08
726.976	328.59
727.306	379.66
727.635	351.57
727.964	425.62
728.293	417.96
728.622	305.61
728.952	377.1
729.281	423.06
729.61	333.69
729.939	374.55
730.267	389.87
730.596	379.66
730.925	417.96
731.254	394.98
731.583	446.04
731.911	397.53
732.24	372
732.568	405.19
732.897	379.66
733.225	354.12
733.554	410.3
733.882	438.38
734.21	400.08
734.539	428.17
734.867	420.51
735.195	428.17
735.523	415.4
735.851	407.74
736.179	359.23
736.507	346.46
736.835	389.87
737.163	379.66
737.491	389.87
737.819	407.74
738.147	389.87
738.474	387.32
738.802	397.53
739.13	433.28
739.457	405.19
739.785	372
740.112	313.27
740.44	384.76
740.767	397.53
741.094	466.47
741.422	366.89
741.749	374.55
742.076	394.98
742.403	456.26
742.73	349.01
743.057	394.98
743.384	384.76
743.711	451.15
744.038	394.98
744.365	443.49
744.692	435.83
745.018	374.55
745.345	402.64
745.672	425.62
745.998	372
746.325	451.15
746.651	430.72
746.978	387.32
747.304	292.84
747.631	402.64
747.957	377.1
748.283	402.64
748.61	308.16
748.936	379.66
749.262	392.42
749.588	440.94
749.914	397.53
750.24	351.57
750.566	341.35
750.892	402.64
751.218	382.21
751.543	435.83
751.869	417.96
752.195	341.35
752.521	402.64
752.846	382.21
753.172	384.76
753.497	318.37
753.823	346.46
754.148	417.96
754.473	407.74
754.799	338.8
755.124	351.57
755.449	384.76
755.774	410.3
756.1	384.76
756.425	372
756.75	382.21
757.075	446.04
757.4	566.05
757.724	410.3
758.049	397.53
758.374	402.64
758.699	364.34
759.024	346.46
759.348	372
759.673	323.48
759.997	346.46
760.322	435.83
760.646	420.51
760.971	387.32
761.295	389.87
761.619	405.19
761.944	374.55
762.268	387.32
762.592	481.79
762.916	514.98
763.24	476.68
763.564	476.68
763.888	522.64
764.212	494.56
764.536	555.84
764.86	604.35
765.184	634.99
765.508	647.76
765.831	642.65
766.155	933.74
766.478	709.04
766.802	688.61
767.126	749.9
767.449	772.88
767.772	887.78
768.096	974.59
768.419	846.92
768.742	918.42
769.066	1023.11
769.389	1007.79
769.712	979.7
770.035	1018
770.358	1166.1
770.681	1214.61
771.004	1166.1
771.327	1171.2
771.65	1222.27
771.972	1352.49
772.295	1360.15
772.618	1362.71
772.941	1334.62
773.263	1441.86
773.586	1515.91
773.908	1602.72
774.231	1679.32
774.553	1712.52
774.875	1868.27
775.198	1944.88
775.52	1881.04
775.842	1832.53
776.164	1789.12
776.487	1748.27
776.809	1893.81
777.131	1847.85
777.453	1878.49
777.775	1904.02
778.096	2001.05
778.418	2041.9
778.74	1870.83
779.062	1942.32
779.384	2225.75
779.705	2488.75
780.027	2682.8
780.348	2680.25
780.67	2608.75
780.991	2759.4
781.313	2922.82
781.634	3060.7
781.955	2956.01
782.277	2761.96
782.598	2848.77
782.919	2767.06
783.24	2820.68
783.561	2864.09
783.882	2782.38
784.203	2907.5
784.524	2968.78
784.845	2782.38
785.166	2588.33
785.487	2639.39
785.807	2595.99
786.128	2631.73
786.449	2629.18
786.769	2705.78
787.09	2746.64
787.41	2991.76
787.731	3132.2
788.051	3390.09
788.372	3423.28
788.692	3714.37
789.012	3739.9
789.332	3831.82
789.653	3954.38
789.973	4278.66
790.293	4066.73
790.613	3533.08
790.933	3359.45
791.253	3267.53
791.573	3081.13
791.893	2874.31
792.212	2948.35
792.532	2815.58
792.852	2677.7
793.171	2580.67
793.491	2424.91
793.811	2539.81
794.13	2493.85
794.45	2583.22
794.769	2504.07
795.088	2751.74
795.408	2764.51
795.727	2945.8
796.046	2815.58
796.365	2802.81
796.684	2552.58
797.004	2590.88
797.323	2649.61
797.642	2948.35
797.96	2864.09
798.279	2815.58
798.598	2790.04
798.917	2664.93
799.236	2381.5
799.554	2332.99
799.873	2310.01
800.192	2353.42
800.51	2345.76
800.829	2358.52
801.147	2235.96
801.466	2205.32
