Data from 2025-12-03_xpw_interference_micrometer_634_reference_FLMS141361__158__408.txt Node

Date: Wed Dec 03 15:51:28 MST 2025
User: james
Spectrometer: FLMS14136
Trigger mode: 0
Integration Time (sec): 1.000000E-1
Scans to average: 1
Electric dark correction enabled: true
Nonlinearity correction enabled: false
Boxcar width: 0
XAxis mode: Wavelengths
Number of Pixels in Spectrum: 2048
>>>>>Begin Spectral Data<<<<<
339.315	-71.81
339.697	-71.81
340.079	-71.81
340.461	-127.99
340.843	-99.9
341.225	-66.71
341.607	-125.43
341.989	-138.2
342.371	-84.58
342.752	-107.56
343.134	-99.9
343.516	-59.05
343.897	2.23
344.279	37.98
344.661	12.45
345.042	30.32
345.423	86.5
345.805	117.14
346.186	129.9
346.567	147.78
346.949	117.14
347.33	140.12
347.711	165.65
348.092	165.65
348.473	175.86
348.854	257.57
349.235	237.14
349.616	326.51
349.997	229.48
350.378	316.3
350.758	300.98
351.139	280.55
351.52	275.45
351.9	339.28
352.281	346.94
352.661	308.64
353.042	354.6
353.422	454.18
353.803	454.18
354.183	428.65
354.563	377.58
354.943	364.81
355.324	436.31
355.704	415.88
356.084	316.3
356.464	449.08
356.844	461.84
357.224	395.45
357.603	405.67
357.983	372.47
358.363	428.65
358.743	362.26
359.122	369.92
359.502	395.45
359.882	293.32
360.261	367.37
360.641	339.28
361.02	362.26
361.399	308.64
361.779	369.92
362.158	387.79
362.537	398.01
362.916	308.64
363.296	392.9
363.675	398.01
364.054	418.43
364.433	398.01
364.812	326.51
365.19	359.71
365.569	295.87
365.948	377.58
366.327	346.94
366.705	357.15
367.084	362.26
367.463	357.15
367.841	346.94
368.22	423.54
368.598	392.9
368.977	369.92
369.355	382.69
369.733	331.62
370.111	323.96
370.49	390.35
370.868	341.83
371.246	334.17
371.624	410.77
372.002	415.88
372.38	382.69
372.758	359.71
373.136	334.17
373.513	352.05
373.891	364.81
374.269	323.96
374.646	362.26
375.024	364.81
375.402	339.28
375.779	364.81
376.157	293.32
376.534	334.17
376.911	349.49
377.289	331.62
377.666	375.03
378.043	313.75
378.42	441.42
378.797	398.01
379.175	385.24
379.552	395.45
379.929	385.24
380.305	352.05
380.682	331.62
381.059	375.03
381.436	313.75
381.813	334.17
382.189	369.92
382.566	375.03
382.943	364.81
383.319	405.67
383.696	441.42
384.072	331.62
384.448	405.67
384.825	318.85
385.201	369.92
385.577	392.9
385.953	354.6
386.329	410.77
386.706	377.58
387.082	346.94
387.458	364.81
387.834	329.07
388.209	346.94
388.585	443.97
388.961	300.98
389.337	375.03
389.713	341.83
390.088	382.69
390.464	349.49
390.839	375.03
391.215	323.96
391.59	420.99
391.966	390.35
392.341	382.69
392.716	415.88
393.092	395.45
393.467	346.94
393.842	382.69
394.217	359.71
394.592	375.03
394.967	339.28
395.342	398.01
395.717	359.71
396.092	341.83
396.467	405.67
396.841	403.11
397.216	449.08
397.591	428.65
397.965	395.45
398.34	364.81
398.714	410.77
399.089	362.26
399.463	382.69
399.838	415.88
400.212	400.56
400.586	403.11
400.961	329.07
401.335	359.71
401.709	420.99
402.083	352.05
402.457	369.92
402.831	449.08
403.205	428.65
403.579	362.26
403.953	349.49
404.326	387.79
404.7	326.51
405.074	387.79
405.447	359.71
405.821	387.79
406.195	423.54
406.568	469.5
406.942	433.76
407.315	413.33
407.688	372.47
408.062	359.71
408.435	438.86
408.808	395.45
409.181	359.71
409.554	385.24
409.927	367.37
410.3	469.5
410.673	323.96
411.046	403.11
411.419	410.77
411.792	387.79
412.165	382.69
412.537	405.67
412.91	380.13
413.283	392.9
413.655	382.69
414.028	385.24
414.4	380.13
414.773	362.26
415.145	318.85
415.517	354.6
415.889	349.49
416.262	377.58
416.634	400.56
417.006	362.26
417.378	385.24
417.75	367.37
418.122	336.73
418.494	413.33
418.866	415.88
419.238	369.92
419.609	362.26
419.981	408.22
420.353	364.81
420.725	390.35
421.096	392.9
421.468	466.95
421.839	392.9
422.211	400.56
422.582	398.01
422.953	395.45
423.325	461.84
423.696	451.63
424.067	489.93
424.438	413.33
424.809	441.42
425.18	387.79
425.551	357.15
425.922	403.11
426.293	380.13
426.664	392.9
427.035	459.29
427.406	300.98
427.776	344.39
428.147	377.58
428.518	380.13
428.888	438.86
429.259	380.13
429.629	405.67
429.999	336.73
430.37	367.37
430.74	387.79
431.11	331.62
431.481	354.6
431.851	392.9
432.221	449.08
432.591	418.43
432.961	395.45
433.331	436.31
433.701	380.13
434.071	418.43
434.441	474.61
434.81	410.77
435.18	369.92
435.55	428.65
435.919	413.33
436.289	436.31
436.658	438.86
437.028	336.73
437.397	341.83
437.767	380.13
438.136	385.24
438.505	300.98
438.875	367.37
439.244	349.49
439.613	459.29
439.982	400.56
440.351	349.49
440.72	408.22
441.089	382.69
441.458	387.79
441.827	362.26
442.196	428.65
442.564	474.61
442.933	385.24
443.302	433.76
443.67	390.35
444.039	367.37
444.407	431.2
444.776	415.88
445.144	369.92
445.513	433.76
445.881	392.9
446.249	449.08
446.617	354.6
446.986	454.18
447.354	380.13
447.722	359.71
448.09	341.83
448.458	385.24
448.826	477.16
449.194	418.43
449.561	341.83
449.929	369.92
450.297	339.28
450.665	369.92
451.032	362.26
451.4	441.42
451.767	469.5
452.135	387.79
452.502	438.86
452.87	339.28
453.237	423.54
453.604	387.79
453.971	382.69
454.339	413.33
454.706	392.9
455.073	446.52
455.44	413.33
455.807	431.2
456.174	446.52
456.541	441.42
456.908	461.84
457.274	400.56
457.641	392.9
458.008	420.99
458.374	403.11
458.741	377.58
459.108	418.43
459.474	395.45
459.841	433.76
460.207	482.27
460.573	413.33
460.94	413.33
461.306	390.35
461.672	426.09
462.038	357.15
462.404	405.67
462.771	390.35
463.137	413.33
463.503	405.67
463.868	408.22
464.234	334.17
464.6	398.01
464.966	344.39
465.332	400.56
465.697	398.01
466.063	385.24
466.429	469.5
466.794	420.99
467.16	403.11
467.525	403.11
467.89	400.56
468.256	413.33
468.621	433.76
468.986	415.88
469.351	446.52
469.717	443.97
470.082	400.56
470.447	400.56
470.812	390.35
471.177	410.77
471.542	456.74
471.906	382.69
472.271	433.76
472.636	387.79
473.001	387.79
473.365	461.84
473.73	405.67
474.094	426.09
474.459	484.82
474.823	454.18
475.188	443.97
475.552	431.2
475.917	466.95
476.281	405.67
476.645	436.31
477.009	400.56
477.373	403.11
477.737	344.39
478.101	410.77
478.465	339.28
478.829	357.15
479.193	415.88
479.557	369.92
479.921	398.01
480.284	398.01
480.648	357.15
481.012	349.49
481.375	357.15
481.739	449.08
482.102	377.58
482.466	428.65
482.829	474.61
483.193	372.47
483.556	428.65
483.919	372.47
484.282	413.33
484.645	369.92
485.009	400.56
485.372	413.33
485.735	426.09
486.098	405.67
486.46	367.37
486.823	367.37
487.186	339.28
487.549	354.6
487.912	436.31
488.274	408.22
488.637	423.54
488.999	464.4
489.362	415.88
489.724	405.67
490.087	403.11
490.449	446.52
490.811	420.99
491.174	410.77
491.536	405.67
491.898	385.24
492.26	415.88
492.622	423.54
492.984	377.58
493.346	375.03
493.708	420.99
494.07	410.77
494.432	369.92
494.794	469.5
495.155	461.84
495.517	449.08
495.879	398.01
496.24	443.97
496.602	352.05
496.963	372.47
497.325	469.5
497.686	454.18
498.048	426.09
498.409	436.31
498.77	390.35
499.131	387.79
499.492	385.24
499.854	359.71
500.215	380.13
500.576	443.97
500.937	418.43
501.298	487.38
501.658	357.15
502.019	433.76
502.38	369.92
502.741	423.54
503.101	436.31
503.462	423.54
503.823	354.6
504.183	398.01
504.543	441.42
504.904	400.56
505.264	400.56
505.625	375.03
505.985	423.54
506.345	449.08
506.705	449.08
507.065	449.08
507.426	436.31
507.786	415.88
508.146	403.11
508.505	423.54
508.865	433.76
509.225	380.13
509.585	502.7
509.945	390.35
510.304	451.63
510.664	420.99
511.024	403.11
511.383	510.36
511.743	413.33
512.102	479.72
512.462	438.86
512.821	420.99
513.18	484.82
513.539	431.2
513.899	418.43
514.258	413.33
514.617	387.79
514.976	359.71
515.335	357.15
515.694	438.86
516.053	441.42
516.412	392.9
516.771	454.18
517.129	438.86
517.488	387.79
517.847	367.37
518.205	375.03
518.564	426.09
518.922	418.43
519.281	382.69
519.639	377.58
519.998	390.35
520.356	477.16
520.714	418.43
521.073	390.35
521.431	372.47
521.789	341.83
522.147	395.45
522.505	474.61
522.863	392.9
523.221	420.99
523.579	456.74
523.937	395.45
524.295	451.63
524.652	410.77
525.01	433.76
525.368	390.35
525.725	472.06
526.083	357.15
526.44	398.01
526.798	395.45
527.155	372.47
527.513	357.15
527.87	433.76
528.227	423.54
528.584	487.38
528.942	436.31
529.299	362.26
529.656	380.13
530.013	369.92
530.37	405.67
530.727	405.67
531.083	410.77
531.44	423.54
531.797	474.61
532.154	385.24
532.511	461.84
532.867	454.18
533.224	364.81
533.58	426.09
533.937	400.56
534.293	423.54
534.65	431.2
535.006	420.99
535.362	426.09
535.718	454.18
536.075	426.09
536.431	469.5
536.787	454.18
537.143	415.88
537.499	431.2
537.855	431.2
538.211	443.97
538.567	380.13
538.923	436.31
539.278	362.26
539.634	382.69
539.99	380.13
540.345	387.79
540.701	426.09
541.056	405.67
541.412	420.99
541.767	459.29
542.123	372.47
542.478	441.42
542.833	436.31
543.188	413.33
543.544	459.29
543.899	420.99
544.254	357.15
544.609	375.03
544.964	395.45
545.319	352.05
545.674	377.58
546.029	392.9
546.383	426.09
546.738	410.77
547.093	385.24
547.447	438.86
547.802	420.99
548.157	410.77
548.511	423.54
548.866	431.2
549.22	403.11
549.574	387.79
549.929	413.33
550.283	415.88
550.637	418.43
550.991	395.45
551.345	433.76
551.699	451.63
552.053	410.77
552.407	367.37
552.761	380.13
553.115	380.13
553.469	428.65
553.823	382.69
554.176	443.97
554.53	392.9
554.884	392.9
555.237	643.13
555.591	436.31
555.944	400.56
556.298	461.84
556.651	446.52
557.005	357.15
557.358	410.77
557.711	398.01
558.064	392.9
558.417	487.38
558.771	433.76
559.124	495.04
559.477	423.54
559.83	431.2
560.182	472.06
560.535	446.52
560.888	405.67
561.241	426.09
561.594	418.43
561.946	449.08
562.299	359.71
562.651	446.52
563.004	400.56
563.356	403.11
563.709	377.58
564.061	403.11
564.413	375.03
564.766	433.76
565.118	456.74
565.47	449.08
565.822	420.99
566.174	349.49
566.526	431.2
566.878	436.31
567.23	443.97
567.582	408.22
567.934	428.65
568.286	474.61
568.638	380.13
568.989	512.91
569.341	357.15
569.693	418.43
570.044	431.2
570.396	418.43
570.747	423.54
571.098	408.22
571.45	428.65
571.801	398.01
572.152	372.47
572.504	400.56
572.855	403.11
573.206	520.57
573.557	459.29
573.908	461.84
574.259	443.97
574.61	472.06
574.961	357.15
575.311	443.97
575.662	377.58
576.013	405.67
576.364	423.54
576.714	392.9
577.065	349.49
577.415	352.05
577.766	405.67
578.116	456.74
578.467	410.77
578.817	403.11
579.167	395.45
579.518	410.77
579.868	339.28
580.218	433.76
580.568	492.48
580.918	390.35
581.268	382.69
581.618	449.08
581.968	420.99
582.318	403.11
582.668	413.33
583.017	426.09
583.367	484.82
583.717	377.58
584.066	385.24
584.416	451.63
584.765	339.28
585.115	354.6
585.464	443.97
585.814	492.48
586.163	398.01
586.512	362.26
586.862	364.81
587.211	395.45
587.56	449.08
587.909	392.9
588.258	395.45
588.607	426.09
588.956	415.88
589.305	372.47
589.654	415.88
590.002	395.45
590.351	349.49
590.7	369.92
591.048	415.88
591.397	441.42
591.746	395.45
592.094	367.37
592.443	403.11
592.791	415.88
593.139	398.01
593.488	375.03
593.836	387.79
594.184	446.52
594.532	451.63
594.88	438.86
595.228	400.56
595.576	413.33
595.924	405.67
596.272	428.65
596.62	423.54
596.968	392.9
597.316	456.74
597.664	415.88
598.011	346.94
598.359	369.92
598.706	334.17
599.054	385.24
599.402	410.77
599.749	408.22
600.096	428.65
600.444	466.95
600.791	364.81
601.138	331.62
601.485	336.73
601.833	398.01
602.18	431.2
602.527	334.17
602.874	308.64
603.221	387.79
603.568	438.86
603.914	413.33
604.261	395.45
604.608	433.76
604.955	398.01
605.301	392.9
605.648	380.13
605.995	390.35
606.341	426.09
606.688	469.5
607.034	375.03
607.38	357.15
607.727	346.94
608.073	441.42
608.419	449.08
608.765	431.2
609.112	377.58
609.458	377.58
609.804	438.86
610.15	428.65
610.496	433.76
610.842	413.33
611.187	357.15
611.533	469.5
611.879	449.08
612.225	410.77
612.57	390.35
612.916	372.47
613.261	377.58
613.607	423.54
613.952	392.9
614.298	352.05
614.643	349.49
614.989	346.94
615.334	354.6
615.679	431.2
616.024	456.74
616.369	413.33
616.714	372.47
617.059	405.67
617.404	413.33
617.749	446.52
618.094	369.92
618.439	410.77
618.784	395.45
619.129	400.56
619.473	390.35
619.818	382.69
620.163	362.26
620.507	380.13
620.852	464.4
621.196	418.43
621.54	456.74
621.885	410.77
622.229	398.01
622.573	359.71
622.918	352.05
623.262	436.31
623.606	438.86
623.95	352.05
624.294	418.43
624.638	426.09
624.982	385.24
625.326	382.69
625.67	359.71
626.013	398.01
626.357	375.03
626.701	385.24
627.044	364.81
627.388	341.83
627.731	469.5
628.075	395.45
628.418	446.52
628.762	369.92
629.105	410.77
629.448	418.43
629.792	426.09
630.135	420.99
630.478	408.22
630.821	418.43
631.164	413.33
631.507	334.17
631.85	479.72
632.193	418.43
632.536	403.11
632.879	390.35
633.221	369.92
633.564	459.29
633.907	443.97
634.249	431.2
634.592	336.73
634.935	352.05
635.277	387.79
635.619	477.16
635.962	372.47
636.304	454.18
636.646	431.2
636.989	469.5
637.331	420.99
637.673	415.88
638.015	415.88
638.357	418.43
638.699	336.73
639.041	428.65
639.383	415.88
639.725	420.99
640.067	454.18
640.408	423.54
640.75	423.54
641.092	410.77
641.433	438.86
641.775	405.67
642.116	415.88
642.458	426.09
642.799	382.69
643.141	387.79
643.482	436.31
643.823	482.27
644.164	431.2
644.506	461.84
644.847	449.08
645.188	369.92
645.529	357.15
645.87	403.11
646.211	387.79
646.552	428.65
646.893	418.43
647.233	362.26
647.574	380.13
647.915	484.82
648.255	418.43
648.596	469.5
648.937	420.99
649.277	403.11
649.618	420.99
649.958	398.01
650.298	423.54
650.639	428.65
650.979	395.45
651.319	449.08
651.659	413.33
651.999	339.28
652.339	372.47
652.679	364.81
653.019	413.33
653.359	369.92
653.699	362.26
654.039	395.45
654.379	400.56
654.719	390.35
655.058	392.9
655.398	431.2
655.737	431.2
656.077	413.33
656.416	398.01
656.756	410.77
657.095	362.26
657.435	362.26
657.774	375.03
658.113	341.83
658.452	367.37
658.792	410.77
659.131	431.2
659.47	451.63
659.809	329.07
660.148	403.11
660.487	377.58
660.826	346.94
661.164	362.26
661.503	331.62
661.842	426.09
662.181	357.15
662.519	392.9
662.858	385.24
663.196	375.03
663.535	426.09
663.873	403.11
664.212	385.24
664.55	415.88
664.888	400.56
665.226	420.99
665.565	456.74
665.903	655.9
666.241	492.48
666.579	367.37
666.917	403.11
667.255	456.74
667.593	377.58
667.931	403.11
668.268	403.11
668.606	395.45
668.944	420.99
669.282	428.65
669.619	369.92
669.957	426.09
670.294	364.81
670.632	377.58
670.969	382.69
671.307	392.9
671.644	426.09
671.981	385.24
672.318	398.01
672.656	349.49
672.993	395.45
673.33	405.67
673.667	466.95
674.004	377.58
674.341	438.86
674.678	441.42
675.015	426.09
675.351	405.67
675.688	423.54
676.025	377.58
676.362	398.01
676.698	359.71
677.035	349.49
677.371	451.63
677.708	428.65
678.044	423.54
678.38	392.9
678.717	362.26
679.053	459.29
679.389	341.83
679.725	441.42
680.062	369.92
680.398	375.03
680.734	357.15
681.07	431.2
681.406	367.37
681.742	357.15
682.077	420.99
682.413	418.43
682.749	408.22
683.085	428.65
683.42	326.51
683.756	408.22
684.091	398.01
684.427	403.11
684.762	372.47
685.098	443.97
685.433	428.65
685.768	418.43
686.104	390.35
686.439	380.13
686.774	385.24
687.109	387.79
687.444	352.05
687.779	372.47
688.114	382.69
688.449	395.45
688.784	377.58
689.119	364.81
689.454	395.45
689.789	323.96
690.123	415.88
690.458	423.54
690.792	364.81
691.127	364.81
691.461	385.24
691.796	400.56
692.13	420.99
692.465	431.2
692.799	420.99
693.133	390.35
693.467	418.43
693.802	413.33
694.136	428.65
694.47	362.26
694.804	387.79
695.138	443.97
695.472	472.06
695.806	443.97
696.139	380.13
696.473	392.9
696.807	395.45
697.141	479.72
697.474	446.52
697.808	372.47
698.141	436.31
698.475	385.24
698.808	362.26
699.142	359.71
699.475	400.56
699.808	400.56
700.142	364.81
700.475	405.67
700.808	454.18
701.141	408.22
701.474	454.18
701.807	420.99
702.14	380.13
702.473	400.56
702.806	428.65
703.139	390.35
703.472	408.22
703.804	459.29
704.137	311.19
704.47	341.83
704.802	413.33
705.135	403.11
705.467	418.43
705.8	436.31
706.132	385.24
706.464	390.35
706.797	318.85
707.129	387.79
707.461	349.49
707.793	298.43
708.125	377.58
708.457	398.01
708.789	423.54
709.121	326.51
709.453	300.98
709.785	438.86
710.117	443.97
710.449	405.67
710.781	423.54
711.112	385.24
711.444	367.37
711.775	380.13
712.107	380.13
712.438	446.52
712.77	461.84
713.101	372.47
713.433	403.11
713.764	382.69
714.095	359.71
714.426	346.94
714.757	436.31
715.089	456.74
715.42	364.81
715.751	443.97
716.082	367.37
716.412	395.45
716.743	410.77
717.074	420.99
717.405	410.77
717.736	423.54
718.066	390.35
718.397	382.69
718.727	418.43
719.058	408.22
719.388	390.35
719.719	418.43
720.049	426.09
720.38	367.37
720.71	413.33
721.04	377.58
721.37	398.01
721.7	420.99
722.031	403.11
722.361	441.42
722.691	418.43
723.021	413.33
723.35	428.65
723.68	395.45
724.01	469.5
724.34	433.76
724.67	410.77
724.999	398.01
725.329	436.31
725.658	459.29
725.988	451.63
726.317	372.47
726.647	408.22
726.976	415.88
727.306	398.01
727.635	443.97
727.964	400.56
728.293	428.65
728.622	426.09
728.952	479.72
729.281	441.42
729.61	362.26
729.939	352.05
730.267	436.31
730.596	392.9
730.925	367.37
731.254	420.99
731.583	431.2
731.911	461.84
732.24	446.52
732.568	382.69
732.897	443.97
733.225	423.54
733.554	331.62
733.882	375.03
734.21	390.35
734.539	461.84
734.867	390.35
735.195	380.13
735.523	375.03
735.851	443.97
736.179	392.9
736.507	382.69
736.835	392.9
737.163	410.77
737.491	400.56
737.819	375.03
738.147	451.63
738.474	441.42
738.802	428.65
739.13	352.05
739.457	420.99
739.785	377.58
740.112	377.58
740.44	362.26
740.767	375.03
741.094	372.47
741.422	408.22
741.749	449.08
742.076	329.07
742.403	405.67
742.73	359.71
743.057	459.29
743.384	377.58
743.711	341.83
744.038	354.6
744.365	438.86
744.692	398.01
745.018	403.11
745.345	446.52
745.672	436.31
745.998	408.22
746.325	428.65
746.651	426.09
746.978	426.09
747.304	390.35
747.631	418.43
747.957	469.5
748.283	451.63
748.61	400.56
748.936	367.37
749.262	418.43
749.588	387.79
749.914	413.33
750.24	362.26
750.566	377.58
750.892	438.86
751.218	408.22
751.543	395.45
751.869	431.2
752.195	433.76
752.521	377.58
752.846	408.22
753.172	431.2
753.497	357.15
753.823	344.39
754.148	418.43
754.473	403.11
754.799	398.01
755.124	428.65
755.449	405.67
755.774	413.33
756.1	395.45
756.425	454.18
756.75	392.9
757.075	390.35
757.4	584.4
757.724	405.67
758.049	410.77
758.374	410.77
758.699	449.08
759.024	454.18
759.348	400.56
759.673	336.73
759.997	362.26
760.322	346.94
760.646	385.24
760.971	346.94
761.295	362.26
761.619	461.84
761.944	428.65
762.268	415.88
762.592	423.54
762.916	461.84
763.24	418.43
763.564	515.46
763.888	548.66
764.212	543.55
764.536	551.21
764.86	597.17
765.184	650.79
765.508	650.79
765.831	673.77
766.155	867.83
766.478	752.93
766.802	650.79
767.126	814.21
767.449	903.58
767.772	969.96
768.096	972.52
768.419	992.94
768.742	1033.8
769.066	1018.48
769.389	1107.85
769.712	1143.59
770.035	1107.85
770.358	1153.81
770.681	1232.96
771.004	1197.22
771.327	1291.69
771.65	1421.91
771.972	1495.96
772.295	1544.47
772.618	1429.57
772.941	1493.41
773.263	1501.07
773.586	1631.29
773.908	1776.83
774.231	1848.33
774.553	1945.35
774.875	2021.96
775.198	2085.79
775.52	2001.53
775.842	1976
776.164	1973.44
776.487	1981.1
776.809	1935.14
777.131	1996.42
777.453	2014.3
777.775	1970.89
778.096	2154.73
778.418	2198.14
778.74	2085.79
779.062	2093.45
779.384	2338.58
779.705	2619.45
780.027	2818.61
780.348	2833.93
780.67	2757.33
780.991	3007.56
781.313	3245.02
781.634	3313.97
781.955	3214.38
782.277	3038.2
782.598	3035.65
782.919	3045.86
783.24	3142.89
783.561	3153.1
783.882	3102.04
784.203	3053.52
784.524	3058.63
784.845	2913.09
785.166	2790.52
785.487	2836.48
785.807	2844.14
786.128	2764.99
786.449	2639.87
786.769	2696.05
787.09	2907.98
787.41	3239.92
787.731	3433.97
788.051	3648.46
788.372	3794
788.692	4005.93
789.012	4120.83
789.332	3916.56
789.653	4217.86
789.973	4404.26
790.293	4171.9
790.613	3658.67
790.933	3546.32
791.253	3462.06
791.573	3242.47
791.893	3045.86
792.212	2874.78
792.532	2895.21
792.852	2798.18
793.171	2524.97
793.491	2496.88
793.811	2545.4
794.13	2519.86
794.45	2624.55
794.769	2721.58
795.088	2759.88
795.408	2890.1
795.727	3153.1
796.046	3012.67
796.365	2867.12
796.684	2782.86
797.004	2614.34
797.323	2673.07
797.642	2966.71
797.96	2918.19
798.279	3015.22
798.598	2900.32
798.917	2754.78
799.236	2535.19
