Data from 2025-12-03_xpw_interference_micrometer_634_reference_FLMS141361__186__436.txt Node

Date: Wed Dec 03 15:51:31 MST 2025
User: james
Spectrometer: FLMS14136
Trigger mode: 0
Integration Time (sec): 1.000000E-1
Scans to average: 1
Electric dark correction enabled: true
Nonlinearity correction enabled: false
Boxcar width: 0
XAxis mode: Wavelengths
Number of Pixels in Spectrum: 2048
>>>>>Begin Spectral Data<<<<<
339.315	-38.3
339.697	-38.3
340.079	-38.3
340.461	-74.05
340.843	-99.58
341.225	-130.22
341.607	-91.92
341.989	-109.8
342.371	-97.03
342.752	-94.47
343.134	-53.62
343.516	-5.11
343.897	-7.66
344.279	28.09
344.661	71.49
345.042	30.64
345.423	38.3
345.805	53.62
346.186	112.35
346.567	81.71
346.949	173.63
347.33	204.27
347.711	273.21
348.092	199.16
348.473	204.27
348.854	240.02
349.235	321.73
349.616	388.11
349.997	365.13
350.378	296.19
350.758	334.49
351.139	324.28
351.52	331.94
351.9	357.47
352.281	393.22
352.661	377.9
353.042	321.73
353.422	390.67
353.803	377.9
354.183	400.88
354.563	418.75
354.943	385.56
355.324	400.88
355.704	398.33
356.084	405.99
356.464	342.15
356.844	418.75
357.224	390.67
357.603	377.9
357.983	408.54
358.363	462.16
358.743	454.5
359.122	365.13
359.502	408.54
359.882	423.86
360.261	426.41
360.641	411.09
361.02	403.43
361.399	383.01
361.779	354.92
362.158	367.69
362.537	354.92
362.916	400.88
363.296	354.92
363.675	316.62
364.054	275.76
364.433	337.05
364.812	324.28
365.19	377.9
365.569	362.58
365.948	383.01
366.327	347.26
366.705	377.9
367.084	331.94
367.463	385.56
367.841	390.67
368.22	347.26
368.598	357.47
368.977	380.45
369.355	316.62
369.733	390.67
370.111	342.15
370.49	383.01
370.868	370.24
371.246	362.58
371.624	405.99
372.002	303.85
372.38	329.39
372.758	395.77
373.136	365.13
373.513	408.54
373.891	383.01
374.269	360.03
374.646	408.54
375.024	321.73
375.402	337.05
375.779	416.2
376.157	400.88
376.534	383.01
376.911	385.56
377.289	337.05
377.666	398.33
378.043	349.81
378.42	416.2
378.797	383.01
379.175	367.69
379.552	398.33
379.929	308.96
380.305	342.15
380.682	375.35
381.059	408.54
381.436	398.33
381.813	339.6
382.189	390.67
382.566	331.94
382.943	337.05
383.319	398.33
383.696	390.67
384.072	354.92
384.448	395.77
384.825	362.58
385.201	500.46
385.577	370.24
385.953	372.79
386.329	352.37
386.706	334.49
387.082	342.15
387.458	380.45
387.834	395.77
388.209	344.71
388.585	383.01
388.961	365.13
389.337	421.31
389.713	342.15
390.088	393.22
390.464	411.09
390.839	413.65
391.215	360.03
391.59	308.96
391.966	354.92
392.341	405.99
392.716	436.63
393.092	385.56
393.467	395.77
393.842	403.43
394.217	418.75
394.592	423.86
394.967	352.37
395.342	285.98
395.717	354.92
396.092	367.69
396.467	339.6
396.841	344.71
397.216	367.69
397.591	393.22
397.965	398.33
398.34	462.16
398.714	398.33
399.089	418.75
399.463	385.56
399.838	316.62
400.212	370.24
400.586	413.65
400.961	393.22
401.335	367.69
401.709	337.05
402.083	360.03
402.457	375.35
402.831	360.03
403.205	347.26
403.579	367.69
403.953	390.67
404.326	393.22
404.7	370.24
405.074	377.9
405.447	428.97
405.821	375.35
406.195	405.99
406.568	451.95
406.942	423.86
407.315	439.18
407.688	362.58
408.062	357.47
408.435	370.24
408.808	380.45
409.181	403.43
409.554	349.81
409.927	434.07
410.3	405.99
410.673	405.99
411.046	431.52
411.419	370.24
411.792	375.35
412.165	388.11
412.537	434.07
412.91	380.45
413.283	360.03
413.655	311.51
414.028	393.22
414.4	426.41
414.773	431.52
415.145	462.16
415.517	385.56
415.889	385.56
416.262	403.43
416.634	431.52
417.006	354.92
417.378	444.29
417.75	418.75
418.122	467.27
418.494	370.24
418.866	342.15
419.238	375.35
419.609	362.58
419.981	418.75
420.353	339.6
420.725	467.27
421.096	393.22
421.468	400.88
421.839	357.47
422.211	395.77
422.582	413.65
422.953	405.99
423.325	354.92
423.696	398.33
424.067	423.86
424.438	365.13
424.809	383.01
425.18	418.75
425.551	428.97
425.922	390.67
426.293	377.9
426.664	375.35
427.035	434.07
427.406	408.54
427.776	426.41
428.147	423.86
428.518	383.01
428.888	411.09
429.259	464.71
429.629	449.39
429.999	426.41
430.37	411.09
430.74	344.71
431.11	426.41
431.481	428.97
431.851	464.71
432.221	400.88
432.591	428.97
432.961	413.65
433.331	434.07
433.701	436.63
434.071	416.2
434.441	357.47
434.81	426.41
435.18	467.27
435.55	469.82
435.919	439.18
436.289	388.11
436.658	413.65
437.028	393.22
437.397	367.69
437.767	423.86
438.136	413.65
438.505	436.63
438.875	436.63
439.244	480.04
439.613	421.31
439.982	400.88
440.351	434.07
440.72	449.39
441.089	377.9
441.458	385.56
441.827	385.56
442.196	400.88
442.564	474.93
442.933	469.82
443.302	439.18
443.67	408.54
444.039	344.71
444.407	416.2
444.776	444.29
445.144	383.01
445.513	480.04
445.881	377.9
446.249	408.54
446.617	395.77
446.986	482.59
447.354	464.71
447.722	403.43
448.09	383.01
448.458	464.71
448.826	482.59
449.194	482.59
449.561	441.73
449.929	416.2
450.297	411.09
450.665	308.96
451.032	385.56
451.4	370.24
451.767	423.86
452.135	436.63
452.502	395.77
452.87	393.22
453.237	421.31
453.604	365.13
453.971	444.29
454.339	403.43
454.706	324.28
455.073	421.31
455.44	434.07
455.807	380.45
456.174	385.56
456.541	449.39
456.908	395.77
457.274	375.35
457.641	497.91
458.008	454.5
458.374	398.33
458.741	398.33
459.108	439.18
459.474	469.82
459.841	436.63
460.207	418.75
460.573	454.5
460.94	439.18
461.306	413.65
461.672	439.18
462.038	500.46
462.404	477.48
462.771	398.33
463.137	457.05
463.503	449.39
463.868	393.22
464.234	393.22
464.6	383.01
464.966	434.07
465.332	449.39
465.697	436.63
466.063	431.52
466.429	477.48
466.794	375.35
467.16	403.43
467.525	408.54
467.89	426.41
468.256	428.97
468.621	434.07
468.986	436.63
469.351	362.58
469.717	383.01
470.082	418.75
470.447	360.03
470.812	418.75
471.177	375.35
471.542	354.92
471.906	342.15
472.271	472.37
472.636	393.22
473.001	469.82
473.365	383.01
473.73	390.67
474.094	314.07
474.459	405.99
474.823	459.61
475.188	446.84
475.552	354.92
475.917	459.61
476.281	413.65
476.645	413.65
477.009	449.39
477.373	413.65
477.737	418.75
478.101	457.05
478.465	405.99
478.829	423.86
479.193	375.35
479.557	423.86
479.921	423.86
480.284	403.43
480.648	380.45
481.012	434.07
481.375	385.56
481.739	395.77
482.102	426.41
482.466	441.73
482.829	411.09
483.193	398.33
483.556	449.39
483.919	388.11
484.282	400.88
484.645	482.59
485.009	469.82
485.372	428.97
485.735	372.79
486.098	375.35
486.46	451.95
486.823	423.86
487.186	398.33
487.549	451.95
487.912	357.47
488.274	390.67
488.637	385.56
488.999	398.33
489.362	441.73
489.724	444.29
490.087	390.67
490.449	423.86
490.811	403.43
491.174	375.35
491.536	390.67
491.898	370.24
492.26	370.24
492.622	472.37
492.984	408.54
493.346	421.31
493.708	395.77
494.07	426.41
494.432	411.09
494.794	377.9
495.155	446.84
495.517	500.46
495.879	372.79
496.24	390.67
496.602	464.71
496.963	428.97
497.325	490.25
497.686	451.95
498.048	380.45
498.409	426.41
498.77	449.39
499.131	413.65
499.492	436.63
499.854	395.77
500.215	393.22
500.576	388.11
500.937	421.31
501.298	388.11
501.658	393.22
502.019	467.27
502.38	459.61
502.741	354.92
503.101	347.26
503.462	370.24
503.823	444.29
504.183	393.22
504.543	403.43
504.904	434.07
505.264	380.45
505.625	405.99
505.985	421.31
506.345	416.2
506.705	431.52
507.065	446.84
507.426	428.97
507.786	416.2
508.146	428.97
508.505	385.56
508.865	413.65
509.225	444.29
509.585	464.71
509.945	434.07
510.304	357.47
510.664	421.31
511.024	395.77
511.383	472.37
511.743	441.73
512.102	352.37
512.462	446.84
512.821	408.54
513.18	405.99
513.539	411.09
513.899	395.77
514.258	423.86
514.617	403.43
514.976	434.07
515.335	426.41
515.694	434.07
516.053	395.77
516.412	375.35
516.771	462.16
517.129	413.65
517.488	421.31
517.847	439.18
518.205	362.58
518.564	324.28
518.922	339.6
519.281	441.73
519.639	408.54
519.998	370.24
520.356	423.86
520.714	411.09
521.073	411.09
521.431	464.71
521.789	405.99
522.147	421.31
522.505	477.48
522.863	400.88
523.221	441.73
523.579	428.97
523.937	380.45
524.295	408.54
524.652	375.35
525.01	349.81
525.368	383.01
525.725	411.09
526.083	388.11
526.44	403.43
526.798	380.45
527.155	416.2
527.513	385.56
527.87	398.33
528.227	436.63
528.584	421.31
528.942	388.11
529.299	449.39
529.656	413.65
530.013	408.54
530.37	411.09
530.727	362.58
531.083	337.05
531.44	395.77
531.797	418.75
532.154	421.31
532.511	385.56
532.867	408.54
533.224	434.07
533.58	423.86
533.937	451.95
534.293	418.75
534.65	357.47
535.006	354.92
535.362	411.09
535.718	411.09
536.075	377.9
536.431	372.79
536.787	357.47
537.143	416.2
537.499	436.63
537.855	347.26
538.211	431.52
538.567	398.33
538.923	408.54
539.278	403.43
539.634	413.65
539.99	370.24
540.345	469.82
540.701	367.69
541.056	375.35
541.412	380.45
541.767	421.31
542.123	464.71
542.478	474.93
542.833	454.5
543.188	462.16
543.544	431.52
543.899	416.2
544.254	416.2
544.609	390.67
544.964	354.92
545.319	411.09
545.674	418.75
546.029	403.43
546.383	405.99
546.738	490.25
547.093	395.77
547.447	352.37
547.802	411.09
548.157	444.29
548.511	434.07
548.866	393.22
549.22	400.88
549.574	380.45
549.929	441.73
550.283	467.27
550.637	416.2
550.991	324.28
551.345	365.13
551.699	360.03
552.053	393.22
552.407	367.69
552.761	418.75
553.115	454.5
553.469	441.73
553.823	400.88
554.176	444.29
554.53	469.82
554.884	421.31
555.237	686.86
555.591	492.8
555.944	503.02
556.298	347.26
556.651	405.99
557.005	405.99
557.358	508.12
557.711	477.48
558.064	444.29
558.417	464.71
558.771	474.93
559.124	449.39
559.477	434.07
559.83	462.16
560.182	416.2
560.535	411.09
560.888	459.61
561.241	451.95
561.594	421.31
561.946	439.18
562.299	390.67
562.651	367.69
563.004	446.84
563.356	451.95
563.709	408.54
564.061	421.31
564.413	383.01
564.766	423.86
565.118	457.05
565.47	428.97
565.822	390.67
566.174	400.88
566.526	421.31
566.878	464.71
567.23	439.18
567.582	375.35
567.934	446.84
568.286	375.35
568.638	431.52
568.989	393.22
569.341	418.75
569.693	398.33
570.044	439.18
570.396	421.31
570.747	457.05
571.098	500.46
571.45	480.04
571.801	413.65
572.152	405.99
572.504	444.29
572.855	383.01
573.206	413.65
573.557	467.27
573.908	464.71
574.259	421.31
574.61	446.84
574.961	451.95
575.311	536.21
575.662	451.95
576.013	385.56
576.364	383.01
576.714	370.24
577.065	365.13
577.415	349.81
577.766	393.22
578.116	451.95
578.467	375.35
578.817	377.9
579.167	421.31
579.518	431.52
579.868	436.63
580.218	383.01
580.568	439.18
580.918	492.8
581.268	411.09
581.618	418.75
581.968	344.71
582.318	398.33
582.668	457.05
583.017	477.48
583.367	485.14
583.717	444.29
584.066	439.18
584.416	398.33
584.765	337.05
585.115	477.48
585.464	416.2
585.814	372.79
586.163	393.22
586.512	362.58
586.862	439.18
587.211	413.65
587.56	446.84
587.909	436.63
588.258	400.88
588.607	423.86
588.956	467.27
589.305	388.11
589.654	423.86
590.002	451.95
590.351	375.35
590.7	357.47
591.048	383.01
591.397	370.24
591.746	416.2
592.094	362.58
592.443	403.43
592.791	405.99
593.139	457.05
593.488	454.5
593.836	421.31
594.184	411.09
594.532	383.01
594.88	439.18
595.228	421.31
595.576	416.2
595.924	436.63
596.272	451.95
596.62	428.97
596.968	390.67
597.316	398.33
597.664	423.86
598.011	436.63
598.359	403.43
598.706	385.56
599.054	413.65
599.402	426.41
599.749	357.47
600.096	365.13
600.444	428.97
600.791	349.81
601.138	377.9
601.485	434.07
601.833	434.07
602.18	377.9
602.527	308.96
602.874	377.9
603.221	421.31
603.568	416.2
603.914	428.97
604.261	405.99
604.608	352.37
604.955	390.67
605.301	403.43
605.648	444.29
605.995	372.79
606.341	380.45
606.688	441.73
607.034	380.45
607.38	446.84
607.727	370.24
608.073	365.13
608.419	411.09
608.765	365.13
609.112	393.22
609.458	436.63
609.804	388.11
610.15	375.35
610.496	393.22
610.842	390.67
611.187	495.36
611.533	377.9
611.879	372.79
612.225	360.03
612.57	349.81
612.916	370.24
613.261	428.97
613.607	426.41
613.952	436.63
614.298	365.13
614.643	395.77
614.989	372.79
615.334	408.54
615.679	372.79
616.024	311.51
616.369	362.58
616.714	411.09
617.059	444.29
617.404	436.63
617.749	441.73
618.094	400.88
618.439	421.31
618.784	431.52
619.129	393.22
619.473	334.49
619.818	405.99
620.163	360.03
620.507	467.27
620.852	431.52
621.196	444.29
621.54	444.29
621.885	375.35
622.229	388.11
622.573	370.24
622.918	467.27
623.262	431.52
623.606	428.97
623.95	372.79
624.294	477.48
624.638	388.11
624.982	411.09
625.326	377.9
625.67	405.99
626.013	444.29
626.357	428.97
626.701	446.84
627.044	485.14
627.388	383.01
627.731	405.99
628.075	398.33
628.418	383.01
628.762	385.56
629.105	380.45
629.448	393.22
629.792	444.29
630.135	405.99
630.478	367.69
630.821	431.52
631.164	451.95
631.507	421.31
631.85	372.79
632.193	418.75
632.536	395.77
632.879	416.2
633.221	416.2
633.564	416.2
633.907	408.54
634.249	439.18
634.592	428.97
634.935	454.5
635.277	449.39
635.619	423.86
635.962	398.33
636.304	377.9
636.646	370.24
636.989	357.47
637.331	390.67
637.673	413.65
638.015	383.01
638.357	344.71
638.699	413.65
639.041	411.09
639.383	405.99
639.725	390.67
640.067	413.65
640.408	380.45
640.75	354.92
641.092	367.69
641.433	416.2
641.775	365.13
642.116	334.49
642.458	372.79
642.799	377.9
643.141	372.79
643.482	423.86
643.823	388.11
644.164	436.63
644.506	500.46
644.847	411.09
645.188	405.99
645.529	474.93
645.87	454.5
646.211	408.54
646.552	405.99
646.893	398.33
647.233	385.56
647.574	405.99
647.915	413.65
648.255	413.65
648.596	423.86
648.937	413.65
649.277	449.39
649.618	467.27
649.958	441.73
650.298	375.35
650.639	400.88
650.979	357.47
651.319	388.11
651.659	431.52
651.999	403.43
652.339	360.03
652.679	377.9
653.019	393.22
653.359	405.99
653.699	446.84
654.039	370.24
654.379	393.22
654.719	385.56
655.058	367.69
655.398	362.58
655.737	421.31
656.077	451.95
656.416	398.33
656.756	444.29
657.095	431.52
657.435	405.99
657.774	385.56
658.113	413.65
658.452	380.45
658.792	385.56
659.131	439.18
659.47	434.07
659.809	431.52
660.148	400.88
660.487	367.69
660.826	362.58
661.164	436.63
661.503	375.35
661.842	339.6
662.181	377.9
662.519	411.09
662.858	449.39
663.196	403.43
663.535	370.24
663.873	413.65
664.212	446.84
664.55	418.75
664.888	354.92
665.226	441.73
665.565	426.41
665.903	607.7
666.241	428.97
666.579	413.65
666.917	416.2
667.255	362.58
667.593	380.45
667.931	403.43
668.268	385.56
668.606	454.5
668.944	416.2
669.282	457.05
669.619	467.27
669.957	372.79
670.294	441.73
670.632	413.65
670.969	357.47
671.307	413.65
671.644	411.09
671.981	370.24
672.318	380.45
672.656	413.65
672.993	385.56
673.33	441.73
673.667	390.67
674.004	462.16
674.341	421.31
674.678	444.29
675.015	344.71
675.351	400.88
675.688	380.45
676.025	375.35
676.362	400.88
676.698	398.33
677.035	339.6
677.371	400.88
677.708	413.65
678.044	349.81
678.38	454.5
678.717	375.35
679.053	395.77
679.389	400.88
679.725	405.99
680.062	385.56
680.398	383.01
680.734	449.39
681.07	416.2
681.406	454.5
681.742	337.05
682.077	395.77
682.413	403.43
682.749	418.75
683.085	354.92
683.42	418.75
683.756	367.69
684.091	329.39
684.427	413.65
684.762	388.11
685.098	413.65
685.433	428.97
685.768	405.99
686.104	451.95
686.439	393.22
686.774	446.84
687.109	357.47
687.444	408.54
687.779	344.71
688.114	426.41
688.449	428.97
688.784	326.83
689.119	418.75
689.454	480.04
689.789	428.97
690.123	398.33
690.458	428.97
690.792	372.79
691.127	408.54
691.461	393.22
691.796	434.07
692.13	449.39
692.465	446.84
692.799	352.37
693.133	375.35
693.467	354.92
693.802	372.79
694.136	367.69
694.47	421.31
694.804	413.65
695.138	418.75
695.472	436.63
695.806	377.9
696.139	385.56
696.473	436.63
696.807	408.54
697.141	357.47
697.474	388.11
697.808	367.69
698.141	413.65
698.475	377.9
698.808	454.5
699.142	490.25
699.475	469.82
699.808	380.45
700.142	398.33
700.475	436.63
700.808	377.9
701.141	377.9
701.474	405.99
701.807	444.29
702.14	398.33
702.473	439.18
702.806	372.79
703.139	413.65
703.472	385.56
703.804	408.54
704.137	367.69
704.47	395.77
704.802	426.41
705.135	408.54
705.467	383.01
705.8	357.47
706.132	444.29
706.464	423.86
706.797	347.26
707.129	354.92
707.461	408.54
707.793	457.05
708.125	431.52
708.457	357.47
708.789	428.97
709.121	423.86
709.453	439.18
709.785	365.13
710.117	377.9
710.449	423.86
710.781	436.63
711.112	352.37
711.444	403.43
711.775	377.9
712.107	334.49
712.438	439.18
712.77	482.59
713.101	416.2
713.433	393.22
713.764	388.11
714.095	459.61
714.426	380.45
714.757	413.65
715.089	416.2
715.42	403.43
715.751	418.75
716.082	467.27
716.412	416.2
716.743	357.47
717.074	416.2
717.405	383.01
717.736	403.43
718.066	418.75
718.397	434.07
718.727	428.97
719.058	365.13
719.388	370.24
719.719	383.01
720.049	370.24
720.38	480.04
720.71	372.79
721.04	421.31
721.37	344.71
721.7	365.13
722.031	444.29
722.361	426.41
722.691	416.2
723.021	372.79
723.35	398.33
723.68	339.6
724.01	377.9
724.34	418.75
724.67	421.31
724.999	321.73
725.329	416.2
725.658	459.61
725.988	444.29
726.317	395.77
726.647	426.41
726.976	403.43
727.306	393.22
727.635	411.09
727.964	377.9
728.293	428.97
728.622	385.56
728.952	360.03
729.281	375.35
729.61	357.47
729.939	367.69
730.267	388.11
730.596	446.84
730.925	342.15
731.254	321.73
731.583	408.54
731.911	347.26
732.24	383.01
732.568	426.41
732.897	370.24
733.225	428.97
733.554	367.69
733.882	446.84
734.21	428.97
734.539	400.88
734.867	423.86
735.195	434.07
735.523	423.86
735.851	423.86
736.179	411.09
736.507	446.84
736.835	426.41
737.163	400.88
737.491	446.84
737.819	385.56
738.147	423.86
738.474	393.22
738.802	395.77
739.13	413.65
739.457	439.18
739.785	385.56
740.112	431.52
740.44	383.01
740.767	405.99
741.094	454.5
741.422	377.9
741.749	380.45
742.076	380.45
742.403	413.65
742.73	426.41
743.057	428.97
743.384	436.63
743.711	400.88
744.038	380.45
744.365	439.18
744.692	428.97
745.018	398.33
745.345	344.71
745.672	400.88
745.998	418.75
746.325	388.11
746.651	362.58
746.978	367.69
747.304	375.35
747.631	454.5
747.957	347.26
748.283	375.35
748.61	352.37
748.936	403.43
749.262	405.99
749.588	423.86
749.914	372.79
750.24	421.31
750.566	451.95
750.892	352.37
751.218	411.09
751.543	395.77
751.869	482.59
752.195	380.45
752.521	385.56
752.846	431.52
753.172	418.75
753.497	416.2
753.823	354.92
754.148	377.9
754.473	314.07
754.799	337.05
755.124	408.54
755.449	408.54
755.774	459.61
756.1	413.65
756.425	398.33
756.75	418.75
757.075	449.39
757.4	526
757.724	385.56
758.049	469.82
758.374	367.69
758.699	403.43
759.024	457.05
759.348	388.11
759.673	398.33
759.997	398.33
760.322	421.31
760.646	367.69
760.971	383.01
761.295	408.54
761.619	377.9
761.944	405.99
762.268	469.82
762.592	477.48
762.916	490.25
763.24	393.22
763.564	459.61
763.888	520.89
764.212	464.71
764.536	505.57
764.86	538.76
765.184	602.6
765.508	689.41
765.831	594.94
766.155	886.02
766.478	725.16
766.802	740.48
767.126	783.89
767.449	778.78
767.772	898.79
768.096	903.9
768.419	931.98
768.742	949.86
769.066	983.05
769.389	1041.78
769.712	1110.72
770.035	988.16
770.358	1077.53
770.681	1223.07
771.004	1194.98
771.327	1225.62
771.65	1312.44
771.972	1325.2
772.295	1353.29
772.618	1409.46
772.941	1424.78
773.263	1406.91
773.586	1496.28
773.908	1652.04
774.231	1623.95
774.553	1779.7
774.875	1955.89
775.198	1973.76
775.52	1909.93
775.842	1879.29
776.164	1815.45
776.487	1830.77
776.809	1876.73
777.131	1894.61
777.453	1874.18
777.775	1909.93
778.096	2101.43
778.418	2088.66
778.74	1973.76
779.062	2101.43
779.384	2180.58
779.705	2405.28
780.027	2688.71
780.348	2637.64
780.67	2568.7
780.991	2801.06
781.313	2959.37
781.634	3163.64
781.955	2882.76
782.277	2770.42
782.598	2852.12
782.919	2864.89
783.24	2834.25
783.561	2913.4
783.882	2918.51
784.203	2995.11
784.524	2847.02
784.845	2785.74
785.166	2709.13
785.487	2624.87
785.807	2658.07
786.128	2635.09
786.449	2563.59
786.769	2714.24
787.09	2864.89
787.41	3030.86
787.731	3155.98
788.051	3350.03
788.372	3385.78
788.692	3679.42
789.012	3870.92
789.332	3865.81
789.653	3906.67
789.973	4225.84
790.293	3950.08
790.613	3544.09
790.933	3373.01
791.253	3347.48
791.573	3069.16
791.893	2992.56
792.212	2808.72
792.532	2693.81
792.852	2650.41
793.171	2555.93
793.491	2471.67
793.811	2466.56
794.13	2609.55
794.45	2632.53
794.769	2591.68
795.088	2824.04
795.408	2790.84
795.727	2964.47
796.046	3002.77
796.365	2757.65
796.684	2581.47
797.004	2438.48
797.323	2617.21
797.642	2895.53
797.96	3058.95
798.279	3053.84
798.598	2844.46
798.917	2739.77
799.236	2561.04
