Data from 2025-12-03_xpw_interference_micrometer_634_reference_FLMS141361__198__448.txt Node

Date: Wed Dec 03 15:51:32 MST 2025
User: james
Spectrometer: FLMS14136
Trigger mode: 0
Integration Time (sec): 1.000000E-1
Scans to average: 1
Electric dark correction enabled: true
Nonlinearity correction enabled: false
Boxcar width: 0
XAxis mode: Wavelengths
Number of Pixels in Spectrum: 2048
>>>>>Begin Spectral Data<<<<<
339.315	7.02
339.697	7.02
340.079	7.02
340.461	-51.71
340.843	-49.15
341.225	-105.33
341.607	-97.67
341.989	-84.9
342.371	-90.01
342.752	-67.03
343.134	-84.9
343.516	-36.39
343.897	1.92
344.279	-26.17
344.661	30
345.042	7.02
345.423	121.92
345.805	70.86
346.186	111.71
346.567	58.09
346.949	190.87
347.33	78.52
347.711	190.87
348.092	257.25
348.473	165.33
348.854	287.89
349.235	257.25
349.616	298.11
349.997	356.83
350.378	326.19
350.758	326.19
351.139	310.87
351.52	321.09
351.9	430.88
352.281	400.24
352.661	395.14
353.042	407.9
353.422	428.33
353.803	428.33
354.183	361.94
354.563	338.96
354.943	441.1
355.324	441.1
355.704	369.6
356.084	413.01
356.464	448.76
356.844	438.54
357.224	407.9
357.603	423.22
357.983	382.37
358.363	466.63
358.743	415.56
359.122	354.28
359.502	356.83
359.882	336.41
360.261	405.35
360.641	400.24
361.02	384.92
361.399	405.35
361.779	405.35
362.158	410.46
362.537	418.12
362.916	415.56
363.296	425.78
363.675	369.6
364.054	402.8
364.433	430.88
364.812	384.92
365.19	344.07
365.569	346.62
365.948	367.05
366.327	326.19
366.705	308.32
367.084	313.43
367.463	323.64
367.841	400.24
368.22	349.17
368.598	331.3
368.977	333.85
369.355	338.96
369.733	321.09
370.111	295.55
370.49	418.12
370.868	379.81
371.246	321.09
371.624	407.9
372.002	395.14
372.38	354.28
372.758	315.98
373.136	346.62
373.513	364.49
373.891	405.35
374.269	328.75
374.646	410.46
375.024	395.14
375.402	430.88
375.779	420.67
376.157	402.8
376.534	315.98
376.911	333.85
377.289	397.69
377.666	392.58
378.043	382.37
378.42	349.17
378.797	395.14
379.175	390.03
379.552	397.69
379.929	382.37
380.305	377.26
380.682	364.49
381.059	402.8
381.436	400.24
381.813	402.8
382.189	359.39
382.566	415.56
382.943	418.12
383.319	423.22
383.696	382.37
384.072	310.87
384.448	323.64
384.825	384.92
385.201	305.77
385.577	377.26
385.953	367.05
386.329	364.49
386.706	333.85
387.082	395.14
387.458	349.17
387.834	333.85
388.209	323.64
388.585	415.56
388.961	359.39
389.337	361.94
389.713	405.35
390.088	415.56
390.464	390.03
390.839	367.05
391.215	387.48
391.59	338.96
391.966	384.92
392.341	418.12
392.716	364.49
393.092	395.14
393.467	336.41
393.842	359.39
394.217	369.6
394.592	400.24
394.967	400.24
395.342	318.53
395.717	346.62
396.092	351.73
396.467	392.58
396.841	387.48
397.216	418.12
397.591	354.28
397.965	392.58
398.34	305.77
398.714	359.39
399.089	328.75
399.463	338.96
399.838	351.73
400.212	369.6
400.586	423.22
400.961	458.97
401.335	413.01
401.709	361.94
402.083	377.26
402.457	356.83
402.831	384.92
403.205	382.37
403.579	453.86
403.953	415.56
404.326	410.46
404.7	420.67
405.074	392.58
405.447	407.9
405.821	446.2
406.195	387.48
406.568	443.65
406.942	458.97
407.315	430.88
407.688	425.78
408.062	359.39
408.435	321.09
408.808	400.24
409.181	418.12
409.554	410.46
409.927	433.44
410.3	382.37
410.673	448.76
411.046	384.92
411.419	397.69
411.792	448.76
412.165	331.3
412.537	359.39
412.91	369.6
413.283	425.78
413.655	384.92
414.028	346.62
414.4	377.26
414.773	305.77
415.145	379.81
415.517	333.85
415.889	364.49
416.262	384.92
416.634	369.6
417.006	387.48
417.378	435.99
417.75	420.67
418.122	400.24
418.494	387.48
418.866	405.35
419.238	313.43
419.609	346.62
419.981	372.15
420.353	415.56
420.725	395.14
421.096	415.56
421.468	435.99
421.839	458.97
422.211	435.99
422.582	420.67
422.953	410.46
423.325	395.14
423.696	441.1
424.067	420.67
424.438	438.54
424.809	377.26
425.18	379.81
425.551	372.15
425.922	423.22
426.293	384.92
426.664	400.24
427.035	428.33
427.406	448.76
427.776	382.37
428.147	354.28
428.518	372.15
428.888	379.81
429.259	384.92
429.629	413.01
429.999	359.39
430.37	494.72
430.74	418.12
431.11	384.92
431.481	402.8
431.851	423.22
432.221	402.8
432.591	420.67
432.961	395.14
433.331	361.94
433.701	428.33
434.071	397.69
434.441	438.54
434.81	400.24
435.18	407.9
435.55	390.03
435.919	471.74
436.289	430.88
436.658	438.54
437.028	420.67
437.397	413.01
437.767	474.29
438.136	300.66
438.505	374.71
438.875	387.48
439.244	418.12
439.613	361.94
439.982	387.48
440.351	405.35
440.72	461.52
441.089	425.78
441.458	341.51
441.827	405.35
442.196	379.81
442.564	448.76
442.933	354.28
443.302	392.58
443.67	415.56
444.039	423.22
444.407	354.28
444.776	354.28
445.144	372.15
445.513	430.88
445.881	458.97
446.249	420.67
446.617	487.06
446.986	387.48
447.354	346.62
447.722	354.28
448.09	423.22
448.458	410.46
448.826	451.31
449.194	400.24
449.561	364.49
449.929	336.41
450.297	438.54
450.665	428.33
451.032	484.5
451.4	369.6
451.767	390.03
452.135	497.27
452.502	466.63
452.87	453.86
453.237	433.44
453.604	428.33
453.971	441.1
454.339	410.46
454.706	377.26
455.073	372.15
455.44	435.99
455.807	402.8
456.174	469.18
456.541	456.42
456.908	387.48
457.274	400.24
457.641	377.26
458.008	415.56
458.374	476.84
458.741	471.74
459.108	458.97
459.474	395.14
459.841	415.56
460.207	384.92
460.573	407.9
460.94	512.59
461.306	425.78
461.672	379.81
462.038	420.67
462.404	390.03
462.771	361.94
463.137	379.81
463.503	418.12
463.868	479.4
464.234	387.48
464.6	433.44
464.966	418.12
465.332	415.56
465.697	369.6
466.063	410.46
466.429	407.9
466.794	446.2
467.16	400.24
467.525	423.22
467.89	428.33
468.256	481.95
468.621	461.52
468.986	346.62
469.351	413.01
469.717	425.78
470.082	351.73
470.447	418.12
470.812	400.24
471.177	402.8
471.542	384.92
471.906	448.76
472.271	415.56
472.636	418.12
473.001	474.29
473.365	400.24
473.73	369.6
474.094	425.78
474.459	400.24
474.823	418.12
475.188	361.94
475.552	448.76
475.917	400.24
476.281	413.01
476.645	369.6
477.009	423.22
477.373	420.67
477.737	387.48
478.101	438.54
478.465	428.33
478.829	377.26
479.193	423.22
479.557	420.67
479.921	415.56
480.284	446.2
480.648	400.24
481.012	407.9
481.375	377.26
481.739	415.56
482.102	425.78
482.466	351.73
482.829	497.27
483.193	415.56
483.556	425.78
483.919	476.84
484.282	382.37
484.645	405.35
485.009	461.52
485.372	379.81
485.735	425.78
486.098	418.12
486.46	425.78
486.823	413.01
487.186	407.9
487.549	374.71
487.912	420.67
488.274	425.78
488.637	484.5
488.999	410.46
489.362	410.46
489.724	356.83
490.087	492.16
490.449	397.69
490.811	474.29
491.174	453.86
491.536	395.14
491.898	372.15
492.26	425.78
492.622	484.5
492.984	458.97
493.346	471.74
493.708	453.86
494.07	425.78
494.432	418.12
494.794	415.56
495.155	402.8
495.517	413.01
495.879	410.46
496.24	420.67
496.602	425.78
496.963	494.72
497.325	458.97
497.686	458.97
498.048	423.22
498.409	425.78
498.77	367.05
499.131	359.39
499.492	410.46
499.854	413.01
500.215	395.14
500.576	395.14
500.937	448.76
501.298	418.12
501.658	453.86
502.019	410.46
502.38	384.92
502.741	415.56
503.101	415.56
503.462	387.48
503.823	458.97
504.183	451.31
504.543	456.42
504.904	410.46
505.264	497.27
505.625	481.95
505.985	423.22
506.345	379.81
506.705	433.44
507.065	379.81
507.426	418.12
507.786	377.26
508.146	397.69
508.505	418.12
508.865	438.54
509.225	379.81
509.585	456.42
509.945	435.99
510.304	420.67
510.664	466.63
511.024	418.12
511.383	441.1
511.743	430.88
512.102	346.62
512.462	420.67
512.821	364.49
513.18	418.12
513.539	428.33
513.899	390.03
514.258	469.18
514.617	410.46
514.976	430.88
515.335	446.2
515.694	418.12
516.053	364.49
516.412	402.8
516.771	423.22
517.129	384.92
517.488	461.52
517.847	379.81
518.205	392.58
518.564	423.22
518.922	379.81
519.281	382.37
519.639	438.54
519.998	372.15
520.356	392.58
520.714	469.18
521.073	433.44
521.431	395.14
521.789	428.33
522.147	504.93
522.505	425.78
522.863	413.01
523.221	400.24
523.579	425.78
523.937	469.18
524.295	456.42
524.652	438.54
525.01	423.22
525.368	430.88
525.725	430.88
526.083	395.14
526.44	410.46
526.798	474.29
527.155	392.58
527.513	356.83
527.87	502.38
528.227	433.44
528.584	494.72
528.942	402.8
529.299	456.42
529.656	423.22
530.013	392.58
530.37	433.44
530.727	458.97
531.083	430.88
531.44	443.65
531.797	418.12
532.154	438.54
532.511	379.81
532.867	397.69
533.224	356.83
533.58	395.14
533.937	425.78
534.293	392.58
534.65	461.52
535.006	435.99
535.362	446.2
535.718	369.6
536.075	443.65
536.431	418.12
536.787	349.17
537.143	456.42
537.499	423.22
537.855	423.22
538.211	354.28
538.567	346.62
538.923	410.46
539.278	392.58
539.634	423.22
539.99	415.56
540.345	451.31
540.701	453.86
541.056	402.8
541.412	448.76
541.767	400.24
542.123	407.9
542.478	438.54
542.833	423.22
543.188	313.43
543.544	464.08
543.899	425.78
544.254	410.46
544.609	464.08
544.964	456.42
545.319	448.76
545.674	390.03
546.029	382.37
546.383	407.9
546.738	451.31
547.093	425.78
547.447	407.9
547.802	489.61
548.157	349.17
548.511	392.58
548.866	466.63
549.22	466.63
549.574	390.03
549.929	377.26
550.283	372.15
550.637	451.31
550.991	481.95
551.345	407.9
551.699	405.35
552.053	387.48
552.407	443.65
552.761	392.58
553.115	395.14
553.469	441.1
553.823	456.42
554.176	474.29
554.53	443.65
554.884	405.35
555.237	719.41
555.591	466.63
555.944	448.76
556.298	438.54
556.651	400.24
557.005	458.97
557.358	492.16
557.711	441.1
558.064	384.92
558.417	443.65
558.771	497.27
559.124	428.33
559.477	438.54
559.83	364.49
560.182	387.48
560.535	384.92
560.888	430.88
561.241	390.03
561.594	354.28
561.946	374.71
562.299	379.81
562.651	341.51
563.004	413.01
563.356	384.92
563.709	410.46
564.061	438.54
564.413	479.4
564.766	443.65
565.118	384.92
565.47	413.01
565.822	390.03
566.174	420.67
566.526	397.69
566.878	379.81
567.23	407.9
567.582	392.58
567.934	464.08
568.286	481.95
568.638	407.9
568.989	435.99
569.341	443.65
569.693	428.33
570.044	392.58
570.396	384.92
570.747	425.78
571.098	458.97
571.45	481.95
571.801	438.54
572.152	338.96
572.504	379.81
572.855	461.52
573.206	448.76
573.557	379.81
573.908	397.69
574.259	418.12
574.61	423.22
574.961	364.49
575.311	448.76
575.662	451.31
576.013	384.92
576.364	397.69
576.714	446.2
577.065	461.52
577.415	361.94
577.766	425.78
578.116	425.78
578.467	481.95
578.817	438.54
579.167	397.69
579.518	328.75
579.868	395.14
580.218	382.37
580.568	425.78
580.918	384.92
581.268	453.86
581.618	476.84
581.968	423.22
582.318	410.46
582.668	379.81
583.017	402.8
583.367	481.95
583.717	433.44
584.066	321.09
584.416	377.26
584.765	377.26
585.115	397.69
585.464	464.08
585.814	377.26
586.163	359.39
586.512	379.81
586.862	420.67
587.211	402.8
587.56	400.24
587.909	438.54
588.258	418.12
588.607	331.3
588.956	361.94
589.305	413.01
589.654	487.06
590.002	420.67
590.351	407.9
590.7	413.01
591.048	443.65
591.397	390.03
591.746	372.15
592.094	425.78
592.443	438.54
592.791	336.41
593.139	407.9
593.488	423.22
593.836	415.56
594.184	420.67
594.532	395.14
594.88	420.67
595.228	413.01
595.576	354.28
595.924	377.26
596.272	410.46
596.62	469.18
596.968	458.97
597.316	476.84
597.664	359.39
598.011	428.33
598.359	395.14
598.706	400.24
599.054	425.78
599.402	413.01
599.749	405.35
600.096	425.78
600.444	407.9
600.791	390.03
601.138	397.69
601.485	400.24
601.833	395.14
602.18	415.56
602.527	387.48
602.874	420.67
603.221	402.8
603.568	435.99
603.914	461.52
604.261	430.88
604.608	372.15
604.955	448.76
605.301	405.35
605.648	453.86
605.995	443.65
606.341	413.01
606.688	420.67
607.034	415.56
607.38	448.76
607.727	382.37
608.073	356.83
608.419	367.05
608.765	441.1
609.112	415.56
609.458	469.18
609.804	379.81
610.15	435.99
610.496	397.69
610.842	395.14
611.187	390.03
611.533	341.51
611.879	379.81
612.225	405.35
612.57	364.49
612.916	356.83
613.261	413.01
613.607	407.9
613.952	333.85
614.298	390.03
614.643	415.56
614.989	458.97
615.334	410.46
615.679	451.31
616.024	392.58
616.369	390.03
616.714	451.31
617.059	464.08
617.404	443.65
617.749	392.58
618.094	372.15
618.439	326.19
618.784	428.33
619.129	438.54
619.473	387.48
619.818	346.62
620.163	395.14
620.507	384.92
620.852	405.35
621.196	420.67
621.54	420.67
621.885	420.67
622.229	390.03
622.573	441.1
622.918	453.86
623.262	428.33
623.606	377.26
623.95	423.22
624.294	433.44
624.638	402.8
624.982	379.81
625.326	492.16
625.67	361.94
626.013	448.76
626.357	418.12
626.701	387.48
627.044	474.29
627.388	453.86
627.731	441.1
628.075	420.67
628.418	390.03
628.762	387.48
629.105	367.05
629.448	469.18
629.792	413.01
630.135	392.58
630.478	420.67
630.821	405.35
631.164	435.99
631.507	361.94
631.85	336.41
632.193	407.9
632.536	400.24
632.879	410.46
633.221	392.58
633.564	395.14
633.907	374.71
634.249	438.54
634.592	469.18
634.935	387.48
635.277	405.35
635.619	390.03
635.962	410.46
636.304	476.84
636.646	415.56
636.989	374.71
637.331	407.9
637.673	458.97
638.015	435.99
638.357	405.35
638.699	405.35
639.041	441.1
639.383	410.46
639.725	359.39
640.067	390.03
640.408	415.56
640.75	448.76
641.092	489.61
641.433	397.69
641.775	418.12
642.116	430.88
642.458	441.1
642.799	379.81
643.141	354.28
643.482	374.71
643.823	392.58
644.164	448.76
644.506	510.04
644.847	420.67
645.188	430.88
645.529	372.15
645.87	359.39
646.211	502.38
646.552	438.54
646.893	428.33
647.233	407.9
647.574	351.73
647.915	418.12
648.255	415.56
648.596	415.56
648.937	451.31
649.277	382.37
649.618	405.35
649.958	446.2
650.298	364.49
650.639	438.54
650.979	387.48
651.319	349.17
651.659	349.17
651.999	369.6
652.339	369.6
652.679	405.35
653.019	448.76
653.359	413.01
653.699	341.51
654.039	458.97
654.379	435.99
654.719	405.35
655.058	397.69
655.398	402.8
655.737	461.52
656.077	415.56
656.416	364.49
656.756	415.56
657.095	433.44
657.435	397.69
657.774	435.99
658.113	379.81
658.452	349.17
658.792	397.69
659.131	405.35
659.47	333.85
659.809	433.44
660.148	387.48
660.487	384.92
660.826	420.67
661.164	446.2
661.503	504.93
661.842	435.99
662.181	435.99
662.519	382.37
662.858	415.56
663.196	438.54
663.535	369.6
663.873	333.85
664.212	428.33
664.55	435.99
664.888	400.24
665.226	372.15
665.565	420.67
665.903	640.26
666.241	420.67
666.579	377.26
666.917	458.97
667.255	407.9
667.593	400.24
667.931	433.44
668.268	359.39
668.606	471.74
668.944	425.78
669.282	356.83
669.619	382.37
669.957	351.73
670.294	372.15
670.632	400.24
670.969	420.67
671.307	392.58
671.644	474.29
671.981	438.54
672.318	418.12
672.656	367.05
672.993	367.05
673.33	448.76
673.667	379.81
674.004	364.49
674.341	390.03
674.678	405.35
675.015	415.56
675.351	387.48
675.688	354.28
676.025	351.73
676.362	405.35
676.698	466.63
677.035	390.03
677.371	364.49
677.708	387.48
678.044	359.39
678.38	441.1
678.717	392.58
679.053	400.24
679.389	435.99
679.725	418.12
680.062	407.9
680.398	464.08
680.734	443.65
681.07	384.92
681.406	400.24
681.742	415.56
682.077	418.12
682.413	351.73
682.749	425.78
683.085	402.8
683.42	395.14
683.756	461.52
684.091	433.44
684.427	349.17
684.762	423.22
685.098	400.24
685.433	392.58
685.768	377.26
686.104	407.9
686.439	402.8
686.774	315.98
687.109	356.83
687.444	405.35
687.779	405.35
688.114	407.9
688.449	410.46
688.784	349.17
689.119	364.49
689.454	441.1
689.789	318.53
690.123	392.58
690.458	356.83
690.792	497.27
691.127	397.69
691.461	413.01
691.796	458.97
692.13	390.03
692.465	400.24
692.799	390.03
693.133	407.9
693.467	446.2
693.802	433.44
694.136	351.73
694.47	413.01
694.804	446.2
695.138	349.17
695.472	382.37
695.806	458.97
696.139	346.62
696.473	400.24
696.807	413.01
697.141	433.44
697.474	456.42
697.808	395.14
698.141	418.12
698.475	438.54
698.808	377.26
699.142	379.81
699.475	425.78
699.808	420.67
700.142	364.49
700.475	384.92
700.808	356.83
701.141	390.03
701.474	367.05
701.807	435.99
702.14	405.35
702.473	369.6
702.806	372.15
703.139	328.75
703.472	395.14
703.804	359.39
704.137	387.48
704.47	448.76
704.802	418.12
705.135	435.99
705.467	387.48
705.8	461.52
706.132	400.24
706.464	425.78
706.797	410.46
707.129	456.42
707.461	418.12
707.793	484.5
708.125	344.07
708.457	387.48
708.789	349.17
709.121	430.88
709.453	387.48
709.785	425.78
710.117	415.56
710.449	387.48
710.781	438.54
711.112	430.88
711.444	435.99
711.775	379.81
712.107	415.56
712.438	379.81
712.77	423.22
713.101	374.71
713.433	356.83
713.764	410.46
714.095	413.01
714.426	377.26
714.757	420.67
715.089	390.03
715.42	474.29
715.751	474.29
716.082	400.24
716.412	377.26
716.743	402.8
717.074	418.12
717.405	407.9
717.736	474.29
718.066	369.6
718.397	367.05
718.727	410.46
719.058	384.92
719.388	397.69
719.719	448.76
720.049	390.03
720.38	453.86
720.71	425.78
721.04	430.88
721.37	446.2
721.7	423.22
722.031	453.86
722.361	379.81
722.691	326.19
723.021	430.88
723.35	382.37
723.68	418.12
724.01	413.01
724.34	384.92
724.67	443.65
724.999	423.22
725.329	384.92
725.658	494.72
725.988	369.6
726.317	397.69
726.647	443.65
726.976	395.14
727.306	377.26
727.635	407.9
727.964	359.39
728.293	351.73
728.622	405.35
728.952	435.99
729.281	461.52
729.61	377.26
729.939	387.48
730.267	430.88
730.596	390.03
730.925	413.01
731.254	430.88
731.583	364.49
731.911	377.26
732.24	443.65
732.568	433.44
732.897	413.01
733.225	420.67
733.554	441.1
733.882	372.15
734.21	377.26
734.539	351.73
734.867	397.69
735.195	387.48
735.523	397.69
735.851	441.1
736.179	377.26
736.507	349.17
736.835	461.52
737.163	430.88
737.491	474.29
737.819	374.71
738.147	387.48
738.474	453.86
738.802	438.54
739.13	407.9
739.457	400.24
739.785	364.49
740.112	428.33
740.44	400.24
740.767	420.67
741.094	413.01
741.422	354.28
741.749	400.24
742.076	367.05
742.403	392.58
742.73	397.69
743.057	364.49
743.384	382.37
743.711	446.2
744.038	392.58
744.365	476.84
744.692	390.03
745.018	387.48
745.345	395.14
745.672	392.58
745.998	338.96
746.325	402.8
746.651	338.96
746.978	379.81
747.304	402.8
747.631	413.01
747.957	438.54
748.283	377.26
748.61	387.48
748.936	372.15
749.262	407.9
749.588	395.14
749.914	405.35
750.24	420.67
750.566	392.58
750.892	420.67
751.218	374.71
751.543	395.14
751.869	418.12
752.195	428.33
752.521	413.01
752.846	441.1
753.172	527.91
753.497	425.78
753.823	441.1
754.148	443.65
754.473	413.01
754.799	410.46
755.124	395.14
755.449	397.69
755.774	418.12
756.1	448.76
756.425	392.58
756.75	379.81
757.075	415.56
757.4	456.42
757.724	405.35
758.049	448.76
758.374	418.12
758.699	425.78
759.024	405.35
759.348	430.88
759.673	435.99
759.997	395.14
760.322	461.52
760.646	425.78
760.971	443.65
761.295	354.28
761.619	425.78
761.944	443.65
762.268	456.42
762.592	458.97
762.916	415.56
763.24	461.52
763.564	458.97
763.888	487.06
764.212	533.02
764.536	527.91
764.86	561.1
765.184	604.51
765.508	665.79
765.831	658.13
766.155	880.28
766.478	732.18
766.802	719.41
767.126	750.05
767.449	780.7
767.772	821.55
768.096	936.45
768.419	939
768.742	923.68
769.066	1015.61
769.389	1046.25
769.712	1074.33
770.035	1018.16
770.358	1122.85
770.681	1301.58
771.004	1260.73
771.327	1260.73
771.65	1288.82
771.972	1360.31
772.295	1424.15
772.618	1449.68
772.941	1490.53
773.263	1393.51
773.586	1510.96
773.908	1628.42
774.231	1717.79
774.553	1763.75
774.875	1934.82
775.198	1947.59
775.52	1868.43
775.842	1832.69
776.164	1722.89
776.487	1878.65
776.809	1799.49
777.131	1968.02
777.453	1929.72
777.775	1932.27
778.096	1998.66
778.418	1970.57
778.74	1922.06
779.062	1993.55
779.384	2292.3
779.705	2448.05
780.027	2734.03
780.348	2700.84
780.67	2649.77
780.991	2726.37
781.313	3168.1
781.634	3178.32
781.955	2905.11
782.277	2879.57
782.598	2861.7
782.919	2802.97
783.24	2711.05
783.561	2905.11
783.882	2994.47
784.203	2997.03
784.524	2956.17
784.845	2884.68
785.166	2619.13
785.487	2588.49
785.807	2649.77
786.128	2450.6
786.449	2583.38
786.769	2705.94
787.09	2848.93
787.41	2997.03
787.731	3336.63
788.051	3454.08
788.372	3556.22
788.692	3750.27
789.012	3798.79
789.332	3877.94
789.653	4028.59
789.973	4151.15
790.293	3982.63
790.613	3556.22
790.933	3382.59
791.253	3242.15
791.573	3037.88
791.893	2851.48
792.212	2751.9
792.532	2762.12
792.852	2639.55
793.171	2675.3
793.491	2532.31
793.811	2522.1
794.13	2527.21
794.45	2654.87
794.769	2596.15
795.088	2754.46
795.408	2861.7
795.727	3042.99
796.046	2846.38
796.365	2736.58
796.684	2596.15
797.004	2624.23
797.323	2647.21
797.642	2831.06
797.96	2943.41
798.279	2961.28
798.598	2688.07
798.917	2629.34
799.236	2588.49
799.554	2455.71
799.873	2330.6
