Data from 2025-12-03_xpw_interference_micrometer_634_reference_FLMS141361__137__387.txt Node

Date: Wed Dec 03 15:51:26 MST 2025
User: james
Spectrometer: FLMS14136
Trigger mode: 0
Integration Time (sec): 1.000000E-1
Scans to average: 1
Electric dark correction enabled: true
Nonlinearity correction enabled: false
Boxcar width: 0
XAxis mode: Wavelengths
Number of Pixels in Spectrum: 2048
>>>>>Begin Spectral Data<<<<<
339.315	32.4
339.697	32.4
340.079	32.4
340.461	-72.29
340.843	-82.51
341.225	-69.74
341.607	-74.85
341.989	-95.27
342.371	-31.44
342.752	-179.53
343.134	-54.42
343.516	-26.33
343.897	-16.12
344.279	19.63
344.661	32.4
345.042	75.8
345.423	88.57
345.805	52.82
346.186	45.16
346.567	98.78
346.949	134.53
347.33	167.73
347.711	185.6
348.092	236.67
348.473	198.37
348.854	206.03
349.235	297.95
349.616	251.99
349.997	313.27
350.378	313.27
350.758	349.01
351.139	338.8
351.52	366.89
351.9	372
352.281	387.32
352.661	405.19
353.042	354.12
353.422	397.53
353.803	405.19
354.183	366.89
354.563	356.67
354.943	407.74
355.324	387.32
355.704	397.53
356.084	361.78
356.464	469.02
356.844	377.1
357.224	438.38
357.603	366.89
357.983	420.51
358.363	463.92
358.743	443.49
359.122	423.06
359.502	392.42
359.882	405.19
360.261	364.34
360.641	420.51
361.02	394.98
361.399	379.66
361.779	448.6
362.158	448.6
362.537	374.55
362.916	428.17
363.296	384.76
363.675	377.1
364.054	295.39
364.433	361.78
364.812	346.46
365.19	377.1
365.569	402.64
365.948	315.82
366.327	389.87
366.705	310.71
367.084	392.42
367.463	343.91
367.841	366.89
368.22	318.37
368.598	328.59
368.977	282.63
369.355	305.61
369.733	331.14
370.111	389.87
370.49	323.48
370.868	341.35
371.246	305.61
371.624	262.2
372.002	323.48
372.38	397.53
372.758	349.01
373.136	397.53
373.513	387.32
373.891	377.1
374.269	346.46
374.646	410.3
375.024	428.17
375.402	382.21
375.779	412.85
376.157	341.35
376.534	323.48
376.911	351.57
377.289	384.76
377.666	389.87
378.043	374.55
378.42	372
378.797	374.55
379.175	326.03
379.552	379.66
379.929	356.67
380.305	379.66
380.682	377.1
381.059	372
381.436	405.19
381.813	377.1
382.189	338.8
382.566	387.32
382.943	440.94
383.319	397.53
383.696	351.57
384.072	384.76
384.448	412.85
384.825	379.66
385.201	346.46
385.577	410.3
385.953	320.93
386.329	389.87
386.706	389.87
387.082	423.06
387.458	374.55
387.834	405.19
388.209	364.34
388.585	420.51
388.961	400.08
389.337	423.06
389.713	361.78
390.088	458.81
390.464	364.34
390.839	466.47
391.215	379.66
391.59	359.23
391.966	392.42
392.341	402.64
392.716	392.42
393.092	446.04
393.467	313.27
393.842	354.12
394.217	303.05
394.592	379.66
394.967	356.67
395.342	377.1
395.717	402.64
396.092	372
396.467	420.51
396.841	290.29
397.216	392.42
397.591	420.51
397.965	425.62
398.34	359.23
398.714	369.44
399.089	400.08
399.463	369.44
399.838	341.35
400.212	379.66
400.586	364.34
400.961	394.98
401.335	389.87
401.709	400.08
402.083	328.59
402.457	438.38
402.831	402.64
403.205	415.4
403.579	394.98
403.953	415.4
404.326	423.06
404.7	389.87
405.074	387.32
405.447	377.1
405.821	366.89
406.195	369.44
406.568	394.98
406.942	499.66
407.315	372
407.688	448.6
408.062	435.83
408.435	377.1
408.808	443.49
409.181	451.15
409.554	469.02
409.927	402.64
410.3	392.42
410.673	420.51
411.046	343.91
411.419	351.57
411.792	303.05
412.165	369.44
412.537	379.66
412.91	361.78
413.283	364.34
413.655	463.92
414.028	420.51
414.4	379.66
414.773	405.19
415.145	407.74
415.517	446.04
415.889	456.26
416.262	405.19
416.634	402.64
417.006	351.57
417.378	361.78
417.75	377.1
418.122	438.38
418.494	343.91
418.866	420.51
419.238	400.08
419.609	448.6
419.981	412.85
420.353	453.7
420.725	425.62
421.096	389.87
421.468	433.28
421.839	364.34
422.211	405.19
422.582	484.34
422.953	420.51
423.325	430.72
423.696	351.57
424.067	366.89
424.438	446.04
424.809	400.08
425.18	430.72
425.551	410.3
425.922	423.06
426.293	392.42
426.664	379.66
427.035	461.36
427.406	359.23
427.776	374.55
428.147	435.83
428.518	364.34
428.888	405.19
429.259	435.83
429.629	387.32
429.999	356.67
430.37	423.06
430.74	438.38
431.11	443.49
431.481	423.06
431.851	407.74
432.221	400.08
432.591	351.57
432.961	354.12
433.331	369.44
433.701	412.85
434.071	364.34
434.441	364.34
434.81	397.53
435.18	384.76
435.55	415.4
435.919	453.7
436.289	433.28
436.658	412.85
437.028	346.46
437.397	448.6
437.767	435.83
438.136	435.83
438.505	440.94
438.875	407.74
439.244	412.85
439.613	366.89
439.982	438.38
440.351	446.04
440.72	377.1
441.089	394.98
441.458	417.96
441.827	356.67
442.196	407.74
442.564	525.2
442.933	433.28
443.302	438.38
443.67	448.6
444.039	402.64
444.407	369.44
444.776	420.51
445.144	382.21
445.513	433.28
445.881	389.87
446.249	394.98
446.617	430.72
446.986	364.34
447.354	389.87
447.722	379.66
448.09	458.81
448.458	440.94
448.826	499.66
449.194	466.47
449.561	425.62
449.929	438.38
450.297	435.83
450.665	423.06
451.032	443.49
451.4	458.81
451.767	392.42
452.135	387.32
452.502	471.58
452.87	451.15
453.237	499.66
453.604	456.26
453.971	479.24
454.339	461.36
454.706	415.4
455.073	463.92
455.44	453.7
455.807	377.1
456.174	476.68
456.541	448.6
456.908	440.94
457.274	394.98
457.641	341.35
458.008	417.96
458.374	438.38
458.741	451.15
459.108	402.64
459.474	486.9
459.841	387.32
460.207	423.06
460.573	328.59
460.94	435.83
461.306	448.6
461.672	443.49
462.038	461.36
462.404	492
462.771	377.1
463.137	402.64
463.503	425.62
463.868	435.83
464.234	420.51
464.6	423.06
464.966	410.3
465.332	428.17
465.697	433.28
466.063	430.72
466.429	405.19
466.794	446.04
467.16	372
467.525	384.76
467.89	430.72
468.256	407.74
468.621	463.92
468.986	435.83
469.351	361.78
469.717	384.76
470.082	412.85
470.447	379.66
470.812	402.64
471.177	446.04
471.542	474.13
471.906	476.68
472.271	415.4
472.636	440.94
473.001	402.64
473.365	430.72
473.73	417.96
474.094	509.88
474.459	384.76
474.823	400.08
475.188	394.98
475.552	387.32
475.917	463.92
476.281	453.7
476.645	471.58
477.009	433.28
477.373	433.28
477.737	389.87
478.101	420.51
478.465	405.19
478.829	400.08
479.193	451.15
479.557	374.55
479.921	451.15
480.284	479.24
480.648	394.98
481.012	481.79
481.375	443.49
481.739	481.79
482.102	423.06
482.466	433.28
482.829	461.36
483.193	405.19
483.556	415.4
483.919	394.98
484.282	410.3
484.645	359.23
485.009	407.74
485.372	356.67
485.735	397.53
486.098	425.62
486.46	430.72
486.823	479.24
487.186	397.53
487.549	438.38
487.912	397.53
488.274	430.72
488.637	397.53
488.999	479.24
489.362	504.77
489.724	423.06
490.087	466.47
490.449	417.96
490.811	397.53
491.174	512.43
491.536	410.3
491.898	412.85
492.26	494.56
492.622	372
492.984	405.19
493.346	420.51
493.708	440.94
494.07	394.98
494.432	410.3
494.794	428.17
495.155	425.62
495.517	461.36
495.879	366.89
496.24	471.58
496.602	448.6
496.963	509.88
497.325	405.19
497.686	412.85
498.048	486.9
498.409	474.13
498.77	453.7
499.131	453.7
499.492	420.51
499.854	392.42
500.215	374.55
500.576	466.47
500.937	430.72
501.298	466.47
501.658	446.04
502.019	458.81
502.38	479.24
502.741	400.08
503.101	448.6
503.462	417.96
503.823	469.02
504.183	392.42
504.543	420.51
504.904	407.74
505.264	402.64
505.625	412.85
505.985	405.19
506.345	440.94
506.705	417.96
507.065	379.66
507.426	394.98
507.786	458.81
508.146	410.3
508.505	412.85
508.865	364.34
509.225	417.96
509.585	489.45
509.945	440.94
510.304	394.98
510.664	443.49
511.024	417.96
511.383	387.32
511.743	420.51
512.102	423.06
512.462	420.51
512.821	417.96
513.18	438.38
513.539	507.32
513.899	425.62
514.258	425.62
514.617	443.49
514.976	423.06
515.335	372
515.694	417.96
516.053	438.38
516.412	389.87
516.771	476.68
517.129	492
517.488	463.92
517.847	463.92
518.205	476.68
518.564	484.34
518.922	440.94
519.281	394.98
519.639	425.62
519.998	433.28
520.356	430.72
520.714	400.08
521.073	412.85
521.431	423.06
521.789	476.68
522.147	425.62
522.505	440.94
522.863	420.51
523.221	420.51
523.579	402.64
523.937	412.85
524.295	415.4
524.652	405.19
525.01	440.94
525.368	456.26
525.725	440.94
526.083	412.85
526.44	428.17
526.798	394.98
527.155	438.38
527.513	389.87
527.87	466.47
528.227	433.28
528.584	443.49
528.942	397.53
529.299	394.98
529.656	423.06
530.013	461.36
530.37	456.26
530.727	474.13
531.083	443.49
531.44	435.83
531.797	466.47
532.154	433.28
532.511	512.43
532.867	456.26
533.224	479.24
533.58	443.49
533.937	435.83
534.293	435.83
534.65	402.64
535.006	474.13
535.362	440.94
535.718	479.24
536.075	351.57
536.431	527.75
536.787	384.76
537.143	430.72
537.499	407.74
537.855	400.08
538.211	428.17
538.567	387.32
538.923	435.83
539.278	458.81
539.634	471.58
539.99	448.6
540.345	453.7
540.701	428.17
541.056	402.64
541.412	364.34
541.767	469.02
542.123	456.26
542.478	407.74
542.833	400.08
543.188	412.85
543.544	392.42
543.899	417.96
544.254	392.42
544.609	435.83
544.964	394.98
545.319	394.98
545.674	433.28
546.029	451.15
546.383	428.17
546.738	453.7
547.093	479.24
547.447	389.87
547.802	446.04
548.157	392.42
548.511	359.23
548.866	453.7
549.22	400.08
549.574	469.02
549.929	420.51
550.283	394.98
550.637	410.3
550.991	451.15
551.345	443.49
551.699	349.01
552.053	428.17
552.407	400.08
552.761	456.26
553.115	481.79
553.469	400.08
553.823	392.42
554.176	425.62
554.53	387.32
554.884	369.44
555.237	726.91
555.591	379.66
555.944	412.85
556.298	438.38
556.651	461.36
557.005	415.4
557.358	349.01
557.711	466.47
558.064	361.78
558.417	461.36
558.771	509.88
559.124	440.94
559.477	387.32
559.83	379.66
560.182	425.62
560.535	423.06
560.888	430.72
561.241	428.17
561.594	400.08
561.946	423.06
562.299	420.51
562.651	456.26
563.004	402.64
563.356	420.51
563.709	446.04
564.061	410.3
564.413	407.74
564.766	400.08
565.118	349.01
565.47	392.42
565.822	420.51
566.174	438.38
566.526	394.98
566.878	415.4
567.23	420.51
567.582	379.66
567.934	361.78
568.286	423.06
568.638	469.02
568.989	446.04
569.341	374.55
569.693	394.98
570.044	522.64
570.396	423.06
570.747	469.02
571.098	336.25
571.45	387.32
571.801	394.98
572.152	379.66
572.504	443.49
572.855	417.96
573.206	443.49
573.557	499.66
573.908	410.3
574.259	400.08
574.61	402.64
574.961	400.08
575.311	423.06
575.662	430.72
576.013	415.4
576.364	440.94
576.714	440.94
577.065	379.66
577.415	384.76
577.766	443.49
578.116	440.94
578.467	425.62
578.817	389.87
579.167	504.77
579.518	374.55
579.868	389.87
580.218	453.7
580.568	466.47
580.918	384.76
581.268	392.42
581.618	410.3
581.968	456.26
582.318	423.06
582.668	448.6
583.017	466.47
583.367	456.26
583.717	382.21
584.066	415.4
584.416	499.66
584.765	402.64
585.115	382.21
585.464	446.04
585.814	428.17
586.163	397.53
586.512	394.98
586.862	354.12
587.211	448.6
587.56	407.74
587.909	448.6
588.258	469.02
588.607	443.49
588.956	469.02
589.305	331.14
589.654	428.17
590.002	428.17
590.351	471.58
590.7	448.6
591.048	410.3
591.397	433.28
591.746	407.74
592.094	435.83
592.443	397.53
592.791	379.66
593.139	435.83
593.488	433.28
593.836	351.57
594.184	346.46
594.532	425.62
594.88	407.74
595.228	364.34
595.576	446.04
595.924	489.45
596.272	433.28
596.62	438.38
596.968	392.42
597.316	372
597.664	428.17
598.011	425.62
598.359	397.53
598.706	461.36
599.054	394.98
599.402	489.45
599.749	433.28
600.096	453.7
600.444	461.36
600.791	397.53
601.138	392.42
601.485	425.62
601.833	374.55
602.18	430.72
602.527	484.34
602.874	435.83
603.221	387.32
603.568	458.81
603.914	440.94
604.261	394.98
604.608	412.85
604.955	397.53
605.301	407.74
605.648	400.08
605.995	402.64
606.341	379.66
606.688	417.96
607.034	397.53
607.38	466.47
607.727	451.15
608.073	359.23
608.419	463.92
608.765	387.32
609.112	484.34
609.458	405.19
609.804	446.04
610.15	420.51
610.496	407.74
610.842	379.66
611.187	453.7
611.533	443.49
611.879	405.19
612.225	423.06
612.57	410.3
612.916	415.4
613.261	405.19
613.607	423.06
613.952	379.66
614.298	400.08
614.643	331.14
614.989	474.13
615.334	410.3
615.679	461.36
616.024	461.36
616.369	379.66
616.714	415.4
617.059	440.94
617.404	425.62
617.749	415.4
618.094	354.12
618.439	423.06
618.784	497.11
619.129	443.49
619.473	372
619.818	458.81
620.163	415.4
620.507	428.17
620.852	420.51
621.196	405.19
621.54	392.42
621.885	423.06
622.229	458.81
622.573	446.04
622.918	469.02
623.262	384.76
623.606	425.62
623.95	438.38
624.294	382.21
624.638	397.53
624.982	392.42
625.326	448.6
625.67	474.13
626.013	481.79
626.357	407.74
626.701	400.08
627.044	366.89
627.388	384.76
627.731	471.58
628.075	392.42
628.418	481.79
628.762	417.96
629.105	392.42
629.448	415.4
629.792	435.83
630.135	440.94
630.478	412.85
630.821	425.62
631.164	417.96
631.507	387.32
631.85	400.08
632.193	415.4
632.536	433.28
632.879	443.49
633.221	484.34
633.564	456.26
633.907	479.24
634.249	405.19
634.592	369.44
634.935	333.69
635.277	387.32
635.619	433.28
635.962	361.78
636.304	389.87
636.646	428.17
636.989	423.06
637.331	394.98
637.673	435.83
638.015	430.72
638.357	428.17
638.699	420.51
639.041	463.92
639.383	433.28
639.725	476.68
640.067	412.85
640.408	435.83
640.75	400.08
641.092	389.87
641.433	402.64
641.775	461.36
642.116	392.42
642.458	415.4
642.799	405.19
643.141	405.19
643.482	451.15
643.823	389.87
644.164	433.28
644.506	489.45
644.847	402.64
645.188	354.12
645.529	364.34
645.87	394.98
646.211	443.49
646.552	374.55
646.893	423.06
647.233	412.85
647.574	428.17
647.915	379.66
648.255	443.49
648.596	405.19
648.937	461.36
649.277	417.96
649.618	456.26
649.958	471.58
650.298	484.34
650.639	461.36
650.979	463.92
651.319	402.64
651.659	349.01
651.999	400.08
652.339	415.4
652.679	379.66
653.019	425.62
653.359	400.08
653.699	338.8
654.039	397.53
654.379	359.23
654.719	448.6
655.058	405.19
655.398	415.4
655.737	448.6
656.077	446.04
656.416	438.38
656.756	433.28
657.095	377.1
657.435	458.81
657.774	463.92
658.113	412.85
658.452	415.4
658.792	417.96
659.131	407.74
659.47	394.98
659.809	481.79
660.148	417.96
660.487	433.28
660.826	423.06
661.164	377.1
661.503	405.19
661.842	438.38
662.181	461.36
662.519	425.62
662.858	453.7
663.196	417.96
663.535	458.81
663.873	374.55
664.212	443.49
664.55	517.54
664.888	458.81
665.226	387.32
665.565	412.85
665.903	599.25
666.241	433.28
666.579	453.7
666.917	397.53
667.255	420.51
667.593	438.38
667.931	451.15
668.268	394.98
668.606	377.1
668.944	328.59
669.282	453.7
669.619	430.72
669.957	366.89
670.294	372
670.632	400.08
670.969	425.62
671.307	420.51
671.644	443.49
671.981	446.04
672.318	435.83
672.656	402.64
672.993	471.58
673.33	446.04
673.667	433.28
674.004	417.96
674.341	415.4
674.678	405.19
675.015	504.77
675.351	430.72
675.688	433.28
676.025	469.02
676.362	448.6
676.698	420.51
677.035	440.94
677.371	440.94
677.708	479.24
678.044	377.1
678.38	384.76
678.717	415.4
679.053	405.19
679.389	489.45
679.725	402.64
680.062	448.6
680.398	433.28
680.734	438.38
681.07	428.17
681.406	420.51
681.742	417.96
682.077	389.87
682.413	423.06
682.749	402.64
683.085	410.3
683.42	382.21
683.756	400.08
684.091	415.4
684.427	430.72
684.762	379.66
685.098	349.01
685.433	359.23
685.768	361.78
686.104	425.62
686.439	446.04
686.774	476.68
687.109	410.3
687.444	405.19
687.779	412.85
688.114	392.42
688.449	346.46
688.784	364.34
689.119	346.46
689.454	359.23
689.789	425.62
690.123	382.21
690.458	448.6
690.792	448.6
691.127	364.34
691.461	361.78
691.796	476.68
692.13	377.1
692.465	402.64
692.799	387.32
693.133	405.19
693.467	361.78
693.802	412.85
694.136	430.72
694.47	474.13
694.804	407.74
695.138	369.44
695.472	435.83
695.806	435.83
696.139	400.08
696.473	433.28
696.807	502.22
697.141	438.38
697.474	412.85
697.808	492
698.141	435.83
698.475	389.87
698.808	361.78
699.142	415.4
699.475	354.12
699.808	366.89
700.142	435.83
700.475	405.19
700.808	377.1
701.141	423.06
701.474	412.85
701.807	366.89
702.14	412.85
702.473	448.6
702.806	430.72
703.139	405.19
703.472	438.38
703.804	451.15
704.137	382.21
704.47	349.01
704.802	356.67
705.135	326.03
705.467	364.34
705.8	405.19
706.132	354.12
706.464	377.1
706.797	382.21
707.129	453.7
707.461	489.45
707.793	407.74
708.125	448.6
708.457	420.51
708.789	369.44
709.121	428.17
709.453	407.74
709.785	392.42
710.117	471.58
710.449	471.58
710.781	438.38
711.112	377.1
711.444	451.15
711.775	451.15
712.107	461.36
712.438	443.49
712.77	504.77
713.101	415.4
713.433	354.12
713.764	333.69
714.095	379.66
714.426	369.44
714.757	469.02
715.089	484.34
715.42	453.7
715.751	420.51
716.082	389.87
716.412	397.53
716.743	400.08
717.074	435.83
717.405	451.15
717.736	389.87
718.066	433.28
718.397	420.51
718.727	356.67
719.058	420.51
719.388	420.51
719.719	435.83
720.049	405.19
720.38	443.49
720.71	440.94
721.04	389.87
721.37	463.92
721.7	423.06
722.031	435.83
722.361	394.98
722.691	354.12
723.021	400.08
723.35	374.55
723.68	382.21
724.01	407.74
724.34	402.64
724.67	400.08
724.999	458.81
725.329	420.51
725.658	397.53
725.988	420.51
726.317	466.47
726.647	438.38
726.976	446.04
727.306	382.21
727.635	425.62
727.964	351.57
728.293	351.57
728.622	407.74
728.952	405.19
729.281	443.49
729.61	359.23
729.939	389.87
730.267	320.93
730.596	397.53
730.925	400.08
731.254	400.08
731.583	451.15
731.911	394.98
732.24	387.32
732.568	394.98
732.897	389.87
733.225	379.66
733.554	423.06
733.882	397.53
734.21	412.85
734.539	451.15
734.867	435.83
735.195	451.15
735.523	387.32
735.851	374.55
736.179	379.66
736.507	387.32
736.835	440.94
737.163	423.06
737.491	448.6
737.819	461.36
738.147	377.1
738.474	405.19
738.802	389.87
739.13	310.71
739.457	389.87
739.785	423.06
740.112	402.64
740.44	430.72
740.767	379.66
741.094	349.01
741.422	394.98
741.749	384.76
742.076	384.76
742.403	394.98
742.73	471.58
743.057	336.25
743.384	448.6
743.711	387.32
744.038	361.78
744.365	405.19
744.692	397.53
745.018	397.53
745.345	372
745.672	405.19
745.998	438.38
746.325	412.85
746.651	402.64
746.978	415.4
747.304	417.96
747.631	458.81
747.957	425.62
748.283	476.68
748.61	402.64
748.936	433.28
749.262	412.85
749.588	356.67
749.914	402.64
750.24	456.26
750.566	374.55
750.892	318.37
751.218	361.78
751.543	425.62
751.869	407.74
752.195	412.85
752.521	471.58
752.846	405.19
753.172	458.81
753.497	407.74
753.823	338.8
754.148	394.98
754.473	443.49
754.799	402.64
755.124	407.74
755.449	435.83
755.774	453.7
756.1	440.94
756.425	410.3
756.75	423.06
757.075	469.02
757.4	543.07
757.724	446.04
758.049	446.04
758.374	410.3
758.699	377.1
759.024	400.08
759.348	397.53
759.673	423.06
759.997	456.26
760.322	402.64
760.646	430.72
760.971	423.06
761.295	374.55
761.619	382.21
761.944	394.98
762.268	486.9
762.592	410.3
762.916	438.38
763.24	532.86
763.564	514.98
763.888	489.45
764.212	471.58
764.536	560.95
764.86	563.5
765.184	507.32
765.508	663.08
765.831	568.61
766.155	770.32
766.478	747.34
766.802	760.11
767.126	749.9
767.449	903.1
767.772	946.51
768.096	880.12
768.419	869.9
768.742	1048.64
769.066	961.83
769.389	959.27
769.712	1069.07
770.035	1089.49
770.358	1148.22
770.681	1150.78
771.004	1122.69
771.327	1163.54
771.65	1199.29
771.972	1390.79
772.295	1352.49
772.618	1429.09
772.941	1413.77
773.263	1482.71
773.586	1513.36
773.908	1707.41
774.231	1725.29
774.553	1753.37
774.875	1870.83
775.198	1875.93
775.52	1784.01
775.842	1909.13
776.164	1786.57
776.487	1891.26
776.809	1939.77
777.131	1832.53
777.453	1873.38
777.775	1868.27
778.096	2049.56
778.418	2026.58
778.74	1921.9
779.062	2024.03
779.384	2200.21
779.705	2435.12
780.027	2672.59
780.348	2601.09
780.67	2483.64
780.991	2713.44
781.313	2984.1
781.634	3088.79
781.955	2910.05
782.277	2744.08
782.598	2828.34
782.919	2830.9
783.24	2887.07
783.561	2894.73
783.882	2756.85
784.203	2925.37
784.524	2876.86
784.845	2767.06
785.166	2667.48
785.487	2593.43
785.807	2708.34
786.128	2598.54
786.449	2511.73
786.769	2652.16
787.09	2710.89
787.41	2851.33
787.731	3111.77
788.051	3349.23
788.372	3415.62
788.692	3693.94
789.012	3806.29
789.332	3762.88
789.653	3905.87
789.973	4107.59
790.293	3962.04
790.613	3538.18
790.933	3310.93
791.253	3188.37
791.573	2984.1
791.893	2991.76
792.212	2846.22
792.532	2662.38
792.852	2595.99
793.171	2611.31
793.491	2470.87
793.811	2516.83
794.13	2501.51
794.45	2442.78
794.769	2583.22
795.088	2680.25
795.408	2733.87
795.727	2961.12
796.046	2836.01
796.365	2664.93
796.684	2534.71
797.004	2516.83
797.323	2588.33
797.642	2920.27
797.96	2869.2
798.279	2892.18
798.598	2774.72
798.917	2626.63
799.236	2475.98
799.554	2281.92
799.873	2136.38
800.192	2184.89
800.51	2355.97
800.829	2264.05
801.147	2212.98
