Data from 2025-12-03_xpw_interference_micrometer_634_reference_FLMS141361__144__394.txt Node

Date: Wed Dec 03 15:51:27 MST 2025
User: james
Spectrometer: FLMS14136
Trigger mode: 0
Integration Time (sec): 1.000000E-1
Scans to average: 1
Electric dark correction enabled: true
Nonlinearity correction enabled: false
Boxcar width: 0
XAxis mode: Wavelengths
Number of Pixels in Spectrum: 2048
>>>>>Begin Spectral Data<<<<<
339.315	-60.96
339.697	-60.96
340.079	-60.96
340.461	-175.86
340.843	-178.42
341.225	-99.26
341.607	-114.58
341.989	-89.05
342.371	-112.03
342.752	-112.03
343.134	-22.66
343.516	-76.28
343.897	-43.09
344.279	38.62
344.661	48.83
345.042	51.39
345.423	102.45
345.805	15.64
346.186	97.35
346.567	153.52
346.949	161.18
347.33	145.86
347.711	168.84
348.092	214.8
348.473	232.68
348.854	270.98
349.235	242.89
349.616	265.87
349.997	248
350.378	301.62
350.758	368.01
351.139	413.97
351.52	304.17
351.9	324.6
352.281	332.26
352.661	288.85
353.042	306.72
353.422	403.75
353.803	475.25
354.183	439.5
354.563	396.09
354.943	329.7
355.324	306.72
355.704	342.47
356.084	355.24
356.464	352.69
356.844	477.8
357.224	442.05
357.603	322.04
357.983	403.75
358.363	393.54
358.743	459.93
359.122	431.84
359.502	434.39
359.882	378.22
360.261	383.33
360.641	350.13
361.02	375.67
361.399	352.69
361.779	299.06
362.158	281.19
362.537	288.85
362.916	337.37
363.296	332.26
363.675	299.06
364.054	327.15
364.433	324.6
364.812	334.81
365.19	347.58
365.569	355.24
365.948	309.28
366.327	347.58
366.705	413.97
367.084	345.03
367.463	342.47
367.841	339.92
368.22	329.7
368.598	383.33
368.977	332.26
369.355	301.62
369.733	350.13
370.111	339.92
370.49	357.79
370.868	362.9
371.246	337.37
371.624	288.85
372.002	309.28
372.38	329.7
372.758	337.37
373.136	385.88
373.513	319.49
373.891	370.56
374.269	345.03
374.646	431.84
375.024	347.58
375.402	324.6
375.779	385.88
376.157	383.33
376.534	263.32
376.911	319.49
377.289	342.47
377.666	373.11
378.043	332.26
378.42	332.26
378.797	293.96
379.175	383.33
379.552	337.37
379.929	347.58
380.305	322.04
380.682	398.65
381.059	327.15
381.436	334.81
381.813	339.92
382.189	408.86
382.566	390.99
382.943	370.56
383.319	398.65
383.696	390.99
384.072	396.09
384.448	355.24
384.825	299.06
385.201	334.81
385.577	401.2
385.953	378.22
386.329	311.83
386.706	360.35
387.082	337.37
387.458	370.56
387.834	375.67
388.209	444.61
388.585	380.77
388.961	421.63
389.337	401.2
389.713	429.29
390.088	398.65
390.464	329.7
390.839	334.81
391.215	360.35
391.59	452.27
391.966	401.2
392.341	385.88
392.716	352.69
393.092	339.92
393.467	329.7
393.842	365.45
394.217	429.29
394.592	347.58
394.967	370.56
395.342	350.13
395.717	373.11
396.092	345.03
396.467	406.31
396.841	411.41
397.216	355.24
397.591	352.69
397.965	378.22
398.34	337.37
398.714	350.13
399.089	322.04
399.463	378.22
399.838	421.63
400.212	406.31
400.586	396.09
400.961	373.11
401.335	370.56
401.709	345.03
402.083	408.86
402.457	429.29
402.831	408.86
403.205	447.16
403.579	337.37
403.953	355.24
404.326	365.45
404.7	355.24
405.074	393.54
405.447	380.77
405.821	470.14
406.195	357.79
406.568	373.11
406.942	434.39
407.315	385.88
407.688	329.7
408.062	350.13
408.435	419.07
408.808	342.47
409.181	403.75
409.554	416.52
409.927	370.56
410.3	365.45
410.673	337.37
411.046	352.69
411.419	393.54
411.792	390.99
412.165	383.33
412.537	319.49
412.91	342.47
413.283	357.79
413.655	406.31
414.028	403.75
414.4	406.31
414.773	383.33
415.145	457.37
415.517	373.11
415.889	434.39
416.262	342.47
416.634	434.39
417.006	373.11
417.378	393.54
417.75	383.33
418.122	383.33
418.494	449.71
418.866	424.18
419.238	393.54
419.609	439.5
419.981	398.65
420.353	493.12
420.725	403.75
421.096	424.18
421.468	345.03
421.839	406.31
422.211	411.41
422.582	332.26
422.953	368.01
423.325	357.79
423.696	398.65
424.067	442.05
424.438	368.01
424.809	278.64
425.18	360.35
425.551	503.33
425.922	431.84
426.293	431.84
426.664	385.88
427.035	431.84
427.406	431.84
427.776	401.2
428.147	396.09
428.518	434.39
428.888	355.24
429.259	365.45
429.629	447.16
429.999	378.22
430.37	383.33
430.74	398.65
431.11	413.97
431.481	357.79
431.851	375.67
432.221	398.65
432.591	411.41
432.961	439.5
433.331	309.28
433.701	398.65
434.071	401.2
434.441	339.92
434.81	416.52
435.18	390.99
435.55	411.41
435.919	447.16
436.289	385.88
436.658	393.54
437.028	385.88
437.397	431.84
437.767	419.07
438.136	413.97
438.505	470.14
438.875	424.18
439.244	518.65
439.613	365.45
439.982	383.33
440.351	324.6
440.72	408.86
441.089	413.97
441.458	357.79
441.827	357.79
442.196	408.86
442.564	472.69
442.933	444.61
443.302	401.2
443.67	401.2
444.039	370.56
444.407	406.31
444.776	373.11
445.144	411.41
445.513	385.88
445.881	416.52
446.249	470.14
446.617	398.65
446.986	396.09
447.354	490.57
447.722	434.39
448.09	472.69
448.458	411.41
448.826	352.69
449.194	360.35
449.561	403.75
449.929	411.41
450.297	426.73
450.665	419.07
451.032	426.73
451.4	368.01
451.767	431.84
452.135	362.9
452.502	385.88
452.87	383.33
453.237	411.41
453.604	452.27
453.971	408.86
454.339	398.65
454.706	424.18
455.073	350.13
455.44	431.84
455.807	355.24
456.174	416.52
456.541	408.86
456.908	421.63
457.274	411.41
457.641	475.25
458.008	362.9
458.374	426.73
458.741	447.16
459.108	457.37
459.474	373.11
459.841	327.15
460.207	429.29
460.573	403.75
460.94	383.33
461.306	383.33
461.672	375.67
462.038	508.44
462.404	439.5
462.771	454.82
463.137	398.65
463.503	378.22
463.868	419.07
464.234	396.09
464.6	429.29
464.966	436.95
465.332	355.24
465.697	406.31
466.063	413.97
466.429	416.52
466.794	388.43
467.16	419.07
467.525	398.65
467.89	424.18
468.256	383.33
468.621	452.27
468.986	375.67
469.351	375.67
469.717	408.86
470.082	357.79
470.447	314.38
470.812	449.71
471.177	424.18
471.542	401.2
471.906	345.03
472.271	393.54
472.636	401.2
473.001	383.33
473.365	370.56
473.73	383.33
474.094	398.65
474.459	411.41
474.823	393.54
475.188	436.95
475.552	383.33
475.917	385.88
476.281	396.09
476.645	398.65
477.009	388.43
477.373	378.22
477.737	368.01
478.101	362.9
478.465	370.56
478.829	390.99
479.193	365.45
479.557	396.09
479.921	393.54
480.284	329.7
480.648	390.99
481.012	419.07
481.375	373.11
481.739	403.75
482.102	385.88
482.466	390.99
482.829	452.27
483.193	413.97
483.556	403.75
483.919	408.86
484.282	421.63
484.645	426.73
485.009	332.26
485.372	373.11
485.735	411.41
486.098	416.52
486.46	378.22
486.823	419.07
487.186	388.43
487.549	365.45
487.912	362.9
488.274	426.73
488.637	426.73
488.999	457.37
489.362	424.18
489.724	383.33
490.087	373.11
490.449	383.33
490.811	403.75
491.174	429.29
491.536	383.33
491.898	357.79
492.26	413.97
492.622	439.5
492.984	406.31
493.346	332.26
493.708	406.31
494.07	439.5
494.432	345.03
494.794	378.22
495.155	444.61
495.517	434.39
495.879	396.09
496.24	393.54
496.602	380.77
496.963	408.86
497.325	429.29
497.686	419.07
498.048	327.15
498.409	442.05
498.77	380.77
499.131	488.01
499.492	370.56
499.854	396.09
500.215	406.31
500.576	436.95
500.937	373.11
501.298	452.27
501.658	444.61
502.019	393.54
502.38	439.5
502.741	362.9
503.101	334.81
503.462	368.01
503.823	434.39
504.183	380.77
504.543	383.33
504.904	465.03
505.264	416.52
505.625	368.01
505.985	452.27
506.345	378.22
506.705	388.43
507.065	403.75
507.426	390.99
507.786	396.09
508.146	350.13
508.505	406.31
508.865	368.01
509.225	396.09
509.585	439.5
509.945	411.41
510.304	357.79
510.664	421.63
511.024	470.14
511.383	431.84
511.743	390.99
512.102	416.52
512.462	426.73
512.821	370.56
513.18	447.16
513.539	416.52
513.899	424.18
514.258	413.97
514.617	350.13
514.976	454.82
515.335	459.93
515.694	393.54
516.053	393.54
516.412	447.16
516.771	424.18
517.129	385.88
517.488	393.54
517.847	419.07
518.205	352.69
518.564	408.86
518.922	398.65
519.281	286.3
519.639	390.99
519.998	444.61
520.356	355.24
520.714	411.41
521.073	431.84
521.431	421.63
521.789	413.97
522.147	388.43
522.505	416.52
522.863	462.48
523.221	416.52
523.579	342.47
523.937	411.41
524.295	434.39
524.652	411.41
525.01	398.65
525.368	408.86
525.725	385.88
526.083	408.86
526.44	406.31
526.798	411.41
527.155	416.52
527.513	439.5
527.87	345.03
528.227	393.54
528.584	431.84
528.942	454.82
529.299	385.88
529.656	454.82
530.013	419.07
530.37	436.95
530.727	465.03
531.083	454.82
531.44	398.65
531.797	401.2
532.154	470.14
532.511	373.11
532.867	408.86
533.224	396.09
533.58	406.31
533.937	370.56
534.293	383.33
534.65	345.03
535.006	383.33
535.362	413.97
535.718	416.52
536.075	408.86
536.431	357.79
536.787	439.5
537.143	419.07
537.499	332.26
537.855	406.31
538.211	421.63
538.567	411.41
538.923	406.31
539.278	393.54
539.634	373.11
539.99	365.45
540.345	416.52
540.701	459.93
541.056	413.97
541.412	429.29
541.767	408.86
542.123	419.07
542.478	421.63
542.833	383.33
543.188	411.41
543.544	380.77
543.899	365.45
544.254	355.24
544.609	424.18
544.964	390.99
545.319	396.09
545.674	413.97
546.029	429.29
546.383	383.33
546.738	411.41
547.093	393.54
547.447	393.54
547.802	370.56
548.157	327.15
548.511	396.09
548.866	480.35
549.22	352.69
549.574	390.99
549.929	375.67
550.283	337.37
550.637	396.09
550.991	388.43
551.345	462.48
551.699	306.72
552.053	334.81
552.407	373.11
552.761	436.95
553.115	462.48
553.469	462.48
553.823	439.5
554.176	419.07
554.53	383.33
554.884	375.67
555.237	615.68
555.591	442.05
555.944	406.31
556.298	449.71
556.651	368.01
557.005	416.52
557.358	457.37
557.711	434.39
558.064	385.88
558.417	385.88
558.771	516.1
559.124	388.43
559.477	403.75
559.83	454.82
560.182	383.33
560.535	362.9
560.888	396.09
561.241	465.03
561.594	332.26
561.946	337.37
562.299	362.9
562.651	424.18
563.004	408.86
563.356	383.33
563.709	401.2
564.061	398.65
564.413	368.01
564.766	390.99
565.118	434.39
565.47	375.67
565.822	452.27
566.174	411.41
566.526	411.41
566.878	383.33
567.23	429.29
567.582	390.99
567.934	375.67
568.286	380.77
568.638	368.01
568.989	380.77
569.341	380.77
569.693	373.11
570.044	411.41
570.396	339.92
570.747	360.35
571.098	319.49
571.45	424.18
571.801	329.7
572.152	396.09
572.504	390.99
572.855	334.81
573.206	403.75
573.557	411.41
573.908	393.54
574.259	436.95
574.61	424.18
574.961	408.86
575.311	380.77
575.662	337.37
576.013	368.01
576.364	439.5
576.714	385.88
577.065	462.48
577.415	365.45
577.766	350.13
578.116	401.2
578.467	393.54
578.817	401.2
579.167	454.82
579.518	390.99
579.868	436.95
580.218	424.18
580.568	375.67
580.918	347.58
581.268	411.41
581.618	429.29
581.968	419.07
582.318	332.26
582.668	426.73
583.017	396.09
583.367	457.37
583.717	380.77
584.066	449.71
584.416	403.75
584.765	357.79
585.115	393.54
585.464	365.45
585.814	421.63
586.163	480.35
586.512	411.41
586.862	393.54
587.211	373.11
587.56	355.24
587.909	411.41
588.258	436.95
588.607	383.33
588.956	393.54
589.305	434.39
589.654	401.2
590.002	373.11
590.351	403.75
590.7	332.26
591.048	337.37
591.397	457.37
591.746	413.97
592.094	429.29
592.443	459.93
592.791	396.09
593.139	449.71
593.488	429.29
593.836	508.44
594.184	406.31
594.532	413.97
594.88	355.24
595.228	365.45
595.576	434.39
595.924	368.01
596.272	398.65
596.62	362.9
596.968	398.65
597.316	454.82
597.664	462.48
598.011	431.84
598.359	393.54
598.706	375.67
599.054	429.29
599.402	360.35
599.749	462.48
600.096	413.97
600.444	368.01
600.791	370.56
601.138	401.2
601.485	411.41
601.833	352.69
602.18	375.67
602.527	390.99
602.874	370.56
603.221	390.99
603.568	424.18
603.914	393.54
604.261	401.2
604.608	401.2
604.955	355.24
605.301	373.11
605.648	388.43
605.995	360.35
606.341	385.88
606.688	439.5
607.034	424.18
607.38	365.45
607.727	426.73
608.073	347.58
608.419	370.56
608.765	322.04
609.112	378.22
609.458	413.97
609.804	416.52
610.15	390.99
610.496	383.33
610.842	396.09
611.187	383.33
611.533	393.54
611.879	390.99
612.225	362.9
612.57	408.86
612.916	444.61
613.261	368.01
613.607	365.45
613.952	388.43
614.298	390.99
614.643	454.82
614.989	452.27
615.334	352.69
615.679	447.16
616.024	396.09
616.369	337.37
616.714	442.05
617.059	352.69
617.404	357.79
617.749	388.43
618.094	482.91
618.439	452.27
618.784	424.18
619.129	431.84
619.473	436.95
619.818	452.27
620.163	406.31
620.507	444.61
620.852	416.52
621.196	413.97
621.54	396.09
621.885	408.86
622.229	378.22
622.573	378.22
622.918	373.11
623.262	419.07
623.606	385.88
623.95	385.88
624.294	385.88
624.638	378.22
624.982	370.56
625.326	327.15
625.67	362.9
626.013	368.01
626.357	426.73
626.701	390.99
627.044	385.88
627.388	322.04
627.731	416.52
628.075	449.71
628.418	334.81
628.762	357.79
629.105	357.79
629.448	332.26
629.792	406.31
630.135	373.11
630.478	406.31
630.821	390.99
631.164	434.39
631.507	398.65
631.85	352.69
632.193	393.54
632.536	345.03
632.879	352.69
633.221	426.73
633.564	429.29
633.907	362.9
634.249	362.9
634.592	413.97
634.935	408.86
635.277	365.45
635.619	332.26
635.962	408.86
636.304	424.18
636.646	411.41
636.989	429.29
637.331	383.33
637.673	375.67
638.015	347.58
638.357	334.81
638.699	319.49
639.041	403.75
639.383	322.04
639.725	380.77
640.067	413.97
640.408	288.85
640.75	388.43
641.092	373.11
641.433	380.77
641.775	388.43
642.116	355.24
642.458	406.31
642.799	368.01
643.141	370.56
643.482	390.99
643.823	347.58
644.164	444.61
644.506	442.05
644.847	411.41
645.188	416.52
645.529	442.05
645.87	408.86
646.211	406.31
646.552	365.45
646.893	459.93
647.233	339.92
647.574	329.7
647.915	373.11
648.255	316.94
648.596	390.99
648.937	421.63
649.277	411.41
649.618	398.65
649.958	426.73
650.298	380.77
650.639	385.88
650.979	375.67
651.319	472.69
651.659	454.82
651.999	401.2
652.339	398.65
652.679	378.22
653.019	421.63
653.359	439.5
653.699	401.2
654.039	375.67
654.379	329.7
654.719	436.95
655.058	406.31
655.398	365.45
655.737	408.86
656.077	380.77
656.416	424.18
656.756	378.22
657.095	357.79
657.435	314.38
657.774	370.56
658.113	373.11
658.452	442.05
658.792	431.84
659.131	347.58
659.47	385.88
659.809	500.78
660.148	355.24
660.487	380.77
660.826	472.69
661.164	429.29
661.503	365.45
661.842	378.22
662.181	406.31
662.519	370.56
662.858	365.45
663.196	332.26
663.535	396.09
663.873	388.43
664.212	411.41
664.55	368.01
664.888	368.01
665.226	398.65
665.565	365.45
665.903	569.72
666.241	431.84
666.579	396.09
666.917	416.52
667.255	439.5
667.593	362.9
667.931	426.73
668.268	388.43
668.606	434.39
668.944	406.31
669.282	429.29
669.619	393.54
669.957	396.09
670.294	311.83
670.632	398.65
670.969	375.67
671.307	403.75
671.644	322.04
671.981	413.97
672.318	390.99
672.656	357.79
672.993	362.9
673.33	362.9
673.667	368.01
674.004	401.2
674.341	421.63
674.678	388.43
675.015	429.29
675.351	390.99
675.688	339.92
676.025	401.2
676.362	442.05
676.698	339.92
677.035	370.56
677.371	442.05
677.708	406.31
678.044	375.67
678.38	370.56
678.717	442.05
679.053	355.24
679.389	388.43
679.725	342.47
680.062	355.24
680.398	380.77
680.734	465.03
681.07	360.35
681.406	403.75
681.742	332.26
682.077	339.92
682.413	357.79
682.749	421.63
683.085	388.43
683.42	378.22
683.756	421.63
684.091	380.77
684.427	360.35
684.762	431.84
685.098	385.88
685.433	406.31
685.768	360.35
686.104	345.03
686.439	339.92
686.774	429.29
687.109	465.03
687.444	421.63
687.779	419.07
688.114	411.41
688.449	385.88
688.784	444.61
689.119	411.41
689.454	442.05
689.789	345.03
690.123	424.18
690.458	419.07
690.792	401.2
691.127	380.77
691.461	429.29
691.796	388.43
692.13	390.99
692.465	436.95
692.799	396.09
693.133	411.41
693.467	360.35
693.802	345.03
694.136	419.07
694.47	327.15
694.804	411.41
695.138	360.35
695.472	342.47
695.806	385.88
696.139	416.52
696.473	370.56
696.807	385.88
697.141	316.94
697.474	434.39
697.808	398.65
698.141	334.81
698.475	373.11
698.808	360.35
699.142	337.37
699.475	401.2
699.808	454.82
700.142	413.97
700.475	431.84
700.808	436.95
701.141	329.7
701.474	419.07
701.807	398.65
702.14	426.73
702.473	439.5
702.806	375.67
703.139	406.31
703.472	436.95
703.804	362.9
704.137	360.35
704.47	413.97
704.802	403.75
705.135	424.18
705.467	352.69
705.8	370.56
706.132	347.58
706.464	362.9
706.797	342.47
707.129	424.18
707.461	375.67
707.793	401.2
708.125	368.01
708.457	475.25
708.789	357.79
709.121	362.9
709.453	416.52
709.785	411.41
710.117	373.11
710.449	390.99
710.781	373.11
711.112	357.79
711.444	365.45
711.775	368.01
712.107	380.77
712.438	383.33
712.77	401.2
713.101	403.75
713.433	355.24
713.764	411.41
714.095	383.33
714.426	396.09
714.757	357.79
715.089	383.33
715.42	426.73
715.751	357.79
716.082	337.37
716.412	396.09
716.743	347.58
717.074	429.29
717.405	411.41
717.736	375.67
718.066	403.75
718.397	396.09
718.727	355.24
719.058	396.09
719.388	388.43
719.719	419.07
720.049	368.01
720.38	352.69
720.71	398.65
721.04	360.35
721.37	339.92
721.7	452.27
722.031	398.65
722.361	452.27
722.691	411.41
723.021	360.35
723.35	365.45
723.68	360.35
724.01	411.41
724.34	370.56
724.67	375.67
724.999	424.18
725.329	365.45
725.658	406.31
725.988	360.35
726.317	408.86
726.647	424.18
726.976	383.33
727.306	413.97
727.635	385.88
727.964	401.2
728.293	419.07
728.622	434.39
728.952	388.43
729.281	388.43
729.61	370.56
729.939	401.2
730.267	408.86
730.596	375.67
730.925	380.77
731.254	401.2
731.583	426.73
731.911	365.45
732.24	383.33
732.568	334.81
732.897	390.99
733.225	413.97
733.554	373.11
733.882	419.07
734.21	301.62
734.539	406.31
734.867	398.65
735.195	403.75
735.523	416.52
735.851	408.86
736.179	408.86
736.507	390.99
736.835	383.33
737.163	429.29
737.491	411.41
737.819	406.31
738.147	350.13
738.474	398.65
738.802	401.2
739.13	375.67
739.457	383.33
739.785	401.2
740.112	334.81
740.44	339.92
740.767	429.29
741.094	419.07
741.422	390.99
741.749	388.43
742.076	431.84
742.403	380.77
742.73	319.49
743.057	401.2
743.384	447.16
743.711	457.37
744.038	406.31
744.365	390.99
744.692	462.48
745.018	449.71
745.345	408.86
745.672	388.43
745.998	365.45
746.325	416.52
746.651	416.52
746.978	339.92
747.304	411.41
747.631	332.26
747.957	368.01
748.283	434.39
748.61	319.49
748.936	401.2
749.262	388.43
749.588	462.48
749.914	398.65
750.24	350.13
750.566	334.81
750.892	406.31
751.218	324.6
751.543	324.6
751.869	355.24
752.195	424.18
752.521	327.15
752.846	388.43
753.172	393.54
753.497	383.33
753.823	434.39
754.148	416.52
754.473	334.81
754.799	398.65
755.124	388.43
755.449	383.33
755.774	413.97
756.1	408.86
756.425	345.03
756.75	380.77
757.075	429.29
757.4	521.21
757.724	406.31
758.049	383.33
758.374	436.95
758.699	431.84
759.024	431.84
759.348	357.79
759.673	342.47
759.997	403.75
760.322	329.7
760.646	385.88
760.971	385.88
761.295	378.22
761.619	480.35
761.944	406.31
762.268	444.61
762.592	398.65
762.916	488.01
763.24	482.91
763.564	490.57
763.888	526.32
764.212	503.33
764.536	567.17
764.86	549.3
765.184	651.43
765.508	638.66
765.831	620.79
766.155	904.21
766.478	740.8
766.802	740.8
767.126	771.44
767.449	929.75
767.772	899.11
768.096	980.82
768.419	960.39
768.742	1026.78
769.066	1034.44
769.389	1059.97
769.712	1044.65
770.035	1075.29
770.358	1190.19
770.681	1269.35
771.004	1266.79
771.327	1330.63
771.65	1458.3
771.972	1430.21
772.295	1499.15
772.618	1453.19
772.941	1514.47
773.263	1522.13
773.586	1698.32
773.908	1797.9
774.231	1912.8
774.553	1948.55
774.875	2081.32
775.198	2091.54
775.52	2045.57
775.842	1989.4
776.164	1930.67
776.487	1956.21
776.809	1986.85
777.131	2045.57
777.453	2165.58
777.775	2066
778.096	2247.29
778.418	2272.83
778.74	2173.24
779.062	2280.49
779.384	2346.87
779.705	2622.64
780.027	2870.32
780.348	2885.64
780.67	2811.59
780.991	2941.81
781.313	3268.64
781.634	3470.36
781.955	3202.26
782.277	3112.89
782.598	3143.53
782.919	3158.85
783.24	3202.26
783.561	3161.4
783.882	3074.59
784.203	3105.23
784.524	3143.53
784.845	3008.2
785.166	2870.32
785.487	2888.19
785.807	2867.76
786.128	2655.83
786.449	2849.89
786.769	2893.3
787.09	2900.96
787.41	3176.72
787.731	3439.72
788.051	3720.59
788.372	3715.48
788.692	3950.39
789.012	4032.1
789.332	4080.62
789.653	4292.55
789.973	4499.37
790.293	4330.85
790.613	3779.32
790.933	3718.04
791.253	3592.92
791.573	3186.93
791.893	3204.81
792.212	3087.35
792.532	2923.94
792.852	2809.03
793.171	2770.73
793.491	2558.8
793.811	2643.07
794.13	2719.67
794.45	2668.6
794.769	2714.56
795.088	2870.32
795.408	2936.7
795.727	3087.35
796.046	2888.19
796.365	2911.17
796.684	2683.92
797.004	2563.91
797.323	2714.56
797.642	3054.16
797.96	3020.97
798.279	3100.12
798.598	2791.16
798.917	2620.09
799.236	2520.5
