Data from 2025-12-03_xpw_interference_micrometer_634_reference_FLMS141361__149__399.txt Node

Date: Wed Dec 03 15:51:27 MST 2025
User: james
Spectrometer: FLMS14136
Trigger mode: 0
Integration Time (sec): 1.000000E-1
Scans to average: 1
Electric dark correction enabled: true
Nonlinearity correction enabled: false
Boxcar width: 0
XAxis mode: Wavelengths
Number of Pixels in Spectrum: 2048
>>>>>Begin Spectral Data<<<<<
339.315	-12.13
339.697	-12.13
340.079	-12.13
340.461	-106.6
340.843	-52.98
341.225	-129.58
341.607	-104.05
341.989	-93.84
342.371	-114.26
342.752	-88.73
343.134	-35.11
343.516	-52.98
343.897	3.19
344.279	-22.34
344.661	46.6
345.042	33.83
345.423	105.33
345.805	102.77
346.186	146.18
346.567	100.22
346.949	102.77
347.33	179.37
347.711	179.37
348.092	204.91
348.473	202.36
348.854	220.23
349.235	141.07
349.616	248.32
349.997	363.22
350.378	304.49
350.758	319.81
351.139	370.88
351.52	312.15
351.9	375.98
352.281	314.7
352.661	373.43
353.042	373.43
353.422	375.98
353.803	462.8
354.183	360.66
354.563	437.27
354.943	391.31
355.324	416.84
355.704	419.39
356.084	444.93
356.464	447.48
356.844	404.07
357.224	427.05
357.603	429.61
357.983	432.16
358.363	447.48
358.743	345.34
359.122	437.27
359.502	419.39
359.882	393.86
360.261	370.88
360.641	360.66
361.02	355.56
361.399	424.5
361.779	375.98
362.158	398.97
362.537	409.18
362.916	355.56
363.296	304.49
363.675	319.81
364.054	409.18
364.433	337.68
364.812	324.92
365.19	299.38
365.569	342.79
365.948	368.32
366.327	358.11
366.705	355.56
367.084	337.68
367.463	340.24
367.841	347.9
368.22	301.94
368.598	370.88
368.977	404.07
369.355	373.43
369.733	358.11
370.111	289.17
370.49	368.32
370.868	340.24
371.246	324.92
371.624	368.32
372.002	455.14
372.38	378.54
372.758	347.9
373.136	381.09
373.513	363.22
373.891	340.24
374.269	327.47
374.646	444.93
375.024	322.36
375.402	294.28
375.779	312.15
376.157	347.9
376.534	319.81
376.911	345.34
377.289	432.16
377.666	386.2
378.043	393.86
378.42	398.97
378.797	411.73
379.175	332.58
379.552	370.88
379.929	355.56
380.305	378.54
380.682	378.54
381.059	416.84
381.436	307.04
381.813	340.24
382.189	383.65
382.566	404.07
382.943	365.77
383.319	388.75
383.696	307.04
384.072	345.34
384.448	391.31
384.825	340.24
385.201	363.22
385.577	363.22
385.953	340.24
386.329	291.72
386.706	353
387.082	381.09
387.458	396.41
387.834	383.65
388.209	319.81
388.585	391.31
388.961	404.07
389.337	365.77
389.713	355.56
390.088	363.22
390.464	353
390.839	289.17
391.215	319.81
391.59	360.66
391.966	442.37
392.341	386.2
392.716	383.65
393.092	414.29
393.467	434.71
393.842	388.75
394.217	396.41
394.592	416.84
394.967	355.56
395.342	284.06
395.717	322.36
396.092	427.05
396.467	467.91
396.841	340.24
397.216	416.84
397.591	381.09
397.965	370.88
398.34	355.56
398.714	353
399.089	350.45
399.463	409.18
399.838	388.75
400.212	345.34
400.586	401.52
400.961	388.75
401.335	358.11
401.709	414.29
402.083	381.09
402.457	363.22
402.831	424.5
403.205	347.9
403.579	447.48
403.953	353
404.326	345.34
404.7	386.2
405.074	368.32
405.447	355.56
405.821	391.31
406.195	396.41
406.568	396.41
406.942	409.18
407.315	437.27
407.688	358.11
408.062	411.73
408.435	381.09
408.808	434.71
409.181	406.63
409.554	388.75
409.927	398.97
410.3	373.43
410.673	411.73
411.046	375.98
411.419	455.14
411.792	373.43
412.165	355.56
412.537	327.47
412.91	427.05
413.283	432.16
413.655	355.56
414.028	381.09
414.4	337.68
414.773	457.69
415.145	393.86
415.517	365.77
415.889	388.75
416.262	434.71
416.634	401.52
417.006	340.24
417.378	360.66
417.75	393.86
418.122	421.95
418.494	353
418.866	434.71
419.238	358.11
419.609	375.98
419.981	409.18
420.353	427.05
420.725	442.37
421.096	363.22
421.468	340.24
421.839	368.32
422.211	391.31
422.582	353
422.953	355.56
423.325	388.75
423.696	378.54
424.067	409.18
424.438	427.05
424.809	289.17
425.18	301.94
425.551	388.75
425.922	368.32
426.293	335.13
426.664	409.18
427.035	427.05
427.406	404.07
427.776	424.5
428.147	299.38
428.518	347.9
428.888	401.52
429.259	330.02
429.629	401.52
429.999	342.79
430.37	429.61
430.74	460.25
431.11	388.75
431.481	465.35
431.851	401.52
432.221	398.97
432.591	470.46
432.961	404.07
433.331	442.37
433.701	398.97
434.071	414.29
434.441	444.93
434.81	427.05
435.18	378.54
435.55	373.43
435.919	462.8
436.289	401.52
436.658	411.73
437.028	460.25
437.397	427.05
437.767	414.29
438.136	450.03
438.505	393.86
438.875	444.93
439.244	452.59
439.613	391.31
439.982	404.07
440.351	375.98
440.72	432.16
441.089	439.82
441.458	434.71
441.827	416.84
442.196	406.63
442.564	501.1
442.933	439.82
443.302	452.59
443.67	427.05
444.039	473.01
444.407	353
444.776	388.75
445.144	383.65
445.513	421.95
445.881	388.75
446.249	396.41
446.617	444.93
446.986	427.05
447.354	373.43
447.722	439.82
448.09	386.2
448.458	370.88
448.826	539.4
449.194	432.16
449.561	465.35
449.929	442.37
450.297	439.82
450.665	391.31
451.032	388.75
451.4	401.52
451.767	419.39
452.135	424.5
452.502	429.61
452.87	439.82
453.237	409.18
453.604	419.39
453.971	386.2
454.339	414.29
454.706	460.25
455.073	378.54
455.44	424.5
455.807	391.31
456.174	416.84
456.541	419.39
456.908	347.9
457.274	421.95
457.641	347.9
458.008	442.37
458.374	424.5
458.741	429.61
459.108	332.58
459.474	393.86
459.841	404.07
460.207	432.16
460.573	383.65
460.94	427.05
461.306	421.95
461.672	467.91
462.038	460.25
462.404	391.31
462.771	447.48
463.137	409.18
463.503	406.63
463.868	414.29
464.234	398.97
464.6	350.45
464.966	393.86
465.332	442.37
465.697	437.27
466.063	332.58
466.429	388.75
466.794	427.05
467.16	378.54
467.525	416.84
467.89	411.73
468.256	439.82
468.621	427.05
468.986	424.5
469.351	396.41
469.717	373.43
470.082	388.75
470.447	447.48
470.812	447.48
471.177	396.41
471.542	350.45
471.906	434.71
472.271	365.77
472.636	381.09
473.001	365.77
473.365	465.35
473.73	442.37
474.094	396.41
474.459	353
474.823	345.34
475.188	391.31
475.552	398.97
475.917	442.37
476.281	447.48
476.645	457.69
477.009	429.61
477.373	409.18
477.737	404.07
478.101	391.31
478.465	467.91
478.829	342.79
479.193	409.18
479.557	391.31
479.921	383.65
480.284	416.84
480.648	406.63
481.012	332.58
481.375	393.86
481.739	416.84
482.102	406.63
482.466	406.63
482.829	421.95
483.193	421.95
483.556	411.73
483.919	411.73
484.282	483.23
484.645	460.25
485.009	424.5
485.372	388.75
485.735	363.22
486.098	353
486.46	378.54
486.823	396.41
487.186	383.65
487.549	411.73
487.912	416.84
488.274	419.39
488.637	370.88
488.999	324.92
489.362	444.93
489.724	406.63
490.087	465.35
490.449	444.93
490.811	350.45
491.174	432.16
491.536	381.09
491.898	386.2
492.26	375.98
492.622	455.14
492.984	378.54
493.346	383.65
493.708	401.52
494.07	416.84
494.432	427.05
494.794	444.93
495.155	447.48
495.517	353
495.879	396.41
496.24	391.31
496.602	396.41
496.963	396.41
497.325	421.95
497.686	411.73
498.048	393.86
498.409	396.41
498.77	421.95
499.131	388.75
499.492	419.39
499.854	452.59
500.215	442.37
500.576	347.9
500.937	388.75
501.298	393.86
501.658	419.39
502.019	409.18
502.38	444.93
502.741	460.25
503.101	406.63
503.462	424.5
503.823	424.5
504.183	462.8
504.543	414.29
504.904	416.84
505.264	386.2
505.625	411.73
505.985	434.71
506.345	381.09
506.705	498.55
507.065	452.59
507.426	388.75
507.786	396.41
508.146	475.57
508.505	375.98
508.865	393.86
509.225	378.54
509.585	488.33
509.945	457.69
510.304	457.69
510.664	518.97
511.024	460.25
511.383	406.63
511.743	411.73
512.102	360.66
512.462	427.05
512.821	373.43
513.18	401.52
513.539	347.9
513.899	353
514.258	370.88
514.617	442.37
514.976	429.61
515.335	393.86
515.694	396.41
516.053	378.54
516.412	398.97
516.771	434.71
517.129	421.95
517.488	457.69
517.847	455.14
518.205	388.75
518.564	427.05
518.922	429.61
519.281	365.77
519.639	370.88
519.998	404.07
520.356	427.05
520.714	347.9
521.073	416.84
521.431	347.9
521.789	467.91
522.147	437.27
522.505	373.43
522.863	452.59
523.221	429.61
523.579	381.09
523.937	437.27
524.295	534.29
524.652	434.71
525.01	506.21
525.368	409.18
525.725	355.56
526.083	404.07
526.44	406.63
526.798	381.09
527.155	398.97
527.513	391.31
527.87	381.09
528.227	396.41
528.584	383.65
528.942	444.93
529.299	358.11
529.656	358.11
530.013	447.48
530.37	411.73
530.727	381.09
531.083	398.97
531.44	327.47
531.797	319.81
532.154	404.07
532.511	358.11
532.867	393.86
533.224	455.14
533.58	475.57
533.937	427.05
534.293	429.61
534.65	442.37
535.006	381.09
535.362	421.95
535.718	416.84
536.075	368.32
536.431	337.68
536.787	388.75
537.143	378.54
537.499	401.52
537.855	393.86
538.211	363.22
538.567	424.5
538.923	409.18
539.278	516.42
539.634	437.27
539.99	401.52
540.345	386.2
540.701	388.75
541.056	447.48
541.412	421.95
541.767	444.93
542.123	432.16
542.478	409.18
542.833	350.45
543.188	383.65
543.544	381.09
543.899	393.86
544.254	475.57
544.609	480.67
544.964	386.2
545.319	465.35
545.674	401.52
546.029	391.31
546.383	439.82
546.738	381.09
547.093	437.27
547.447	424.5
547.802	444.93
548.157	414.29
548.511	337.68
548.866	391.31
549.22	442.37
549.574	350.45
549.929	421.95
550.283	444.93
550.637	419.39
550.991	409.18
551.345	495.99
551.699	439.82
552.053	386.2
552.407	363.22
552.761	332.58
553.115	386.2
553.469	506.21
553.823	370.88
554.176	411.73
554.53	437.27
554.884	370.88
555.237	636.43
555.591	460.25
555.944	485.78
556.298	401.52
556.651	429.61
557.005	378.54
557.358	404.07
557.711	406.63
558.064	429.61
558.417	414.29
558.771	475.57
559.124	447.48
559.477	437.27
559.83	460.25
560.182	396.41
560.535	442.37
560.888	447.48
561.241	427.05
561.594	409.18
561.946	411.73
562.299	414.29
562.651	386.2
563.004	406.63
563.356	358.11
563.709	388.75
564.061	365.77
564.413	365.77
564.766	401.52
565.118	409.18
565.47	398.97
565.822	447.48
566.174	375.98
566.526	363.22
566.878	460.25
567.23	444.93
567.582	483.23
567.934	437.27
568.286	432.16
568.638	501.1
568.989	467.91
569.341	414.29
569.693	432.16
570.044	393.86
570.396	388.75
570.747	442.37
571.098	452.59
571.45	439.82
571.801	406.63
572.152	398.97
572.504	363.22
572.855	378.54
573.206	460.25
573.557	432.16
573.908	398.97
574.259	370.88
574.61	388.75
574.961	434.71
575.311	480.67
575.662	429.61
576.013	388.75
576.364	434.71
576.714	416.84
577.065	470.46
577.415	434.71
577.766	332.58
578.116	381.09
578.467	335.13
578.817	368.32
579.167	447.48
579.518	452.59
579.868	393.86
580.218	421.95
580.568	398.97
580.918	467.91
581.268	439.82
581.618	375.98
581.968	353
582.318	363.22
582.668	432.16
583.017	506.21
583.367	498.55
583.717	462.8
584.066	381.09
584.416	347.9
584.765	457.69
585.115	447.48
585.464	363.22
585.814	353
586.163	383.65
586.512	360.66
586.862	401.52
587.211	370.88
587.56	319.81
587.909	524.08
588.258	393.86
588.607	353
588.956	404.07
589.305	419.39
589.654	465.35
590.002	452.59
590.351	432.16
590.7	396.41
591.048	526.63
591.397	437.27
591.746	337.68
592.094	358.11
592.443	391.31
592.791	411.73
593.139	330.02
593.488	404.07
593.836	383.65
594.184	358.11
594.532	419.39
594.88	439.82
595.228	396.41
595.576	406.63
595.924	398.97
596.272	439.82
596.62	409.18
596.968	452.59
597.316	386.2
597.664	409.18
598.011	383.65
598.359	363.22
598.706	347.9
599.054	370.88
599.402	439.82
599.749	411.73
600.096	473.01
600.444	414.29
600.791	444.93
601.138	419.39
601.485	347.9
601.833	414.29
602.18	493.44
602.527	391.31
602.874	450.03
603.221	439.82
603.568	396.41
603.914	409.18
604.261	439.82
604.608	404.07
604.955	450.03
605.301	386.2
605.648	409.18
605.995	373.43
606.341	406.63
606.688	409.18
607.034	370.88
607.38	363.22
607.727	447.48
608.073	421.95
608.419	429.61
608.765	424.5
609.112	432.16
609.458	396.41
609.804	434.71
610.15	475.57
610.496	381.09
610.842	444.93
611.187	452.59
611.533	355.56
611.879	437.27
612.225	434.71
612.57	447.48
612.916	358.11
613.261	370.88
613.607	350.45
613.952	386.2
614.298	437.27
614.643	398.97
614.989	444.93
615.334	460.25
615.679	375.98
616.024	421.95
616.369	455.14
616.714	335.13
617.059	429.61
617.404	386.2
617.749	439.82
618.094	360.66
618.439	427.05
618.784	419.39
619.129	432.16
619.473	404.07
619.818	419.39
620.163	457.69
620.507	439.82
620.852	398.97
621.196	381.09
621.54	419.39
621.885	370.88
622.229	465.35
622.573	373.43
622.918	398.97
623.262	470.46
623.606	429.61
623.95	421.95
624.294	406.63
624.638	404.07
624.982	424.5
625.326	378.54
625.67	424.5
626.013	375.98
626.357	375.98
626.701	447.48
627.044	404.07
627.388	437.27
627.731	391.31
628.075	401.52
628.418	406.63
628.762	421.95
629.105	427.05
629.448	455.14
629.792	378.54
630.135	462.8
630.478	363.22
630.821	411.73
631.164	421.95
631.507	393.86
631.85	419.39
632.193	421.95
632.536	429.61
632.879	419.39
633.221	355.56
633.564	434.71
633.907	419.39
634.249	393.86
634.592	434.71
634.935	345.34
635.277	370.88
635.619	398.97
635.962	396.41
636.304	437.27
636.646	432.16
636.989	353
637.331	404.07
637.673	442.37
638.015	396.41
638.357	353
638.699	406.63
639.041	396.41
639.383	424.5
639.725	447.48
640.067	381.09
640.408	396.41
640.75	360.66
641.092	411.73
641.433	396.41
641.775	363.22
642.116	355.56
642.458	388.75
642.799	398.97
643.141	432.16
643.482	396.41
643.823	442.37
644.164	383.65
644.506	485.78
644.847	434.71
645.188	416.84
645.529	424.5
645.87	406.63
646.211	442.37
646.552	406.63
646.893	386.2
647.233	416.84
647.574	452.59
647.915	434.71
648.255	421.95
648.596	386.2
648.937	396.41
649.277	358.11
649.618	432.16
649.958	439.82
650.298	411.73
650.639	411.73
650.979	378.54
651.319	353
651.659	450.03
651.999	465.35
652.339	398.97
652.679	434.71
653.019	386.2
653.359	393.86
653.699	401.52
654.039	393.86
654.379	447.48
654.719	401.52
655.058	350.45
655.398	353
655.737	411.73
656.077	421.95
656.416	404.07
656.756	373.43
657.095	421.95
657.435	409.18
657.774	414.29
658.113	355.56
658.452	457.69
658.792	378.54
659.131	363.22
659.47	421.95
659.809	432.16
660.148	381.09
660.487	414.29
660.826	391.31
661.164	439.82
661.503	455.14
661.842	332.58
662.181	406.63
662.519	480.67
662.858	393.86
663.196	355.56
663.535	375.98
663.873	447.48
664.212	388.75
664.55	386.2
664.888	381.09
665.226	335.13
665.565	401.52
665.903	531.74
666.241	432.16
666.579	393.86
666.917	340.24
667.255	383.65
667.593	419.39
667.931	388.75
668.268	498.55
668.606	393.86
668.944	416.84
669.282	409.18
669.619	460.25
669.957	411.73
670.294	345.34
670.632	396.41
670.969	368.32
671.307	393.86
671.644	398.97
671.981	437.27
672.318	442.37
672.656	460.25
672.993	401.52
673.33	424.5
673.667	370.88
674.004	409.18
674.341	363.22
674.678	409.18
675.015	473.01
675.351	383.65
675.688	424.5
676.025	391.31
676.362	450.03
676.698	460.25
677.035	391.31
677.371	330.02
677.708	470.46
678.044	398.97
678.38	414.29
678.717	434.71
679.053	419.39
679.389	450.03
679.725	378.54
680.062	427.05
680.398	391.31
680.734	378.54
681.07	383.65
681.406	393.86
681.742	416.84
682.077	404.07
682.413	506.21
682.749	386.2
683.085	401.52
683.42	457.69
683.756	442.37
684.091	319.81
684.427	406.63
684.762	414.29
685.098	365.77
685.433	363.22
685.768	460.25
686.104	381.09
686.439	427.05
686.774	319.81
687.109	360.66
687.444	450.03
687.779	465.35
688.114	488.33
688.449	434.71
688.784	501.1
689.119	460.25
689.454	457.69
689.789	355.56
690.123	335.13
690.458	419.39
690.792	414.29
691.127	381.09
691.461	365.77
691.796	396.41
692.13	358.11
692.465	421.95
692.799	373.43
693.133	370.88
693.467	350.45
693.802	424.5
694.136	455.14
694.47	437.27
694.804	378.54
695.138	429.61
695.472	432.16
695.806	340.24
696.139	370.88
696.473	358.11
696.807	373.43
697.141	419.39
697.474	409.18
697.808	398.97
698.141	393.86
698.475	442.37
698.808	409.18
699.142	383.65
699.475	393.86
699.808	340.24
700.142	414.29
700.475	373.43
700.808	396.41
701.141	416.84
701.474	409.18
701.807	401.52
702.14	473.01
702.473	401.52
702.806	462.8
703.139	353
703.472	414.29
703.804	404.07
704.137	368.32
704.47	363.22
704.802	324.92
705.135	401.52
705.467	432.16
705.8	475.57
706.132	396.41
706.464	416.84
706.797	368.32
707.129	414.29
707.461	406.63
707.793	416.84
708.125	391.31
708.457	414.29
708.789	462.8
709.121	350.45
709.453	299.38
709.785	373.43
710.117	406.63
710.449	429.61
710.781	439.82
711.112	388.75
711.444	503.65
711.775	396.41
712.107	353
712.438	393.86
712.77	398.97
713.101	434.71
713.433	452.59
713.764	391.31
714.095	391.31
714.426	373.43
714.757	457.69
715.089	409.18
715.42	398.97
715.751	383.65
716.082	401.52
716.412	386.2
716.743	358.11
717.074	429.61
717.405	421.95
717.736	424.5
718.066	370.88
718.397	398.97
718.727	342.79
719.058	307.04
719.388	360.66
719.719	388.75
720.049	460.25
720.38	406.63
720.71	439.82
721.04	393.86
721.37	409.18
721.7	378.54
722.031	330.02
722.361	424.5
722.691	442.37
723.021	383.65
723.35	363.22
723.68	398.97
724.01	391.31
724.34	353
724.67	442.37
724.999	483.23
725.329	424.5
725.658	444.93
725.988	396.41
726.317	363.22
726.647	424.5
726.976	381.09
727.306	447.48
727.635	442.37
727.964	406.63
728.293	391.31
728.622	409.18
728.952	396.41
729.281	429.61
729.61	421.95
729.939	444.93
730.267	398.97
730.596	427.05
730.925	383.65
731.254	460.25
731.583	386.2
731.911	414.29
732.24	375.98
732.568	427.05
732.897	409.18
733.225	442.37
733.554	396.41
733.882	294.28
734.21	340.24
734.539	414.29
734.867	439.82
735.195	411.73
735.523	462.8
735.851	404.07
736.179	355.56
736.507	393.86
736.835	455.14
737.163	373.43
737.491	437.27
737.819	370.88
738.147	375.98
738.474	386.2
738.802	478.12
739.13	416.84
739.457	337.68
739.785	488.33
740.112	401.52
740.44	360.66
740.767	406.63
741.094	429.61
741.422	345.34
741.749	383.65
742.076	429.61
742.403	437.27
742.73	398.97
743.057	421.95
743.384	360.66
743.711	409.18
744.038	386.2
744.365	434.71
744.692	363.22
745.018	358.11
745.345	373.43
745.672	406.63
745.998	381.09
746.325	365.77
746.651	388.75
746.978	457.69
747.304	432.16
747.631	353
747.957	386.2
748.283	414.29
748.61	381.09
748.936	424.5
749.262	437.27
749.588	427.05
749.914	411.73
750.24	434.71
750.566	442.37
750.892	396.41
751.218	442.37
751.543	388.75
751.869	381.09
752.195	388.75
752.521	416.84
752.846	393.86
753.172	383.65
753.497	322.36
753.823	419.39
754.148	411.73
754.473	370.88
754.799	442.37
755.124	396.41
755.449	429.61
755.774	378.54
756.1	434.71
756.425	373.43
756.75	452.59
757.075	460.25
757.4	577.7
757.724	411.73
758.049	370.88
758.374	378.54
758.699	424.5
759.024	411.73
759.348	393.86
759.673	460.25
759.997	409.18
760.322	462.8
760.646	393.86
760.971	452.59
761.295	480.67
761.619	439.82
761.944	393.86
762.268	462.8
762.592	444.93
762.916	424.5
763.24	495.99
763.564	513.87
763.888	485.78
764.212	513.87
764.536	549.61
764.86	559.83
765.184	536.85
765.508	595.58
765.831	644.09
766.155	927.51
766.478	738.56
766.802	779.42
767.126	792.19
767.449	919.85
767.772	881.55
768.096	935.17
768.419	914.75
768.742	963.26
769.066	991.35
769.389	1027.1
769.712	1085.82
770.035	1101.14
770.358	1134.34
770.681	1164.98
771.004	1233.92
771.327	1154.77
771.65	1249.24
771.972	1405
772.295	1430.53
772.618	1412.66
772.941	1359.04
773.263	1425.42
773.586	1458.62
773.908	1670.55
774.231	1701.19
774.553	1742.04
774.875	1928.44
775.198	1795.66
775.52	1862.05
775.842	1795.66
776.164	1800.77
776.487	1754.81
776.809	1816.09
777.131	1910.57
777.453	1872.26
777.775	1874.82
778.096	1999.93
778.418	2061.21
778.74	1915.67
779.062	2007.59
779.384	2173.56
779.705	2265.48
780.027	2587.21
780.348	2597.42
780.67	2444.22
780.991	2628.06
781.313	2878.3
781.634	3039.16
781.955	2885.96
782.277	2661.26
782.598	2788.93
782.919	2827.23
783.24	2842.55
783.561	2832.33
783.882	2868.08
784.203	2906.38
784.524	2791.48
784.845	2753.18
785.166	2564.23
785.487	2648.49
785.807	2479.97
786.128	2487.63
786.449	2490.18
786.769	2732.75
787.09	2676.58
787.41	2965.11
787.731	3036.6
788.051	3297.05
788.372	3424.72
788.692	3575.37
789.012	3616.22
789.332	3713.25
789.653	3863.9
789.973	4060.51
790.293	3871.56
790.613	3345.56
790.933	3194.91
791.253	3105.55
791.573	2919.15
791.893	2885.96
792.212	2771.05
792.532	2633.17
792.852	2518.27
793.171	2362.51
793.491	2372.73
793.811	2467.2
794.13	2444.22
794.45	2403.37
794.769	2492.74
795.088	2676.58
795.408	2653.6
795.727	2845.1
796.046	2839.99
796.365	2666.36
796.684	2467.2
797.004	2382.94
797.323	2607.64
797.642	2839.99
797.96	2865.53
798.279	2857.87
798.598	2742.97
798.917	2538.7
799.236	2314
799.554	2265.48
799.873	2081.64
800.192	2173.56
800.51	2260.38
