Data from 2025-12-03_xpw_interference_micrometer_634_reference_FLMS141361__127__377.txt Node

Date: Wed Dec 03 15:51:25 MST 2025
User: james
Spectrometer: FLMS14136
Trigger mode: 0
Integration Time (sec): 1.000000E-1
Scans to average: 1
Electric dark correction enabled: true
Nonlinearity correction enabled: false
Boxcar width: 0
XAxis mode: Wavelengths
Number of Pixels in Spectrum: 2048
>>>>>Begin Spectral Data<<<<<
339.315	-95.43
339.697	-95.43
340.079	-95.43
340.461	-105.65
340.843	-85.22
341.225	-177.14
341.607	-87.77
341.989	-62.24
342.371	-54.58
342.752	-59.69
343.134	-13.72
343.516	-8.62
343.897	-21.38
344.279	88.41
344.661	4.15
345.042	67.98
345.423	50.11
345.805	-16.28
346.186	67.98
346.567	93.52
346.949	129.26
347.33	157.35
347.711	200.76
348.092	246.72
348.473	223.74
348.854	272.25
349.235	297.79
349.616	287.57
349.997	300.34
350.378	295.23
350.758	272.25
351.139	295.23
351.52	356.52
351.9	379.5
352.281	371.84
352.661	384.6
353.042	407.58
353.422	366.73
353.803	397.37
354.183	394.82
354.563	262.04
354.943	402.48
355.324	382.05
355.704	382.05
356.084	389.71
356.464	420.35
356.844	389.71
357.224	353.96
357.603	456.1
357.983	382.05
358.363	433.12
358.743	422.9
359.122	430.56
359.502	379.5
359.882	364.18
360.261	420.35
360.641	430.56
361.02	428.01
361.399	412.69
361.779	399.92
362.158	356.52
362.537	366.73
362.916	366.73
363.296	389.71
363.675	382.05
364.054	320.77
364.433	397.37
364.812	417.8
365.19	376.94
365.569	369.28
365.948	369.28
366.327	366.73
366.705	361.62
367.084	330.98
367.463	356.52
367.841	397.37
368.22	351.41
368.598	262.04
368.977	313.11
369.355	305.45
369.733	295.23
370.111	302.89
370.49	374.39
370.868	369.28
371.246	351.41
371.624	412.69
372.002	389.71
372.38	359.07
372.758	300.34
373.136	318.21
373.513	389.71
373.891	371.84
374.269	382.05
374.646	374.39
375.024	346.3
375.402	325.87
375.779	374.39
376.157	389.71
376.534	353.96
376.911	387.16
377.289	346.3
377.666	328.43
378.043	346.3
378.42	374.39
378.797	397.37
379.175	392.26
379.552	412.69
379.929	361.62
380.305	425.46
380.682	346.3
381.059	384.6
381.436	384.6
381.813	343.75
382.189	364.18
382.566	407.58
382.943	359.07
383.319	338.64
383.696	359.07
384.072	394.82
384.448	402.48
384.825	376.94
385.201	366.73
385.577	422.9
385.953	399.92
386.329	415.24
386.706	325.87
387.082	412.69
387.458	338.64
387.834	371.84
388.209	348.86
388.585	300.34
388.961	318.21
389.337	371.84
389.713	456.1
390.088	397.37
390.464	313.11
390.839	428.01
391.215	389.71
391.59	430.56
391.966	351.41
392.341	379.5
392.716	295.23
393.092	341.2
393.467	376.94
393.842	364.18
394.217	351.41
394.592	397.37
394.967	348.86
395.342	325.87
395.717	410.14
396.092	348.86
396.467	376.94
396.841	428.01
397.216	325.87
397.591	356.52
397.965	392.26
398.34	382.05
398.714	402.48
399.089	346.3
399.463	330.98
399.838	369.28
400.212	328.43
400.586	384.6
400.961	412.69
401.335	405.03
401.709	382.05
402.083	397.37
402.457	384.6
402.831	333.54
403.205	420.35
403.579	399.92
403.953	412.69
404.326	466.31
404.7	384.6
405.074	412.69
405.447	371.84
405.821	445.88
406.195	379.5
406.568	440.78
406.942	532.7
407.315	369.28
407.688	384.6
408.062	376.94
408.435	412.69
408.808	310.55
409.181	336.09
409.554	379.5
409.927	392.26
410.3	471.42
410.673	343.75
411.046	382.05
411.419	422.9
411.792	420.35
412.165	361.62
412.537	440.78
412.91	399.92
413.283	384.6
413.655	371.84
414.028	405.03
414.4	407.58
414.773	366.73
415.145	359.07
415.517	364.18
415.889	359.07
416.262	433.12
416.634	387.16
417.006	382.05
417.378	394.82
417.75	376.94
418.122	364.18
418.494	351.41
418.866	359.07
419.238	323.32
419.609	387.16
419.981	410.14
420.353	425.46
420.725	407.58
421.096	384.6
421.468	463.76
421.839	428.01
422.211	420.35
422.582	407.58
422.953	389.71
423.325	399.92
423.696	325.87
424.067	402.48
424.438	479.08
424.809	428.01
425.18	366.73
425.551	392.26
425.922	384.6
426.293	402.48
426.664	382.05
427.035	494.4
427.406	435.67
427.776	389.71
428.147	425.46
428.518	394.82
428.888	384.6
429.259	410.14
429.629	453.54
429.999	394.82
430.37	440.78
430.74	410.14
431.11	320.77
431.481	415.24
431.851	415.24
432.221	407.58
432.591	361.62
432.961	384.6
433.331	348.86
433.701	420.35
434.071	387.16
434.441	430.56
434.81	394.82
435.18	412.69
435.55	422.9
435.919	417.8
436.289	433.12
436.658	425.46
437.028	461.2
437.397	338.64
437.767	371.84
438.136	384.6
438.505	364.18
438.875	407.58
439.244	422.9
439.613	410.14
439.982	450.99
440.351	430.56
440.72	494.4
441.089	456.1
441.458	392.26
441.827	448.44
442.196	448.44
442.564	466.31
442.933	440.78
443.302	359.07
443.67	356.52
444.039	448.44
444.407	364.18
444.776	320.77
445.144	443.33
445.513	417.8
445.881	422.9
446.249	461.2
446.617	389.71
446.986	430.56
447.354	453.54
447.722	430.56
448.09	422.9
448.458	458.65
448.826	479.08
449.194	450.99
449.561	336.09
449.929	450.99
450.297	387.16
450.665	433.12
451.032	392.26
451.4	402.48
451.767	407.58
452.135	371.84
452.502	461.2
452.87	410.14
453.237	399.92
453.604	458.65
453.971	456.1
454.339	417.8
454.706	382.05
455.073	397.37
455.44	407.58
455.807	405.03
456.174	479.08
456.541	450.99
456.908	382.05
457.274	325.87
457.641	384.6
458.008	392.26
458.374	382.05
458.741	389.71
459.108	438.22
459.474	430.56
459.841	461.2
460.207	384.6
460.573	448.44
460.94	392.26
461.306	397.37
461.672	371.84
462.038	359.07
462.404	341.2
462.771	399.92
463.137	428.01
463.503	466.31
463.868	453.54
464.234	374.39
464.6	371.84
464.966	351.41
465.332	425.46
465.697	389.71
466.063	405.03
466.429	461.2
466.794	430.56
467.16	450.99
467.525	428.01
467.89	384.6
468.256	397.37
468.621	371.84
468.986	417.8
469.351	376.94
469.717	450.99
470.082	458.65
470.447	379.5
470.812	397.37
471.177	402.48
471.542	443.33
471.906	417.8
472.271	397.37
472.636	443.33
473.001	384.6
473.365	445.88
473.73	448.44
474.094	433.12
474.459	389.71
474.823	384.6
475.188	440.78
475.552	422.9
475.917	430.56
476.281	422.9
476.645	440.78
477.009	458.65
477.373	405.03
477.737	387.16
478.101	445.88
478.465	422.9
478.829	412.69
479.193	420.35
479.557	376.94
479.921	476.52
480.284	399.92
480.648	415.24
481.012	397.37
481.375	417.8
481.739	420.35
482.102	422.9
482.466	359.07
482.829	479.08
483.193	428.01
483.556	387.16
483.919	399.92
484.282	397.37
484.645	376.94
485.009	402.48
485.372	351.41
485.735	422.9
486.098	448.44
486.46	382.05
486.823	389.71
487.186	399.92
487.549	389.71
487.912	422.9
488.274	445.88
488.637	376.94
488.999	428.01
489.362	443.33
489.724	389.71
490.087	491.84
490.449	392.26
490.811	443.33
491.174	379.5
491.536	351.41
491.898	402.48
492.26	364.18
492.622	415.24
492.984	366.73
493.346	379.5
493.708	430.56
494.07	420.35
494.432	394.82
494.794	417.8
495.155	371.84
495.517	376.94
495.879	376.94
496.24	410.14
496.602	433.12
496.963	399.92
497.325	392.26
497.686	371.84
498.048	402.48
498.409	405.03
498.77	407.58
499.131	425.46
499.492	415.24
499.854	486.74
500.215	399.92
500.576	412.69
500.937	461.2
501.298	379.5
501.658	389.71
502.019	433.12
502.38	430.56
502.741	412.69
503.101	376.94
503.462	376.94
503.823	405.03
504.183	468.86
504.543	379.5
504.904	422.9
505.264	376.94
505.625	466.31
505.985	407.58
506.345	443.33
506.705	450.99
507.065	443.33
507.426	415.24
507.786	458.65
508.146	471.42
508.505	453.54
508.865	440.78
509.225	435.67
509.585	417.8
509.945	448.44
510.304	425.46
510.664	356.52
511.024	420.35
511.383	412.69
511.743	422.9
512.102	333.54
512.462	392.26
512.821	422.9
513.18	466.31
513.539	430.56
513.899	379.5
514.258	369.28
514.617	359.07
514.976	410.14
515.335	422.9
515.694	443.33
516.053	489.29
516.412	392.26
516.771	494.4
517.129	399.92
517.488	440.78
517.847	453.54
518.205	466.31
518.564	384.6
518.922	422.9
519.281	412.69
519.639	420.35
519.998	430.56
520.356	415.24
520.714	425.46
521.073	374.39
521.431	509.72
521.789	376.94
522.147	379.5
522.505	405.03
522.863	405.03
523.221	448.44
523.579	417.8
523.937	382.05
524.295	415.24
524.652	466.31
525.01	412.69
525.368	417.8
525.725	415.24
526.083	379.5
526.44	399.92
526.798	496.95
527.155	402.48
527.513	399.92
527.87	387.16
528.227	351.41
528.584	399.92
528.942	338.64
529.299	407.58
529.656	428.01
530.013	440.78
530.37	387.16
530.727	458.65
531.083	463.76
531.44	468.86
531.797	392.26
532.154	387.16
532.511	387.16
532.867	394.82
533.224	387.16
533.58	435.67
533.937	387.16
534.293	371.84
534.65	405.03
535.006	458.65
535.362	415.24
535.718	387.16
536.075	364.18
536.431	476.52
536.787	494.4
537.143	461.2
537.499	361.62
537.855	425.46
538.211	405.03
538.567	384.6
538.923	448.44
539.278	445.88
539.634	359.07
539.99	348.86
540.345	425.46
540.701	402.48
541.056	445.88
541.412	428.01
541.767	387.16
542.123	440.78
542.478	364.18
542.833	394.82
543.188	453.54
543.544	397.37
543.899	428.01
544.254	425.46
544.609	440.78
544.964	450.99
545.319	453.54
545.674	443.33
546.029	379.5
546.383	300.34
546.738	366.73
547.093	394.82
547.447	420.35
547.802	494.4
548.157	435.67
548.511	417.8
548.866	512.27
549.22	468.86
549.574	399.92
549.929	440.78
550.283	387.16
550.637	428.01
550.991	315.66
551.345	407.58
551.699	417.8
552.053	382.05
552.407	351.41
552.761	351.41
553.115	371.84
553.469	428.01
553.823	445.88
554.176	405.03
554.53	379.5
554.884	389.71
555.237	662.92
555.591	481.63
555.944	486.74
556.298	463.76
556.651	417.8
557.005	438.22
557.358	412.69
557.711	435.67
558.064	405.03
558.417	402.48
558.771	473.97
559.124	405.03
559.477	476.52
559.83	450.99
560.182	420.35
560.535	450.99
560.888	394.82
561.241	389.71
561.594	392.26
561.946	443.33
562.299	402.48
562.651	410.14
563.004	417.8
563.356	384.6
563.709	471.42
564.061	420.35
564.413	402.48
564.766	376.94
565.118	435.67
565.47	417.8
565.822	438.22
566.174	415.24
566.526	382.05
566.878	445.88
567.23	463.76
567.582	417.8
567.934	502.06
568.286	491.84
568.638	399.92
568.989	415.24
569.341	438.22
569.693	392.26
570.044	366.73
570.396	407.58
570.747	348.86
571.098	392.26
571.45	405.03
571.801	382.05
572.152	402.48
572.504	402.48
572.855	348.86
573.206	410.14
573.557	507.16
573.908	405.03
574.259	430.56
574.61	366.73
574.961	412.69
575.311	450.99
575.662	348.86
576.013	479.08
576.364	392.26
576.714	440.78
577.065	361.62
577.415	407.58
577.766	397.37
578.116	415.24
578.467	407.58
578.817	379.5
579.167	458.65
579.518	417.8
579.868	405.03
580.218	371.84
580.568	428.01
580.918	417.8
581.268	392.26
581.618	440.78
581.968	435.67
582.318	397.37
582.668	422.9
583.017	415.24
583.367	351.41
583.717	359.07
584.066	428.01
584.416	323.32
584.765	389.71
585.115	410.14
585.464	382.05
585.814	402.48
586.163	466.31
586.512	422.9
586.862	438.22
587.211	445.88
587.56	440.78
587.909	389.71
588.258	445.88
588.607	468.86
588.956	435.67
589.305	453.54
589.654	428.01
590.002	348.86
590.351	397.37
590.7	445.88
591.048	410.14
591.397	366.73
591.746	356.52
592.094	412.69
592.443	405.03
592.791	402.48
593.139	392.26
593.488	448.44
593.836	440.78
594.184	456.1
594.532	420.35
594.88	486.74
595.228	346.3
595.576	412.69
595.924	456.1
596.272	392.26
596.62	461.2
596.968	402.48
597.316	353.96
597.664	359.07
598.011	389.71
598.359	417.8
598.706	405.03
599.054	384.6
599.402	387.16
599.749	428.01
600.096	458.65
600.444	471.42
600.791	343.75
601.138	376.94
601.485	376.94
601.833	443.33
602.18	392.26
602.527	359.07
602.874	417.8
603.221	346.3
603.568	415.24
603.914	450.99
604.261	407.58
604.608	443.33
604.955	412.69
605.301	435.67
605.648	509.72
605.995	479.08
606.341	359.07
606.688	369.28
607.034	405.03
607.38	479.08
607.727	407.58
608.073	412.69
608.419	366.73
608.765	405.03
609.112	371.84
609.458	433.12
609.804	471.42
610.15	433.12
610.496	328.43
610.842	461.2
611.187	399.92
611.533	371.84
611.879	415.24
612.225	422.9
612.57	376.94
612.916	397.37
613.261	369.28
613.607	389.71
613.952	369.28
614.298	412.69
614.643	397.37
614.989	361.62
615.334	402.48
615.679	433.12
616.024	435.67
616.369	397.37
616.714	384.6
617.059	369.28
617.404	399.92
617.749	384.6
618.094	407.58
618.439	353.96
618.784	356.52
619.129	397.37
619.473	389.71
619.818	397.37
620.163	450.99
620.507	366.73
620.852	407.58
621.196	361.62
621.54	422.9
621.885	458.65
622.229	443.33
622.573	356.52
622.918	394.82
623.262	440.78
623.606	433.12
623.95	420.35
624.294	320.77
624.638	461.2
624.982	371.84
625.326	374.39
625.67	392.26
626.013	420.35
626.357	397.37
626.701	415.24
627.044	369.28
627.388	405.03
627.731	433.12
628.075	392.26
628.418	425.46
628.762	315.66
629.105	359.07
629.448	456.1
629.792	456.1
630.135	410.14
630.478	376.94
630.821	387.16
631.164	410.14
631.507	440.78
631.85	417.8
632.193	417.8
632.536	428.01
632.879	361.62
633.221	458.65
633.564	397.37
633.907	407.58
634.249	443.33
634.592	394.82
634.935	366.73
635.277	402.48
635.619	428.01
635.962	394.82
636.304	410.14
636.646	407.58
636.989	364.18
637.331	417.8
637.673	374.39
638.015	448.44
638.357	479.08
638.699	394.82
639.041	382.05
639.383	394.82
639.725	412.69
640.067	351.41
640.408	359.07
640.75	394.82
641.092	374.39
641.433	410.14
641.775	430.56
642.116	376.94
642.458	405.03
642.799	425.46
643.141	448.44
643.482	366.73
643.823	376.94
644.164	435.67
644.506	364.18
644.847	402.48
645.188	376.94
645.529	387.16
645.87	364.18
646.211	496.95
646.552	430.56
646.893	376.94
647.233	382.05
647.574	445.88
647.915	379.5
648.255	422.9
648.596	433.12
648.937	466.31
649.277	420.35
649.618	366.73
649.958	369.28
650.298	348.86
650.639	374.39
650.979	356.52
651.319	407.58
651.659	387.16
651.999	366.73
652.339	399.92
652.679	336.09
653.019	407.58
653.359	433.12
653.699	407.58
654.039	433.12
654.379	387.16
654.719	382.05
655.058	399.92
655.398	382.05
655.737	415.24
656.077	443.33
656.416	379.5
656.756	397.37
657.095	399.92
657.435	379.5
657.774	445.88
658.113	346.3
658.452	392.26
658.792	351.41
659.131	387.16
659.47	456.1
659.809	382.05
660.148	394.82
660.487	364.18
660.826	397.37
661.164	364.18
661.503	348.86
661.842	420.35
662.181	440.78
662.519	387.16
662.858	369.28
663.196	382.05
663.535	407.58
663.873	356.52
664.212	366.73
664.55	458.65
664.888	394.82
665.226	376.94
665.565	351.41
665.903	550.57
666.241	422.9
666.579	374.39
666.917	433.12
667.255	435.67
667.593	325.87
667.931	394.82
668.268	410.14
668.606	405.03
668.944	410.14
669.282	422.9
669.619	430.56
669.957	382.05
670.294	415.24
670.632	387.16
670.969	435.67
671.307	433.12
671.644	420.35
671.981	384.6
672.318	428.01
672.656	435.67
672.993	379.5
673.33	387.16
673.667	328.43
674.004	371.84
674.341	379.5
674.678	382.05
675.015	336.09
675.351	371.84
675.688	440.78
676.025	407.58
676.362	389.71
676.698	407.58
677.035	410.14
677.371	407.58
677.708	412.69
678.044	351.41
678.38	433.12
678.717	422.9
679.053	382.05
679.389	384.6
679.725	359.07
680.062	399.92
680.398	430.56
680.734	445.88
681.07	430.56
681.406	448.44
681.742	422.9
682.077	417.8
682.413	430.56
682.749	417.8
683.085	417.8
683.42	394.82
683.756	387.16
684.091	382.05
684.427	402.48
684.762	433.12
685.098	481.63
685.433	428.01
685.768	359.07
686.104	364.18
686.439	384.6
686.774	382.05
687.109	438.22
687.444	397.37
687.779	328.43
688.114	440.78
688.449	374.39
688.784	422.9
689.119	361.62
689.454	392.26
689.789	433.12
690.123	379.5
690.458	343.75
690.792	359.07
691.127	415.24
691.461	369.28
691.796	402.48
692.13	318.21
692.465	356.52
692.799	359.07
693.133	438.22
693.467	338.64
693.802	428.01
694.136	417.8
694.47	397.37
694.804	387.16
695.138	356.52
695.472	351.41
695.806	376.94
696.139	325.87
696.473	417.8
696.807	361.62
697.141	415.24
697.474	438.22
697.808	412.69
698.141	397.37
698.475	450.99
698.808	359.07
699.142	407.58
699.475	410.14
699.808	371.84
700.142	366.73
700.475	433.12
700.808	330.98
701.141	351.41
701.474	394.82
701.807	463.76
702.14	435.67
702.473	374.39
702.806	389.71
703.139	292.68
703.472	445.88
703.804	399.92
704.137	430.56
704.47	438.22
704.802	384.6
705.135	445.88
705.467	366.73
705.8	433.12
706.132	428.01
706.464	445.88
706.797	374.39
707.129	428.01
707.461	445.88
707.793	366.73
708.125	445.88
708.457	471.42
708.789	422.9
709.121	364.18
709.453	412.69
709.785	353.96
710.117	428.01
710.449	353.96
710.781	456.1
711.112	425.46
711.444	410.14
711.775	489.29
712.107	420.35
712.438	420.35
712.77	405.03
713.101	361.62
713.433	325.87
713.764	387.16
714.095	422.9
714.426	384.6
714.757	374.39
715.089	387.16
715.42	397.37
715.751	430.56
716.082	389.71
716.412	466.31
716.743	397.37
717.074	361.62
717.405	376.94
717.736	412.69
718.066	415.24
718.397	407.58
718.727	440.78
719.058	376.94
719.388	430.56
719.719	415.24
720.049	397.37
720.38	417.8
720.71	453.54
721.04	397.37
721.37	353.96
721.7	366.73
722.031	407.58
722.361	410.14
722.691	428.01
723.021	440.78
723.35	371.84
723.68	387.16
724.01	361.62
724.34	428.01
724.67	448.44
724.999	410.14
725.329	484.18
725.658	384.6
725.988	428.01
726.317	448.44
726.647	463.76
726.976	369.28
727.306	435.67
727.635	351.41
727.964	341.2
728.293	313.11
728.622	336.09
728.952	389.71
729.281	456.1
729.61	430.56
729.939	415.24
730.267	453.54
730.596	356.52
730.925	405.03
731.254	387.16
731.583	389.71
731.911	384.6
732.24	468.86
732.568	399.92
732.897	417.8
733.225	382.05
733.554	338.64
733.882	412.69
734.21	361.62
734.539	468.86
734.867	415.24
735.195	305.45
735.523	384.6
735.851	410.14
736.179	325.87
736.507	353.96
736.835	412.69
737.163	502.06
737.491	341.2
737.819	371.84
738.147	425.46
738.474	399.92
738.802	402.48
739.13	302.89
739.457	405.03
739.785	384.6
740.112	376.94
740.44	440.78
740.767	374.39
741.094	420.35
741.422	364.18
741.749	351.41
742.076	402.48
742.403	399.92
742.73	438.22
743.057	379.5
743.384	445.88
743.711	445.88
744.038	397.37
744.365	463.76
744.692	371.84
745.018	415.24
745.345	369.28
745.672	397.37
745.998	405.03
746.325	394.82
746.651	410.14
746.978	382.05
747.304	438.22
747.631	410.14
747.957	384.6
748.283	330.98
748.61	379.5
748.936	361.62
749.262	417.8
749.588	410.14
749.914	440.78
750.24	336.09
750.566	359.07
750.892	325.87
751.218	422.9
751.543	422.9
751.869	412.69
752.195	448.44
752.521	479.08
752.846	461.2
753.172	425.46
753.497	369.28
753.823	422.9
754.148	433.12
754.473	438.22
754.799	466.31
755.124	433.12
755.449	359.07
755.774	405.03
756.1	310.55
756.425	359.07
756.75	374.39
757.075	468.86
757.4	568.45
757.724	466.31
758.049	412.69
758.374	461.2
758.699	366.73
759.024	399.92
759.348	399.92
759.673	430.56
759.997	448.44
760.322	387.16
760.646	504.61
760.971	458.65
761.295	433.12
761.619	361.62
761.944	433.12
762.268	435.67
762.592	422.9
762.916	466.31
763.24	456.1
763.564	456.1
763.888	507.16
764.212	573.55
764.536	481.63
764.86	639.94
765.184	614.41
765.508	645.05
765.831	662.92
766.155	979.54
766.478	782.93
766.802	729.31
767.126	841.66
767.449	933.58
767.772	948.9
768.096	976.99
768.419	1012.73
768.742	1058.69
769.066	1074.01
769.389	1148.06
769.712	1201.68
770.035	1168.49
770.358	1201.68
770.681	1403.4
771.004	1365.1
771.327	1380.42
771.65	1308.93
771.972	1405.95
772.295	1457.02
772.618	1538.73
772.941	1571.92
773.263	1505.54
773.586	1727.68
773.908	1870.67
774.231	1891.1
774.553	1975.36
774.875	2156.65
775.198	2240.91
775.52	2164.31
775.842	2133.67
776.164	2054.51
776.487	2031.53
776.809	2090.26
777.131	2133.67
777.453	2138.77
777.775	2057.07
778.096	2373.68
778.418	2483.48
778.74	2205.16
779.062	2233.25
779.384	2544.76
779.705	2800.1
780.027	3124.38
780.348	3037.56
780.67	2983.94
780.991	3211.19
781.313	3502.28
781.634	3624.84
781.955	3315.88
782.277	3226.51
782.598	3249.49
782.919	3190.76
783.24	3216.3
783.561	3366.95
783.882	3328.65
784.203	3456.32
784.524	3300.56
784.845	3333.75
785.166	3188.21
785.487	3124.38
785.807	3106.5
786.128	3027.35
786.449	3029.9
786.769	3088.63
787.09	3185.66
787.41	3410.36
787.731	3775.49
788.051	3852.09
788.372	3933.8
788.692	4273.4
789.012	4508.31
789.332	4470.01
789.653	4722.79
789.973	4906.64
790.293	4827.48
790.613	4015.51
790.933	3760.17
791.253	3831.66
791.573	3535.47
791.893	3423.12
792.212	3216.3
792.532	3200.98
792.852	3103.95
793.171	2960.96
793.491	2787.33
793.811	2869.04
794.13	2983.94
794.45	2889.47
794.769	2863.93
795.088	3078.42
795.408	3098.84
795.727	3149.91
796.046	3216.3
796.365	3045.22
796.684	2978.83
797.004	2713.28
797.323	2978.83
797.642	3216.3
797.96	3359.29
798.279	3310.77
798.598	3029.9
798.917	3009.48
799.236	2751.58
799.554	2654.56
799.873	2475.82
800.192	2641.79
800.51	2667.32
800.829	2519.23
