Data from 2025-12-03_xpw_interference_micrometer_634_reference_FLMS141361__123__373.txt Node

Date: Wed Dec 03 15:51:25 MST 2025
User: james
Spectrometer: FLMS14136
Trigger mode: 0
Integration Time (sec): 1.000000E-1
Scans to average: 1
Electric dark correction enabled: true
Nonlinearity correction enabled: false
Boxcar width: 0
XAxis mode: Wavelengths
Number of Pixels in Spectrum: 2048
>>>>>Begin Spectral Data<<<<<
339.315	-59.53
339.697	-59.53
340.079	-59.53
340.461	-11.01
340.843	-97.83
341.225	-72.29
341.607	-69.74
341.989	-143.79
342.371	-28.89
342.752	-92.72
343.134	-33.99
343.516	4.31
343.897	-23.78
344.279	-31.44
344.661	6.86
345.042	11.97
345.423	60.48
345.805	11.97
346.186	103.89
346.567	124.32
346.949	172.83
347.33	170.28
347.711	162.62
348.092	152.4
348.473	280.07
348.854	272.41
349.235	282.63
349.616	292.84
349.997	313.27
350.378	305.61
350.758	354.12
351.139	282.63
351.52	338.8
351.9	297.95
352.281	389.87
352.661	287.73
353.042	374.55
353.422	428.17
353.803	412.85
354.183	366.89
354.563	463.92
354.943	384.76
355.324	374.55
355.704	377.1
356.084	343.91
356.464	341.35
356.844	405.19
357.224	410.3
357.603	430.72
357.983	394.98
358.363	494.56
358.743	349.01
359.122	372
359.502	341.35
359.882	354.12
360.261	407.74
360.641	326.03
361.02	310.71
361.399	326.03
361.779	333.69
362.158	451.15
362.537	338.8
362.916	377.1
363.296	313.27
363.675	379.66
364.054	336.25
364.433	361.78
364.812	292.84
365.19	338.8
365.569	336.25
365.948	328.59
366.327	361.78
366.705	257.09
367.084	351.57
367.463	354.12
367.841	320.93
368.22	356.67
368.598	346.46
368.977	315.82
369.355	323.48
369.733	361.78
370.111	349.01
370.49	328.59
370.868	323.48
371.246	338.8
371.624	295.39
372.002	331.14
372.38	341.35
372.758	364.34
373.136	356.67
373.513	323.48
373.891	366.89
374.269	377.1
374.646	369.44
375.024	343.91
375.402	369.44
375.779	364.34
376.157	379.66
376.534	356.67
376.911	410.3
377.289	346.46
377.666	389.87
378.043	366.89
378.42	425.62
378.797	326.03
379.175	415.4
379.552	331.14
379.929	354.12
380.305	384.76
380.682	349.01
381.059	359.23
381.436	336.25
381.813	343.91
382.189	379.66
382.566	331.14
382.943	366.89
383.319	338.8
383.696	405.19
384.072	397.53
384.448	417.96
384.825	333.69
385.201	346.46
385.577	313.27
385.953	323.48
386.329	303.05
386.706	400.08
387.082	374.55
387.458	379.66
387.834	364.34
388.209	308.16
388.585	300.5
388.961	349.01
389.337	377.1
389.713	359.23
390.088	397.53
390.464	361.78
390.839	356.67
391.215	359.23
391.59	392.42
391.966	374.55
392.341	412.85
392.716	364.34
393.092	372
393.467	351.57
393.842	338.8
394.217	402.64
394.592	369.44
394.967	336.25
395.342	331.14
395.717	315.82
396.092	315.82
396.467	397.53
396.841	379.66
397.216	326.03
397.591	394.98
397.965	379.66
398.34	364.34
398.714	326.03
399.089	313.27
399.463	323.48
399.838	320.93
400.212	318.37
400.586	400.08
400.961	343.91
401.335	343.91
401.709	392.42
402.083	407.74
402.457	320.93
402.831	369.44
403.205	364.34
403.579	310.71
403.953	343.91
404.326	361.78
404.7	346.46
405.074	374.55
405.447	361.78
405.821	369.44
406.195	423.06
406.568	389.87
406.942	389.87
407.315	366.89
407.688	351.57
408.062	377.1
408.435	346.46
408.808	428.17
409.181	425.62
409.554	397.53
409.927	389.87
410.3	369.44
410.673	384.76
411.046	430.72
411.419	430.72
411.792	372
412.165	417.96
412.537	374.55
412.91	387.32
413.283	331.14
413.655	382.21
414.028	354.12
414.4	292.84
414.773	338.8
415.145	331.14
415.517	356.67
415.889	410.3
416.262	405.19
416.634	392.42
417.006	356.67
417.378	318.37
417.75	412.85
418.122	364.34
418.494	377.1
418.866	410.3
419.238	361.78
419.609	402.64
419.981	476.68
420.353	364.34
420.725	356.67
421.096	326.03
421.468	366.89
421.839	374.55
422.211	410.3
422.582	323.48
422.953	379.66
423.325	405.19
423.696	430.72
424.067	412.85
424.438	384.76
424.809	387.32
425.18	374.55
425.551	377.1
425.922	341.35
426.293	349.01
426.664	333.69
427.035	389.87
427.406	394.98
427.776	387.32
428.147	366.89
428.518	364.34
428.888	377.1
429.259	451.15
429.629	359.23
429.999	338.8
430.37	364.34
430.74	389.87
431.11	407.74
431.481	469.02
431.851	387.32
432.221	379.66
432.591	423.06
432.961	333.69
433.331	384.76
433.701	420.51
434.071	397.53
434.441	387.32
434.81	420.51
435.18	359.23
435.55	356.67
435.919	318.37
436.289	405.19
436.658	382.21
437.028	341.35
437.397	405.19
437.767	397.53
438.136	384.76
438.505	326.03
438.875	392.42
439.244	394.98
439.613	430.72
439.982	394.98
440.351	333.69
440.72	366.89
441.089	430.72
441.458	407.74
441.827	420.51
442.196	410.3
442.564	430.72
442.933	361.78
443.302	323.48
443.67	382.21
444.039	382.21
444.407	336.25
444.776	458.81
445.144	440.94
445.513	423.06
445.881	387.32
446.249	374.55
446.617	410.3
446.986	356.67
447.354	372
447.722	394.98
448.09	364.34
448.458	433.28
448.826	354.12
449.194	438.38
449.561	451.15
449.929	415.4
450.297	484.34
450.665	394.98
451.032	420.51
451.4	397.53
451.767	369.44
452.135	382.21
452.502	410.3
452.87	397.53
453.237	338.8
453.604	428.17
453.971	392.42
454.339	458.81
454.706	369.44
455.073	402.64
455.44	394.98
455.807	356.67
456.174	420.51
456.541	412.85
456.908	341.35
457.274	410.3
457.641	400.08
458.008	412.85
458.374	469.02
458.741	397.53
459.108	397.53
459.474	417.96
459.841	387.32
460.207	410.3
460.573	415.4
460.94	364.34
461.306	359.23
461.672	333.69
462.038	346.46
462.404	364.34
462.771	384.76
463.137	484.34
463.503	400.08
463.868	374.55
464.234	430.72
464.6	435.83
464.966	377.1
465.332	433.28
465.697	481.79
466.063	372
466.429	415.4
466.794	313.27
467.16	407.74
467.525	453.7
467.89	392.42
468.256	394.98
468.621	389.87
468.986	420.51
469.351	361.78
469.717	443.49
470.082	389.87
470.447	397.53
470.812	453.7
471.177	366.89
471.542	428.17
471.906	402.64
472.271	389.87
472.636	366.89
473.001	410.3
473.365	359.23
473.73	407.74
474.094	346.46
474.459	446.04
474.823	377.1
475.188	356.67
475.552	415.4
475.917	374.55
476.281	451.15
476.645	420.51
477.009	400.08
477.373	374.55
477.737	420.51
478.101	412.85
478.465	520.09
478.829	423.06
479.193	415.4
479.557	402.64
479.921	361.78
480.284	343.91
480.648	423.06
481.012	400.08
481.375	412.85
481.739	453.7
482.102	456.26
482.466	428.17
482.829	392.42
483.193	351.57
483.556	463.92
483.919	420.51
484.282	394.98
484.645	417.96
485.009	417.96
485.372	428.17
485.735	412.85
486.098	318.37
486.46	410.3
486.823	379.66
487.186	435.83
487.549	458.81
487.912	463.92
488.274	453.7
488.637	433.28
488.999	410.3
489.362	333.69
489.724	423.06
490.087	407.74
490.449	387.32
490.811	372
491.174	394.98
491.536	438.38
491.898	410.3
492.26	394.98
492.622	407.74
492.984	384.76
493.346	369.44
493.708	387.32
494.07	333.69
494.432	435.83
494.794	410.3
495.155	346.46
495.517	323.48
495.879	359.23
496.24	405.19
496.602	438.38
496.963	410.3
497.325	415.4
497.686	433.28
498.048	415.4
498.409	430.72
498.77	402.64
499.131	359.23
499.492	402.64
499.854	400.08
500.215	433.28
500.576	453.7
500.937	438.38
501.298	438.38
501.658	372
502.019	331.14
502.38	438.38
502.741	425.62
503.101	440.94
503.462	361.78
503.823	361.78
504.183	440.94
504.543	379.66
504.904	392.42
505.264	463.92
505.625	448.6
505.985	336.25
506.345	428.17
506.705	351.57
507.065	397.53
507.426	420.51
507.786	440.94
508.146	410.3
508.505	392.42
508.865	333.69
509.225	417.96
509.585	463.92
509.945	387.32
510.304	382.21
510.664	384.76
511.024	451.15
511.383	387.32
511.743	486.9
512.102	382.21
512.462	328.59
512.821	443.49
513.18	440.94
513.539	486.9
513.899	417.96
514.258	366.89
514.617	377.1
514.976	402.64
515.335	394.98
515.694	379.66
516.053	374.55
516.412	420.51
516.771	458.81
517.129	415.4
517.488	392.42
517.847	400.08
518.205	397.53
518.564	405.19
518.922	384.76
519.281	428.17
519.639	423.06
519.998	430.72
520.356	435.83
520.714	415.4
521.073	400.08
521.431	428.17
521.789	438.38
522.147	425.62
522.505	420.51
522.863	417.96
523.221	400.08
523.579	425.62
523.937	343.91
524.295	356.67
524.652	415.4
525.01	433.28
525.368	440.94
525.725	435.83
526.083	400.08
526.44	435.83
526.798	407.74
527.155	412.85
527.513	415.4
527.87	397.53
528.227	420.51
528.584	394.98
528.942	453.7
529.299	308.16
529.656	318.37
530.013	377.1
530.37	425.62
530.727	412.85
531.083	428.17
531.44	366.89
531.797	308.16
532.154	405.19
532.511	382.21
532.867	374.55
533.224	364.34
533.58	443.49
533.937	359.23
534.293	417.96
534.65	379.66
535.006	359.23
535.362	351.57
535.718	361.78
536.075	451.15
536.431	382.21
536.787	448.6
537.143	412.85
537.499	397.53
537.855	397.53
538.211	428.17
538.567	389.87
538.923	412.85
539.278	430.72
539.634	410.3
539.99	400.08
540.345	377.1
540.701	366.89
541.056	433.28
541.412	382.21
541.767	397.53
542.123	389.87
542.478	400.08
542.833	372
543.188	407.74
543.544	379.66
543.899	361.78
544.254	372
544.609	366.89
544.964	369.44
545.319	366.89
545.674	474.13
546.029	407.74
546.383	435.83
546.738	366.89
547.093	394.98
547.447	382.21
547.802	420.51
548.157	435.83
548.511	384.76
548.866	349.01
549.22	458.81
549.574	351.57
549.929	349.01
550.283	389.87
550.637	417.96
550.991	435.83
551.345	392.42
551.699	402.64
552.053	366.89
552.407	394.98
552.761	349.01
553.115	417.96
553.469	387.32
553.823	354.12
554.176	410.3
554.53	377.1
554.884	389.87
555.237	732.02
555.591	405.19
555.944	453.7
556.298	415.4
556.651	382.21
557.005	379.66
557.358	343.91
557.711	412.85
558.064	364.34
558.417	428.17
558.771	469.02
559.124	471.58
559.477	356.67
559.83	420.51
560.182	425.62
560.535	359.23
560.888	372
561.241	359.23
561.594	397.53
561.946	343.91
562.299	412.85
562.651	407.74
563.004	407.74
563.356	440.94
563.709	410.3
564.061	372
564.413	343.91
564.766	389.87
565.118	361.78
565.47	372
565.822	448.6
566.174	400.08
566.526	356.67
566.878	377.1
567.23	331.14
567.582	405.19
567.934	366.89
568.286	354.12
568.638	410.3
568.989	407.74
569.341	425.62
569.693	394.98
570.044	369.44
570.396	382.21
570.747	359.23
571.098	389.87
571.45	374.55
571.801	377.1
572.152	397.53
572.504	392.42
572.855	423.06
573.206	364.34
573.557	456.26
573.908	389.87
574.259	428.17
574.61	392.42
574.961	379.66
575.311	359.23
575.662	433.28
576.013	384.76
576.364	407.74
576.714	341.35
577.065	372
577.415	315.82
577.766	415.4
578.116	415.4
578.467	387.32
578.817	382.21
579.167	435.83
579.518	405.19
579.868	415.4
580.218	364.34
580.568	407.74
580.918	420.51
581.268	415.4
581.618	389.87
581.968	430.72
582.318	343.91
582.668	361.78
583.017	425.62
583.367	474.13
583.717	458.81
584.066	446.04
584.416	341.35
584.765	435.83
585.115	423.06
585.464	374.55
585.814	343.91
586.163	423.06
586.512	425.62
586.862	423.06
587.211	440.94
587.56	425.62
587.909	372
588.258	379.66
588.607	448.6
588.956	423.06
589.305	446.04
589.654	372
590.002	402.64
590.351	410.3
590.7	397.53
591.048	374.55
591.397	377.1
591.746	341.35
592.094	402.64
592.443	389.87
592.791	446.04
593.139	374.55
593.488	423.06
593.836	310.71
594.184	402.64
594.532	374.55
594.88	410.3
595.228	402.64
595.576	453.7
595.924	392.42
596.272	389.87
596.62	361.78
596.968	346.46
597.316	366.89
597.664	382.21
598.011	448.6
598.359	438.38
598.706	354.12
599.054	364.34
599.402	377.1
599.749	364.34
600.096	343.91
600.444	405.19
600.791	446.04
601.138	420.51
601.485	394.98
601.833	384.76
602.18	466.47
602.527	410.3
602.874	402.64
603.221	384.76
603.568	410.3
603.914	461.36
604.261	423.06
604.608	397.53
604.955	425.62
605.301	351.57
605.648	453.7
605.995	433.28
606.341	405.19
606.688	359.23
607.034	310.71
607.38	351.57
607.727	443.49
608.073	359.23
608.419	372
608.765	407.74
609.112	351.57
609.458	402.64
609.804	417.96
610.15	397.53
610.496	456.26
610.842	412.85
611.187	310.71
611.533	481.79
611.879	486.9
612.225	384.76
612.57	397.53
612.916	392.42
613.261	346.46
613.607	384.76
613.952	405.19
614.298	297.95
614.643	300.5
614.989	384.76
615.334	359.23
615.679	369.44
616.024	351.57
616.369	397.53
616.714	400.08
617.059	341.35
617.404	392.42
617.749	428.17
618.094	364.34
618.439	356.67
618.784	346.46
619.129	448.6
619.473	354.12
619.818	343.91
620.163	405.19
620.507	415.4
620.852	369.44
621.196	369.44
621.54	364.34
621.885	446.04
622.229	405.19
622.573	382.21
622.918	341.35
623.262	400.08
623.606	343.91
623.95	394.98
624.294	402.64
624.638	361.78
624.982	397.53
625.326	374.55
625.67	394.98
626.013	397.53
626.357	392.42
626.701	389.87
627.044	389.87
627.388	369.44
627.731	389.87
628.075	474.13
628.418	458.81
628.762	428.17
629.105	382.21
629.448	417.96
629.792	458.81
630.135	374.55
630.478	435.83
630.821	438.38
631.164	415.4
631.507	323.48
631.85	430.72
632.193	425.62
632.536	379.66
632.879	415.4
633.221	405.19
633.564	372
633.907	435.83
634.249	407.74
634.592	343.91
634.935	359.23
635.277	310.71
635.619	349.01
635.962	446.04
636.304	384.76
636.646	412.85
636.989	412.85
637.331	331.14
637.673	384.76
638.015	400.08
638.357	463.92
638.699	280.07
639.041	361.78
639.383	425.62
639.725	341.35
640.067	387.32
640.408	356.67
640.75	372
641.092	369.44
641.433	351.57
641.775	410.3
642.116	415.4
642.458	458.81
642.799	366.89
643.141	407.74
643.482	407.74
643.823	323.48
644.164	440.94
644.506	517.54
644.847	415.4
645.188	364.34
645.529	410.3
645.87	392.42
646.211	354.12
646.552	389.87
646.893	394.98
647.233	382.21
647.574	366.89
647.915	369.44
648.255	361.78
648.596	415.4
648.937	417.96
649.277	400.08
649.618	397.53
649.958	397.53
650.298	435.83
650.639	389.87
650.979	392.42
651.319	430.72
651.659	343.91
651.999	430.72
652.339	382.21
652.679	336.25
653.019	336.25
653.359	384.76
653.699	402.64
654.039	402.64
654.379	384.76
654.719	384.76
655.058	323.48
655.398	397.53
655.737	443.49
656.077	400.08
656.416	354.12
656.756	369.44
657.095	338.8
657.435	412.85
657.774	366.89
658.113	384.76
658.452	356.67
658.792	417.96
659.131	387.32
659.47	379.66
659.809	389.87
660.148	369.44
660.487	394.98
660.826	394.98
661.164	366.89
661.503	407.74
661.842	382.21
662.181	303.05
662.519	425.62
662.858	451.15
663.196	425.62
663.535	305.61
663.873	430.72
664.212	379.66
664.55	372
664.888	435.83
665.226	384.76
665.565	407.74
665.903	632.44
666.241	463.92
666.579	359.23
666.917	405.19
667.255	435.83
667.593	374.55
667.931	469.02
668.268	407.74
668.606	435.83
668.944	440.94
669.282	384.76
669.619	440.94
669.957	481.79
670.294	400.08
670.632	402.64
670.969	440.94
671.307	351.57
671.644	346.46
671.981	397.53
672.318	397.53
672.656	428.17
672.993	336.25
673.33	430.72
673.667	405.19
674.004	364.34
674.341	440.94
674.678	374.55
675.015	438.38
675.351	430.72
675.688	440.94
676.025	402.64
676.362	354.12
676.698	379.66
677.035	397.53
677.371	361.78
677.708	387.32
678.044	400.08
678.38	402.64
678.717	410.3
679.053	387.32
679.389	435.83
679.725	366.89
680.062	392.42
680.398	402.64
680.734	415.4
681.07	430.72
681.406	440.94
681.742	372
682.077	402.64
682.413	349.01
682.749	402.64
683.085	407.74
683.42	366.89
683.756	366.89
684.091	433.28
684.427	397.53
684.762	374.55
685.098	435.83
685.433	446.04
685.768	382.21
686.104	415.4
686.439	323.48
686.774	313.27
687.109	405.19
687.444	407.74
687.779	425.62
688.114	379.66
688.449	379.66
688.784	379.66
689.119	374.55
689.454	400.08
689.789	423.06
690.123	423.06
690.458	336.25
690.792	456.26
691.127	346.46
691.461	387.32
691.796	351.57
692.13	420.51
692.465	384.76
692.799	461.36
693.133	405.19
693.467	412.85
693.802	392.42
694.136	354.12
694.47	433.28
694.804	338.8
695.138	331.14
695.472	407.74
695.806	364.34
696.139	458.81
696.473	407.74
696.807	382.21
697.141	451.15
697.474	374.55
697.808	374.55
698.141	394.98
698.475	315.82
698.808	341.35
699.142	343.91
699.475	374.55
699.808	420.51
700.142	410.3
700.475	336.25
700.808	354.12
701.141	369.44
701.474	412.85
701.807	361.78
702.14	369.44
702.473	343.91
702.806	366.89
703.139	305.61
703.472	387.32
703.804	392.42
704.137	374.55
704.47	374.55
704.802	400.08
705.135	343.91
705.467	387.32
705.8	389.87
706.132	425.62
706.464	382.21
706.797	308.16
707.129	369.44
707.461	397.53
707.793	349.01
708.125	356.67
708.457	361.78
708.789	397.53
709.121	415.4
709.453	402.64
709.785	466.47
710.117	458.81
710.449	354.12
710.781	400.08
711.112	417.96
711.444	318.37
711.775	338.8
712.107	379.66
712.438	300.5
712.77	328.59
713.101	402.64
713.433	372
713.764	336.25
714.095	331.14
714.426	417.96
714.757	407.74
715.089	412.85
715.42	405.19
715.751	356.67
716.082	405.19
716.412	400.08
716.743	392.42
717.074	369.44
717.405	338.8
717.736	323.48
718.066	377.1
718.397	382.21
718.727	397.53
719.058	412.85
719.388	435.83
719.719	400.08
720.049	392.42
720.38	400.08
720.71	412.85
721.04	456.26
721.37	372
721.7	397.53
722.031	392.42
722.361	412.85
722.691	420.51
723.021	372
723.35	374.55
723.68	315.82
724.01	377.1
724.34	387.32
724.67	361.78
724.999	435.83
725.329	405.19
725.658	369.44
725.988	338.8
726.317	377.1
726.647	364.34
726.976	384.76
727.306	351.57
727.635	346.46
727.964	359.23
728.293	394.98
728.622	338.8
728.952	377.1
729.281	354.12
729.61	372
729.939	394.98
730.267	351.57
730.596	374.55
730.925	313.27
731.254	326.03
731.583	349.01
731.911	417.96
732.24	379.66
732.568	440.94
732.897	379.66
733.225	377.1
733.554	328.59
733.882	377.1
734.21	366.89
734.539	407.74
734.867	471.58
735.195	377.1
735.523	333.69
735.851	333.69
736.179	384.76
736.507	310.71
736.835	389.87
737.163	389.87
737.491	384.76
737.819	486.9
738.147	423.06
738.474	438.38
738.802	448.6
739.13	410.3
739.457	435.83
739.785	392.42
740.112	364.34
740.44	394.98
740.767	382.21
741.094	435.83
741.422	402.64
741.749	323.48
742.076	364.34
742.403	453.7
742.73	389.87
743.057	417.96
743.384	451.15
743.711	435.83
744.038	366.89
744.365	417.96
744.692	405.19
745.018	336.25
745.345	338.8
745.672	359.23
745.998	389.87
746.325	338.8
746.651	359.23
746.978	428.17
747.304	346.46
747.631	372
747.957	341.35
748.283	382.21
748.61	425.62
748.936	384.76
749.262	331.14
749.588	351.57
749.914	377.1
750.24	400.08
750.566	369.44
750.892	346.46
751.218	331.14
751.543	405.19
751.869	412.85
752.195	341.35
752.521	425.62
752.846	417.96
753.172	435.83
753.497	392.42
753.823	412.85
754.148	415.4
754.473	394.98
754.799	338.8
755.124	397.53
755.449	387.32
755.774	435.83
756.1	394.98
756.425	423.06
756.75	343.91
757.075	389.87
757.4	543.07
757.724	400.08
758.049	412.85
758.374	389.87
758.699	356.67
759.024	346.46
759.348	433.28
759.673	372
759.997	366.89
760.322	394.98
760.646	364.34
760.971	417.96
761.295	423.06
761.619	435.83
761.944	430.72
762.268	481.79
762.592	481.79
762.916	438.38
763.24	481.79
763.564	550.73
763.888	494.56
764.212	489.45
764.536	563.5
764.86	560.95
765.184	634.99
765.508	637.55
765.831	660.53
766.155	816.28
766.478	706.49
766.802	652.87
767.126	800.96
767.449	803.52
767.772	915.86
768.096	943.95
768.419	926.08
768.742	954.17
769.066	997.57
769.389	1074.17
769.712	1071.62
770.035	1120.14
770.358	1138.01
770.681	1201.84
771.004	1183.97
771.327	1273.34
771.65	1344.83
771.972	1388.24
772.295	1385.69
772.618	1390.79
772.941	1482.71
773.263	1498.03
773.586	1584.85
773.908	1717.63
774.231	1766.14
774.553	1796.78
774.875	1952.54
775.198	2006.16
775.52	1944.88
775.842	1835.08
776.164	1824.87
776.487	1960.2
776.809	1960.2
777.131	2036.8
777.453	1993.39
777.775	1993.39
778.096	2044.46
778.418	2049.56
778.74	2016.37
779.062	2098.08
779.384	2241.07
779.705	2654.72
780.027	2733.87
780.348	2670.04
780.67	2629.18
780.991	2853.88
781.313	3045.38
781.634	3213.9
781.955	3027.51
782.277	2838.56
782.598	2879.41
782.919	3022.4
783.24	2897.29
783.561	2920.27
783.882	3004.53
784.203	3091.34
784.524	3019.85
784.845	2825.79
785.166	2698.12
785.487	2634.29
785.807	2738.98
786.128	2698.12
786.449	2611.31
786.769	2736.42
787.09	2907.5
787.41	3068.36
787.731	3308.38
788.051	3520.31
788.372	3423.28
788.692	3826.72
789.012	3895.66
789.332	3847.14
789.653	4087.16
789.973	4329.73
790.293	4076.95
790.613	3436.05
790.933	3469.24
791.253	3344.13
791.573	3065.81
791.893	3022.4
792.212	2940.69
792.532	2800.26
792.852	2777.28
793.171	2751.74
793.491	2687.91
793.811	2652.16
794.13	2634.29
794.45	2539.81
794.769	2516.83
795.088	2751.74
795.408	2810.47
795.727	3014.74
796.046	2938.14
796.365	2818.13
796.684	2562.79
797.004	2573.01
797.323	2705.78
797.642	2994.31
797.96	2912.61
798.279	2933.03
798.598	2759.4
798.917	2606.2
799.236	2532.15
799.554	2486.19
799.873	2363.63
800.192	2287.03
800.51	2384.06
800.829	2340.65
801.147	2195.11
801.466	2144.04
