Data from 2025-12-03_xpw_interference_micrometer_634_reference_FLMS141361__194__444.txt Node

Date: Wed Dec 03 15:51:32 MST 2025
User: james
Spectrometer: FLMS14136
Trigger mode: 0
Integration Time (sec): 1.000000E-1
Scans to average: 1
Electric dark correction enabled: true
Nonlinearity correction enabled: false
Boxcar width: 0
XAxis mode: Wavelengths
Number of Pixels in Spectrum: 2048
>>>>>Begin Spectral Data<<<<<
339.315	-95.43
339.697	-95.43
340.079	-95.43
340.461	-95.43
340.843	-92.88
341.225	-138.84
341.607	-141.39
341.989	-149.05
342.371	-149.05
342.752	-21.38
343.134	-85.22
343.516	-95.43
343.897	-8.62
344.279	-39.26
344.661	80.75
345.042	147.14
345.423	147.14
345.805	73.09
346.186	108.84
346.567	142.03
346.949	129.26
347.33	139.48
347.711	251.83
348.092	203.31
348.473	223.74
348.854	254.38
349.235	269.7
349.616	269.7
349.997	239.06
350.378	341.2
350.758	285.02
351.139	277.36
351.52	287.57
351.9	389.71
352.281	318.21
352.661	320.77
353.042	374.39
353.422	384.6
353.803	384.6
354.183	348.86
354.563	399.92
354.943	422.9
355.324	392.26
355.704	366.73
356.084	353.96
356.464	384.6
356.844	405.03
357.224	353.96
357.603	351.41
357.983	382.05
358.363	412.69
358.743	356.52
359.122	341.2
359.502	353.96
359.882	374.39
360.261	318.21
360.641	285.02
361.02	364.18
361.399	279.91
361.779	330.98
362.158	348.86
362.537	300.34
362.916	279.91
363.296	308
363.675	292.68
364.054	297.79
364.433	287.57
364.812	297.79
365.19	292.68
365.569	376.94
365.948	359.07
366.327	297.79
366.705	267.15
367.084	249.27
367.463	336.09
367.841	318.21
368.22	292.68
368.598	323.32
368.977	282.47
369.355	336.09
369.733	282.47
370.111	330.98
370.49	361.62
370.868	315.66
371.246	387.16
371.624	356.52
372.002	359.07
372.38	323.32
372.758	305.45
373.136	341.2
373.513	320.77
373.891	359.07
374.269	346.3
374.646	320.77
375.024	297.79
375.402	282.47
375.779	338.64
376.157	336.09
376.534	369.28
376.911	323.32
377.289	330.98
377.666	374.39
378.043	356.52
378.42	318.21
378.797	351.41
379.175	262.04
379.552	341.2
379.929	249.27
380.305	256.93
380.682	394.82
381.059	315.66
381.436	292.68
381.813	308
382.189	318.21
382.566	320.77
382.943	356.52
383.319	376.94
383.696	343.75
384.072	394.82
384.448	338.64
384.825	361.62
385.201	300.34
385.577	290.13
385.953	330.98
386.329	353.96
386.706	333.54
387.082	359.07
387.458	364.18
387.834	333.54
388.209	397.37
388.585	351.41
388.961	359.07
389.337	290.13
389.713	392.26
390.088	361.62
390.464	379.5
390.839	338.64
391.215	328.43
391.59	348.86
391.966	348.86
392.341	333.54
392.716	389.71
393.092	450.99
393.467	318.21
393.842	313.11
394.217	315.66
394.592	369.28
394.967	328.43
395.342	333.54
395.717	315.66
396.092	305.45
396.467	318.21
396.841	308
397.216	290.13
397.591	361.62
397.965	346.3
398.34	292.68
398.714	323.32
399.089	333.54
399.463	333.54
399.838	366.73
400.212	336.09
400.586	351.41
400.961	407.58
401.335	376.94
401.709	392.26
402.083	402.48
402.457	399.92
402.831	325.87
403.205	351.41
403.579	353.96
403.953	379.5
404.326	308
404.7	351.41
405.074	328.43
405.447	279.91
405.821	343.75
406.195	399.92
406.568	328.43
406.942	359.07
407.315	384.6
407.688	356.52
408.062	343.75
408.435	343.75
408.808	399.92
409.181	285.02
409.554	376.94
409.927	315.66
410.3	341.2
410.673	328.43
411.046	330.98
411.419	346.3
411.792	290.13
412.165	267.15
412.537	405.03
412.91	359.07
413.283	366.73
413.655	353.96
414.028	338.64
414.4	325.87
414.773	302.89
415.145	279.91
415.517	351.41
415.889	369.28
416.262	392.26
416.634	356.52
417.006	318.21
417.378	302.89
417.75	333.54
418.122	410.14
418.494	351.41
418.866	379.5
419.238	330.98
419.609	382.05
419.981	262.04
420.353	343.75
420.725	374.39
421.096	374.39
421.468	359.07
421.839	366.73
422.211	397.37
422.582	417.8
422.953	315.66
423.325	374.39
423.696	351.41
424.067	351.41
424.438	244.17
424.809	351.41
425.18	346.3
425.551	369.28
425.922	323.32
426.293	346.3
426.664	297.79
427.035	382.05
427.406	353.96
427.776	366.73
428.147	330.98
428.518	297.79
428.888	369.28
429.259	295.23
429.629	422.9
429.999	415.24
430.37	384.6
430.74	359.07
431.11	325.87
431.481	405.03
431.851	433.12
432.221	361.62
432.591	374.39
432.961	448.44
433.331	402.48
433.701	430.56
434.071	328.43
434.441	387.16
434.81	295.23
435.18	359.07
435.55	323.32
435.919	359.07
436.289	387.16
436.658	341.2
437.028	389.71
437.397	412.69
437.767	353.96
438.136	371.84
438.505	364.18
438.875	415.24
439.244	405.03
439.613	417.8
439.982	364.18
440.351	290.13
440.72	336.09
441.089	351.41
441.458	417.8
441.827	330.98
442.196	359.07
442.564	484.18
442.933	308
443.302	407.58
443.67	394.82
444.039	430.56
444.407	359.07
444.776	389.71
445.144	407.58
445.513	371.84
445.881	369.28
446.249	343.75
446.617	389.71
446.986	366.73
447.354	440.78
447.722	364.18
448.09	325.87
448.458	369.28
448.826	376.94
449.194	410.14
449.561	382.05
449.929	412.69
450.297	302.89
450.665	392.26
451.032	415.24
451.4	359.07
451.767	308
452.135	387.16
452.502	389.71
452.87	361.62
453.237	430.56
453.604	323.32
453.971	366.73
454.339	333.54
454.706	435.67
455.073	348.86
455.44	361.62
455.807	300.34
456.174	387.16
456.541	295.23
456.908	353.96
457.274	369.28
457.641	384.6
458.008	382.05
458.374	371.84
458.741	366.73
459.108	328.43
459.474	371.84
459.841	425.46
460.207	374.39
460.573	407.58
460.94	435.67
461.306	410.14
461.672	351.41
462.038	422.9
462.404	382.05
462.771	325.87
463.137	348.86
463.503	379.5
463.868	389.71
464.234	379.5
464.6	361.62
464.966	369.28
465.332	369.28
465.697	394.82
466.063	389.71
466.429	364.18
466.794	364.18
467.16	384.6
467.525	356.52
467.89	415.24
468.256	361.62
468.621	433.12
468.986	325.87
469.351	341.2
469.717	300.34
470.082	430.56
470.447	405.03
470.812	341.2
471.177	374.39
471.542	405.03
471.906	399.92
472.271	428.01
472.636	405.03
473.001	387.16
473.365	417.8
473.73	389.71
474.094	417.8
474.459	371.84
474.823	407.58
475.188	330.98
475.552	323.32
475.917	428.01
476.281	420.35
476.645	382.05
477.009	384.6
477.373	376.94
477.737	376.94
478.101	450.99
478.465	359.07
478.829	376.94
479.193	382.05
479.557	376.94
479.921	445.88
480.284	364.18
480.648	397.37
481.012	399.92
481.375	417.8
481.739	371.84
482.102	387.16
482.466	392.26
482.829	420.35
483.193	371.84
483.556	359.07
483.919	387.16
484.282	364.18
484.645	348.86
485.009	343.75
485.372	399.92
485.735	351.41
486.098	412.69
486.46	379.5
486.823	376.94
487.186	333.54
487.549	348.86
487.912	292.68
488.274	379.5
488.637	397.37
488.999	341.2
489.362	333.54
489.724	382.05
490.087	461.2
490.449	361.62
490.811	405.03
491.174	392.26
491.536	364.18
491.898	369.28
492.26	379.5
492.622	407.58
492.984	343.75
493.346	361.62
493.708	343.75
494.07	348.86
494.432	417.8
494.794	392.26
495.155	461.2
495.517	376.94
495.879	405.03
496.24	402.48
496.602	420.35
496.963	369.28
497.325	361.62
497.686	412.69
498.048	364.18
498.409	369.28
498.77	389.71
499.131	486.74
499.492	369.28
499.854	382.05
500.215	384.6
500.576	415.24
500.937	371.84
501.298	415.24
501.658	384.6
502.019	341.2
502.38	371.84
502.741	389.71
503.101	366.73
503.462	254.38
503.823	359.07
504.183	364.18
504.543	399.92
504.904	382.05
505.264	397.37
505.625	323.32
505.985	361.62
506.345	435.67
506.705	415.24
507.065	376.94
507.426	366.73
507.786	394.82
508.146	387.16
508.505	371.84
508.865	417.8
509.225	376.94
509.585	448.44
509.945	376.94
510.304	379.5
510.664	310.55
511.024	433.12
511.383	382.05
511.743	397.37
512.102	374.39
512.462	471.42
512.821	394.82
513.18	374.39
513.539	402.48
513.899	274.81
514.258	394.82
514.617	376.94
514.976	402.48
515.335	445.88
515.694	397.37
516.053	387.16
516.412	310.55
516.771	353.96
517.129	376.94
517.488	361.62
517.847	387.16
518.205	430.56
518.564	412.69
518.922	382.05
519.281	343.75
519.639	392.26
519.998	369.28
520.356	415.24
520.714	384.6
521.073	397.37
521.431	313.11
521.789	425.46
522.147	325.87
522.505	320.77
522.863	382.05
523.221	407.58
523.579	336.09
523.937	361.62
524.295	338.64
524.652	353.96
525.01	407.58
525.368	428.01
525.725	353.96
526.083	379.5
526.44	417.8
526.798	392.26
527.155	341.2
527.513	397.37
527.87	384.6
528.227	366.73
528.584	389.71
528.942	420.35
529.299	417.8
529.656	407.58
530.013	397.37
530.37	410.14
530.727	399.92
531.083	407.58
531.44	371.84
531.797	387.16
532.154	420.35
532.511	445.88
532.867	341.2
533.224	359.07
533.58	397.37
533.937	461.2
534.293	397.37
534.65	379.5
535.006	343.75
535.362	356.52
535.718	338.64
536.075	422.9
536.431	389.71
536.787	412.69
537.143	346.3
537.499	410.14
537.855	379.5
538.211	369.28
538.567	328.43
538.923	397.37
539.278	384.6
539.634	389.71
539.99	369.28
540.345	410.14
540.701	392.26
541.056	407.58
541.412	343.75
541.767	333.54
542.123	369.28
542.478	369.28
542.833	351.41
543.188	325.87
543.544	397.37
543.899	369.28
544.254	369.28
544.609	364.18
544.964	351.41
545.319	346.3
545.674	364.18
546.029	420.35
546.383	376.94
546.738	420.35
547.093	453.54
547.447	438.22
547.802	450.99
548.157	341.2
548.511	394.82
548.866	359.07
549.22	412.69
549.574	410.14
549.929	389.71
550.283	392.26
550.637	348.86
550.991	328.43
551.345	338.64
551.699	353.96
552.053	328.43
552.407	333.54
552.761	384.6
553.115	379.5
553.469	438.22
553.823	425.46
554.176	366.73
554.53	412.69
554.884	394.82
555.237	642.49
555.591	428.01
555.944	438.22
556.298	435.67
556.651	407.58
557.005	387.16
557.358	351.41
557.711	376.94
558.064	376.94
558.417	397.37
558.771	489.29
559.124	425.46
559.477	382.05
559.83	376.94
560.182	392.26
560.535	366.73
560.888	417.8
561.241	394.82
561.594	387.16
561.946	338.64
562.299	320.77
562.651	397.37
563.004	417.8
563.356	341.2
563.709	405.03
564.061	394.82
564.413	407.58
564.766	387.16
565.118	461.2
565.47	397.37
565.822	356.52
566.174	330.98
566.526	336.09
566.878	353.96
567.23	371.84
567.582	346.3
567.934	338.64
568.286	402.48
568.638	366.73
568.989	359.07
569.341	376.94
569.693	328.43
570.044	308
570.396	295.23
570.747	328.43
571.098	325.87
571.45	405.03
571.801	343.75
572.152	371.84
572.504	384.6
572.855	402.48
573.206	376.94
573.557	315.66
573.908	374.39
574.259	407.58
574.61	364.18
574.961	356.52
575.311	397.37
575.662	361.62
576.013	356.52
576.364	417.8
576.714	387.16
577.065	382.05
577.415	359.07
577.766	366.73
578.116	417.8
578.467	356.52
578.817	389.71
579.167	292.68
579.518	473.97
579.868	453.54
580.218	448.44
580.568	379.5
580.918	402.48
581.268	333.54
581.618	399.92
581.968	428.01
582.318	425.46
582.668	353.96
583.017	325.87
583.367	420.35
583.717	366.73
584.066	356.52
584.416	443.33
584.765	412.69
585.115	379.5
585.464	325.87
585.814	402.48
586.163	359.07
586.512	430.56
586.862	394.82
587.211	351.41
587.56	343.75
587.909	405.03
588.258	415.24
588.607	397.37
588.956	364.18
589.305	397.37
589.654	412.69
590.002	407.58
590.351	351.41
590.7	356.52
591.048	361.62
591.397	343.75
591.746	397.37
592.094	384.6
592.443	341.2
592.791	369.28
593.139	341.2
593.488	397.37
593.836	366.73
594.184	389.71
594.532	369.28
594.88	405.03
595.228	392.26
595.576	356.52
595.924	410.14
596.272	353.96
596.62	407.58
596.968	384.6
597.316	382.05
597.664	415.24
598.011	361.62
598.359	371.84
598.706	402.48
599.054	379.5
599.402	346.3
599.749	389.71
600.096	348.86
600.444	369.28
600.791	369.28
601.138	392.26
601.485	328.43
601.833	313.11
602.18	348.86
602.527	394.82
602.874	384.6
603.221	420.35
603.568	351.41
603.914	379.5
604.261	356.52
604.608	433.12
604.955	348.86
605.301	353.96
605.648	369.28
605.995	366.73
606.341	328.43
606.688	364.18
607.034	341.2
607.38	394.82
607.727	336.09
608.073	328.43
608.419	407.58
608.765	374.39
609.112	397.37
609.458	382.05
609.804	425.46
610.15	320.77
610.496	387.16
610.842	356.52
611.187	389.71
611.533	392.26
611.879	379.5
612.225	336.09
612.57	356.52
612.916	343.75
613.261	394.82
613.607	359.07
613.952	371.84
614.298	341.2
614.643	310.55
614.989	351.41
615.334	313.11
615.679	343.75
616.024	394.82
616.369	405.03
616.714	389.71
617.059	382.05
617.404	356.52
617.749	361.62
618.094	433.12
618.439	445.88
618.784	405.03
619.129	382.05
619.473	410.14
619.818	410.14
620.163	330.98
620.507	361.62
620.852	384.6
621.196	318.21
621.54	389.71
621.885	369.28
622.229	323.32
622.573	397.37
622.918	379.5
623.262	369.28
623.606	379.5
623.95	336.09
624.294	310.55
624.638	379.5
624.982	384.6
625.326	384.6
625.67	305.45
626.013	364.18
626.357	328.43
626.701	366.73
627.044	371.84
627.388	371.84
627.731	336.09
628.075	333.54
628.418	412.69
628.762	394.82
629.105	302.89
629.448	402.48
629.792	382.05
630.135	369.28
630.478	397.37
630.821	392.26
631.164	277.36
631.507	338.64
631.85	435.67
632.193	407.58
632.536	394.82
632.879	318.21
633.221	410.14
633.564	376.94
633.907	371.84
634.249	387.16
634.592	359.07
634.935	353.96
635.277	417.8
635.619	450.99
635.962	417.8
636.304	353.96
636.646	397.37
636.989	376.94
637.331	348.86
637.673	371.84
638.015	382.05
638.357	356.52
638.699	448.44
639.041	430.56
639.383	389.71
639.725	359.07
640.067	371.84
640.408	341.2
640.75	389.71
641.092	394.82
641.433	374.39
641.775	420.35
642.116	379.5
642.458	420.35
642.799	407.58
643.141	305.45
643.482	313.11
643.823	384.6
644.164	379.5
644.506	407.58
644.847	382.05
645.188	412.69
645.529	402.48
645.87	420.35
646.211	402.48
646.552	353.96
646.893	359.07
647.233	430.56
647.574	374.39
647.915	364.18
648.255	428.01
648.596	399.92
648.937	379.5
649.277	417.8
649.618	402.48
649.958	371.84
650.298	359.07
650.639	399.92
650.979	351.41
651.319	333.54
651.659	348.86
651.999	353.96
652.339	328.43
652.679	364.18
653.019	392.26
653.359	343.75
653.699	315.66
654.039	389.71
654.379	356.52
654.719	302.89
655.058	356.52
655.398	392.26
655.737	440.78
656.077	433.12
656.416	341.2
656.756	356.52
657.095	364.18
657.435	405.03
657.774	318.21
658.113	333.54
658.452	387.16
658.792	402.48
659.131	387.16
659.47	359.07
659.809	351.41
660.148	320.77
660.487	297.79
660.826	341.2
661.164	343.75
661.503	384.6
661.842	353.96
662.181	364.18
662.519	338.64
662.858	402.48
663.196	330.98
663.535	351.41
663.873	397.37
664.212	359.07
664.55	369.28
664.888	318.21
665.226	369.28
665.565	346.3
665.903	548.02
666.241	333.54
666.579	435.67
666.917	338.64
667.255	397.37
667.593	351.41
667.931	376.94
668.268	366.73
668.606	410.14
668.944	361.62
669.282	359.07
669.619	387.16
669.957	351.41
670.294	348.86
670.632	328.43
670.969	384.6
671.307	382.05
671.644	374.39
671.981	374.39
672.318	399.92
672.656	315.66
672.993	369.28
673.33	330.98
673.667	361.62
674.004	353.96
674.341	361.62
674.678	343.75
675.015	420.35
675.351	348.86
675.688	325.87
676.025	364.18
676.362	402.48
676.698	410.14
677.035	359.07
677.371	397.37
677.708	387.16
678.044	348.86
678.38	420.35
678.717	343.75
679.053	341.2
679.389	366.73
679.725	364.18
680.062	384.6
680.398	361.62
680.734	374.39
681.07	392.26
681.406	351.41
681.742	366.73
682.077	471.42
682.413	371.84
682.749	364.18
683.085	353.96
683.42	269.7
683.756	313.11
684.091	318.21
684.427	361.62
684.762	402.48
685.098	389.71
685.433	387.16
685.768	399.92
686.104	323.32
686.439	364.18
686.774	399.92
687.109	356.52
687.444	420.35
687.779	310.55
688.114	325.87
688.449	359.07
688.784	346.3
689.119	384.6
689.454	425.46
689.789	366.73
690.123	333.54
690.458	422.9
690.792	417.8
691.127	336.09
691.461	341.2
691.796	336.09
692.13	369.28
692.465	305.45
692.799	392.26
693.133	364.18
693.467	392.26
693.802	415.24
694.136	366.73
694.47	394.82
694.804	341.2
695.138	374.39
695.472	376.94
695.806	376.94
696.139	351.41
696.473	364.18
696.807	371.84
697.141	428.01
697.474	397.37
697.808	328.43
698.141	387.16
698.475	405.03
698.808	376.94
699.142	366.73
699.475	379.5
699.808	382.05
700.142	341.2
700.475	351.41
700.808	310.55
701.141	369.28
701.474	302.89
701.807	420.35
702.14	338.64
702.473	364.18
702.806	405.03
703.139	330.98
703.472	369.28
703.804	374.39
704.137	310.55
704.47	361.62
704.802	394.82
705.135	282.47
705.467	315.66
705.8	384.6
706.132	410.14
706.464	325.87
706.797	351.41
707.129	310.55
707.461	341.2
707.793	394.82
708.125	387.16
708.457	353.96
708.789	430.56
709.121	313.11
709.453	376.94
709.785	315.66
710.117	341.2
710.449	343.75
710.781	371.84
711.112	376.94
711.444	366.73
711.775	374.39
712.107	356.52
712.438	369.28
712.77	361.62
713.101	387.16
713.433	361.62
713.764	336.09
714.095	369.28
714.426	333.54
714.757	330.98
715.089	420.35
715.42	361.62
715.751	379.5
716.082	371.84
716.412	364.18
716.743	425.46
717.074	369.28
717.405	328.43
717.736	313.11
718.066	320.77
718.397	433.12
718.727	405.03
719.058	267.15
719.388	336.09
719.719	369.28
720.049	410.14
720.38	366.73
720.71	384.6
721.04	320.77
721.37	256.93
721.7	277.36
722.031	310.55
722.361	376.94
722.691	369.28
723.021	364.18
723.35	415.24
723.68	450.99
724.01	412.69
724.34	415.24
724.67	351.41
724.999	397.37
725.329	333.54
725.658	282.47
725.988	366.73
726.317	364.18
726.647	402.48
726.976	361.62
727.306	407.58
727.635	376.94
727.964	392.26
728.293	353.96
728.622	379.5
728.952	290.13
729.281	315.66
729.61	369.28
729.939	417.8
730.267	318.21
730.596	302.89
730.925	376.94
731.254	430.56
731.583	346.3
731.911	333.54
732.24	330.98
732.568	305.45
732.897	399.92
733.225	397.37
733.554	387.16
733.882	348.86
734.21	402.48
734.539	394.82
734.867	361.62
735.195	305.45
735.523	374.39
735.851	369.28
736.179	346.3
736.507	343.75
736.835	397.37
737.163	310.55
737.491	410.14
737.819	351.41
738.147	366.73
738.474	376.94
738.802	302.89
739.13	374.39
739.457	374.39
739.785	295.23
740.112	392.26
740.44	392.26
740.767	479.08
741.094	356.52
741.422	351.41
741.749	313.11
742.076	364.18
742.403	341.2
742.73	438.22
743.057	343.75
743.384	315.66
743.711	336.09
744.038	379.5
744.365	412.69
744.692	402.48
745.018	290.13
745.345	392.26
745.672	359.07
745.998	369.28
746.325	343.75
746.651	384.6
746.978	333.54
747.304	389.71
747.631	389.71
747.957	387.16
748.283	320.77
748.61	336.09
748.936	272.25
749.262	343.75
749.588	376.94
749.914	353.96
750.24	407.58
750.566	422.9
750.892	417.8
751.218	412.69
751.543	392.26
751.869	361.62
752.195	425.46
752.521	417.8
752.846	364.18
753.172	364.18
753.497	369.28
753.823	361.62
754.148	392.26
754.473	351.41
754.799	361.62
755.124	394.82
755.449	415.24
755.774	389.71
756.1	374.39
756.425	338.64
756.75	366.73
757.075	428.01
757.4	537.81
757.724	463.76
758.049	405.03
758.374	341.2
758.699	356.52
759.024	433.12
759.348	399.92
759.673	382.05
759.997	328.43
760.322	428.01
760.646	399.92
760.971	369.28
761.295	308
761.619	374.39
761.944	397.37
762.268	430.56
762.592	430.56
762.916	405.03
763.24	468.86
763.564	463.76
763.888	512.27
764.212	548.02
764.536	576.11
764.86	586.32
765.184	650.15
765.508	593.98
765.831	596.53
766.155	920.81
766.478	793.14
766.802	719.1
767.126	803.36
767.449	828.89
767.772	976.99
768.096	948.9
768.419	941.24
768.742	902.94
769.066	992.31
769.389	1061.25
769.712	1117.42
770.035	1109.76
770.358	1135.3
770.681	1273.18
771.004	1291.05
771.327	1222.11
771.65	1347.23
771.972	1436.59
772.295	1469.79
772.618	1446.81
772.941	1541.28
773.263	1495.32
773.586	1607.67
773.908	1694.49
774.231	1954.93
774.553	2006
774.875	2044.3
775.198	2049.41
775.52	2000.89
775.842	1952.38
776.164	1880.88
776.487	1983.02
776.809	2021.32
777.131	2067.28
777.453	1993.23
777.775	2003.44
778.096	2187.29
778.418	2179.63
778.74	2110.69
779.062	2187.29
779.384	2325.17
779.705	2621.36
780.027	2917.55
780.348	2833.29
780.67	2667.32
780.991	2889.47
781.313	3236.73
781.634	3389.93
781.955	3116.72
782.277	3055.44
782.598	3057.99
782.919	2960.96
783.24	3078.42
783.561	3086.08
783.882	3086.08
784.203	3121.82
784.524	3165.23
784.845	2994.15
785.166	2815.42
785.487	2846.06
785.807	2741.37
786.128	2777.12
786.449	2585.61
786.769	2838.4
787.09	2935.43
787.41	3116.72
787.731	3343.97
788.051	3601.86
788.372	3681.01
788.692	3852.09
789.012	4015.51
789.332	4046.15
789.653	4304.04
789.973	4454.69
790.293	4429.15
790.613	3918.48
790.933	3606.97
791.253	3331.2
791.573	3137.14
791.893	3093.74
792.212	2991.6
792.532	2856.27
792.852	2754.14
793.171	2600.93
793.491	2557.53
793.811	2526.89
794.13	2649.45
794.45	2705.62
794.769	2639.24
795.088	2871.59
795.408	3019.69
795.727	3203.53
796.046	2996.71
796.365	2907.34
796.684	2703.07
797.004	2552.42
797.323	2741.37
797.642	3096.29
797.96	3032.46
798.279	2976.28
798.598	2853.72
798.917	2820.53
799.236	2657.11
799.554	2455.39
799.873	2386.45
800.192	2284.32
800.51	2391.56
