Data from 2025-12-03_xpw_interference_micrometer_631_FLMS141361__79__629.txt Node

Date: Wed Dec 03 15:54:12 MST 2025
User: james
Spectrometer: FLMS14136
Trigger mode: 0
Integration Time (sec): 1.000000E-1
Scans to average: 1
Electric dark correction enabled: true
Nonlinearity correction enabled: false
Boxcar width: 0
XAxis mode: Wavelengths
Number of Pixels in Spectrum: 2048
>>>>>Begin Spectral Data<<<<<
339.315	-3.51
339.697	-3.51
340.079	-3.51
340.461	-110.75
340.843	-138.84
341.225	-126.07
341.607	-143.95
341.989	-115.86
342.371	-97.99
342.752	-23.94
343.134	-8.62
343.516	-67.35
343.897	47.56
344.279	22.02
344.661	-23.94
345.042	-21.38
345.423	57.77
345.805	98.62
346.186	142.03
346.567	144.59
346.949	116.5
347.33	159.91
347.711	226.29
348.092	223.74
348.473	223.74
348.854	195.65
349.235	287.57
349.616	330.98
349.997	341.2
350.378	351.41
350.758	330.98
351.139	428.01
351.52	318.21
351.9	282.47
352.281	374.39
352.661	343.75
353.042	351.41
353.422	387.16
353.803	379.5
354.183	384.6
354.563	425.46
354.943	410.14
355.324	330.98
355.704	346.3
356.084	343.75
356.464	348.86
356.844	356.52
357.224	364.18
357.603	341.2
357.983	348.86
358.363	407.58
358.743	336.09
359.122	415.24
359.502	461.2
359.882	417.8
360.261	402.48
360.641	356.52
361.02	318.21
361.399	402.48
361.779	325.87
362.158	338.64
362.537	351.41
362.916	336.09
363.296	364.18
363.675	320.77
364.054	356.52
364.433	318.21
364.812	305.45
365.19	384.6
365.569	353.96
365.948	397.37
366.327	300.34
366.705	356.52
367.084	308
367.463	389.71
367.841	341.2
368.22	353.96
368.598	341.2
368.977	351.41
369.355	402.48
369.733	323.32
370.111	364.18
370.49	374.39
370.868	353.96
371.246	394.82
371.624	359.07
372.002	364.18
372.38	364.18
372.758	338.64
373.136	318.21
373.513	387.16
373.891	399.92
374.269	394.82
374.646	320.77
375.024	346.3
375.402	361.62
375.779	376.94
376.157	348.86
376.534	328.43
376.911	346.3
377.289	374.39
377.666	330.98
378.043	269.7
378.42	361.62
378.797	310.55
379.175	313.11
379.552	405.03
379.929	348.86
380.305	323.32
380.682	353.96
381.059	323.32
381.436	379.5
381.813	387.16
382.189	272.25
382.566	389.71
382.943	359.07
383.319	371.84
383.696	310.55
384.072	348.86
384.448	392.26
384.825	346.3
385.201	425.46
385.577	379.5
385.953	356.52
386.329	369.28
386.706	382.05
387.082	435.67
387.458	402.48
387.834	361.62
388.209	366.73
388.585	364.18
388.961	323.32
389.337	338.64
389.713	399.92
390.088	376.94
390.464	405.03
390.839	394.82
391.215	412.69
391.59	341.2
391.966	346.3
392.341	364.18
392.716	343.75
393.092	379.5
393.467	430.56
393.842	336.09
394.217	343.75
394.592	420.35
394.967	325.87
395.342	417.8
395.717	295.23
396.092	323.32
396.467	336.09
396.841	351.41
397.216	392.26
397.591	330.98
397.965	379.5
398.34	305.45
398.714	389.71
399.089	348.86
399.463	430.56
399.838	392.26
400.212	387.16
400.586	382.05
400.961	361.62
401.335	382.05
401.709	379.5
402.083	305.45
402.457	338.64
402.831	353.96
403.205	394.82
403.579	407.58
403.953	341.2
404.326	336.09
404.7	405.03
405.074	399.92
405.447	351.41
405.821	379.5
406.195	387.16
406.568	318.21
406.942	438.22
407.315	353.96
407.688	402.48
408.062	366.73
408.435	361.62
408.808	387.16
409.181	425.46
409.554	348.86
409.927	479.08
410.3	379.5
410.673	325.87
411.046	338.64
411.419	407.58
411.792	300.34
412.165	371.84
412.537	315.66
412.91	387.16
413.283	356.52
413.655	430.56
414.028	420.35
414.4	382.05
414.773	407.58
415.145	392.26
415.517	346.3
415.889	346.3
416.262	364.18
416.634	371.84
417.006	389.71
417.378	376.94
417.75	356.52
418.122	343.75
418.494	410.14
418.866	382.05
419.238	361.62
419.609	473.97
419.981	369.28
420.353	438.22
420.725	364.18
421.096	399.92
421.468	389.71
421.839	433.12
422.211	453.54
422.582	379.5
422.953	433.12
423.325	387.16
423.696	399.92
424.067	405.03
424.438	371.84
424.809	348.86
425.18	382.05
425.551	407.58
425.922	379.5
426.293	369.28
426.664	412.69
427.035	440.78
427.406	382.05
427.776	366.73
428.147	417.8
428.518	471.42
428.888	371.84
429.259	374.39
429.629	453.54
429.999	422.9
430.37	366.73
430.74	353.96
431.11	374.39
431.481	348.86
431.851	394.82
432.221	351.41
432.591	369.28
432.961	333.54
433.331	371.84
433.701	399.92
434.071	343.75
434.441	468.86
434.81	348.86
435.18	405.03
435.55	336.09
435.919	359.07
436.289	371.84
436.658	397.37
437.028	399.92
437.397	458.65
437.767	489.29
438.136	405.03
438.505	458.65
438.875	300.34
439.244	473.97
439.613	351.41
439.982	292.68
440.351	351.41
440.72	353.96
441.089	394.82
441.458	364.18
441.827	374.39
442.196	415.24
442.564	522.48
442.933	405.03
443.302	415.24
443.67	405.03
444.039	353.96
444.407	382.05
444.776	445.88
445.144	394.82
445.513	430.56
445.881	466.31
446.249	440.78
446.617	394.82
446.986	348.86
447.354	443.33
447.722	420.35
448.09	351.41
448.458	415.24
448.826	422.9
449.194	435.67
449.561	361.62
449.929	394.82
450.297	476.52
450.665	461.2
451.032	364.18
451.4	415.24
451.767	399.92
452.135	384.6
452.502	412.69
452.87	374.39
453.237	364.18
453.604	366.73
453.971	394.82
454.339	359.07
454.706	379.5
455.073	420.35
455.44	417.8
455.807	420.35
456.174	438.22
456.541	412.69
456.908	417.8
457.274	412.69
457.641	371.84
458.008	392.26
458.374	364.18
458.741	448.44
459.108	456.1
459.474	405.03
459.841	415.24
460.207	466.31
460.573	341.2
460.94	410.14
461.306	374.39
461.672	430.56
462.038	333.54
462.404	410.14
462.771	402.48
463.137	440.78
463.503	422.9
463.868	405.03
464.234	382.05
464.6	318.21
464.966	412.69
465.332	450.99
465.697	353.96
466.063	450.99
466.429	361.62
466.794	430.56
467.16	453.54
467.525	364.18
467.89	397.37
468.256	384.6
468.621	330.98
468.986	440.78
469.351	394.82
469.717	479.08
470.082	410.14
470.447	379.5
470.812	458.65
471.177	420.35
471.542	407.58
471.906	443.33
472.271	407.58
472.636	346.3
473.001	402.48
473.365	438.22
473.73	430.56
474.094	356.52
474.459	376.94
474.823	420.35
475.188	397.37
475.552	392.26
475.917	402.48
476.281	443.33
476.645	361.62
477.009	463.76
477.373	435.67
477.737	430.56
478.101	384.6
478.465	430.56
478.829	394.82
479.193	353.96
479.557	361.62
479.921	389.71
480.284	473.97
480.648	425.46
481.012	405.03
481.375	343.75
481.739	422.9
482.102	379.5
482.466	394.82
482.829	527.59
483.193	384.6
483.556	389.71
483.919	366.73
484.282	399.92
484.645	384.6
485.009	415.24
485.372	402.48
485.735	417.8
486.098	422.9
486.46	328.43
486.823	389.71
487.186	394.82
487.549	407.58
487.912	420.35
488.274	361.62
488.637	412.69
488.999	430.56
489.362	382.05
489.724	371.84
490.087	389.71
490.449	405.03
490.811	371.84
491.174	359.07
491.536	399.92
491.898	468.86
492.26	318.21
492.622	379.5
492.984	448.44
493.346	407.58
493.708	397.37
494.07	392.26
494.432	356.52
494.794	402.48
495.155	371.84
495.517	412.69
495.879	405.03
496.24	361.62
496.602	430.56
496.963	353.96
497.325	394.82
497.686	415.24
498.048	445.88
498.409	433.12
498.77	384.6
499.131	445.88
499.492	450.99
499.854	359.07
500.215	415.24
500.576	364.18
500.937	343.75
501.298	341.2
501.658	361.62
502.019	430.56
502.38	456.1
502.741	430.56
503.101	405.03
503.462	430.56
503.823	382.05
504.183	384.6
504.543	376.94
504.904	384.6
505.264	371.84
505.625	420.35
505.985	425.46
506.345	402.48
506.705	425.46
507.065	415.24
507.426	376.94
507.786	440.78
508.146	415.24
508.505	369.28
508.865	471.42
509.225	351.41
509.585	484.18
509.945	410.14
510.304	473.97
510.664	438.22
511.024	369.28
511.383	410.14
511.743	346.3
512.102	343.75
512.462	422.9
512.821	371.84
513.18	351.41
513.539	392.26
513.899	384.6
514.258	405.03
514.617	389.71
514.976	374.39
515.335	420.35
515.694	440.78
516.053	425.46
516.412	371.84
516.771	415.24
517.129	320.77
517.488	397.37
517.847	405.03
518.205	445.88
518.564	461.2
518.922	456.1
519.281	397.37
519.639	333.54
519.998	348.86
520.356	479.08
520.714	399.92
521.073	310.55
521.431	364.18
521.789	443.33
522.147	371.84
522.505	438.22
522.863	384.6
523.221	410.14
523.579	374.39
523.937	343.75
524.295	376.94
524.652	379.5
525.01	392.26
525.368	399.92
525.725	374.39
526.083	443.33
526.44	351.41
526.798	364.18
527.155	387.16
527.513	399.92
527.87	389.71
528.227	415.24
528.584	420.35
528.942	428.01
529.299	397.37
529.656	407.58
530.013	364.18
530.37	366.73
530.727	453.54
531.083	489.29
531.44	397.37
531.797	394.82
532.154	433.12
532.511	359.07
532.867	402.48
533.224	351.41
533.58	410.14
533.937	445.88
534.293	489.29
534.65	496.95
535.006	410.14
535.362	397.37
535.718	410.14
536.075	336.09
536.431	415.24
536.787	310.55
537.143	407.58
537.499	392.26
537.855	325.87
538.211	405.03
538.567	410.14
538.923	376.94
539.278	425.46
539.634	371.84
539.99	369.28
540.345	382.05
540.701	422.9
541.056	456.1
541.412	394.82
541.767	412.69
542.123	379.5
542.478	338.64
542.833	430.56
543.188	445.88
543.544	379.5
543.899	463.76
544.254	356.52
544.609	356.52
544.964	405.03
545.319	473.97
545.674	420.35
546.029	376.94
546.383	438.22
546.738	415.24
547.093	425.46
547.447	417.8
547.802	433.12
548.157	443.33
548.511	405.03
548.866	461.2
549.22	382.05
549.574	415.24
549.929	430.56
550.283	389.71
550.637	428.01
550.991	420.35
551.345	445.88
551.699	417.8
552.053	417.8
552.407	412.69
552.761	402.48
553.115	410.14
553.469	412.69
553.823	407.58
554.176	410.14
554.53	471.42
554.884	438.22
555.237	721.65
555.591	453.54
555.944	402.48
556.298	387.16
556.651	448.44
557.005	394.82
557.358	384.6
557.711	405.03
558.064	356.52
558.417	417.8
558.771	537.81
559.124	430.56
559.477	364.18
559.83	361.62
560.182	320.77
560.535	379.5
560.888	382.05
561.241	405.03
561.594	379.5
561.946	364.18
562.299	325.87
562.651	425.46
563.004	410.14
563.356	387.16
563.709	369.28
564.061	356.52
564.413	308
564.766	371.84
565.118	397.37
565.47	376.94
565.822	407.58
566.174	376.94
566.526	374.39
566.878	392.26
567.23	397.37
567.582	371.84
567.934	325.87
568.286	359.07
568.638	384.6
568.989	341.2
569.341	415.24
569.693	382.05
570.044	336.09
570.396	399.92
570.747	430.56
571.098	445.88
571.45	440.78
571.801	412.69
572.152	443.33
572.504	407.58
572.855	405.03
573.206	433.12
573.557	491.84
573.908	405.03
574.259	366.73
574.61	440.78
574.961	405.03
575.311	443.33
575.662	379.5
576.013	422.9
576.364	443.33
576.714	410.14
577.065	338.64
577.415	382.05
577.766	410.14
578.116	399.92
578.467	356.52
578.817	417.8
579.167	394.82
579.518	438.22
579.868	341.2
580.218	361.62
580.568	392.26
580.918	394.82
581.268	463.76
581.618	394.82
581.968	348.86
582.318	405.03
582.668	394.82
583.017	389.71
583.367	415.24
583.717	463.76
584.066	343.75
584.416	343.75
584.765	438.22
585.115	384.6
585.464	466.31
585.814	333.54
586.163	379.5
586.512	351.41
586.862	430.56
587.211	374.39
587.56	389.71
587.909	433.12
588.258	359.07
588.607	382.05
588.956	364.18
589.305	402.48
589.654	399.92
590.002	443.33
590.351	374.39
590.7	364.18
591.048	364.18
591.397	422.9
591.746	348.86
592.094	384.6
592.443	379.5
592.791	435.67
593.139	435.67
593.488	397.37
593.836	338.64
594.184	382.05
594.532	369.28
594.88	502.06
595.228	376.94
595.576	366.73
595.924	359.07
596.272	387.16
596.62	382.05
596.968	366.73
597.316	366.73
597.664	351.41
598.011	351.41
598.359	399.92
598.706	402.48
599.054	371.84
599.402	369.28
599.749	415.24
600.096	428.01
600.444	399.92
600.791	405.03
601.138	402.48
601.485	338.64
601.833	330.98
602.18	382.05
602.527	415.24
602.874	348.86
603.221	371.84
603.568	435.67
603.914	425.46
604.261	389.71
604.608	412.69
604.955	364.18
605.301	394.82
605.648	430.56
605.995	382.05
606.341	374.39
606.688	364.18
607.034	425.46
607.38	422.9
607.727	440.78
608.073	384.6
608.419	405.03
608.765	369.28
609.112	374.39
609.458	422.9
609.804	405.03
610.15	420.35
610.496	346.3
610.842	384.6
611.187	405.03
611.533	359.07
611.879	376.94
612.225	402.48
612.57	394.82
612.916	379.5
613.261	407.58
613.607	371.84
613.952	394.82
614.298	389.71
614.643	443.33
614.989	361.62
615.334	379.5
615.679	384.6
616.024	382.05
616.369	343.75
616.714	384.6
617.059	392.26
617.404	450.99
617.749	471.42
618.094	369.28
618.439	415.24
618.784	440.78
619.129	494.4
619.473	397.37
619.818	412.69
620.163	359.07
620.507	320.77
620.852	389.71
621.196	433.12
621.54	399.92
621.885	290.13
622.229	343.75
622.573	402.48
622.918	466.31
623.262	392.26
623.606	384.6
623.95	359.07
624.294	374.39
624.638	425.46
624.982	399.92
625.326	379.5
625.67	397.37
626.013	420.35
626.357	384.6
626.701	366.73
627.044	468.86
627.388	438.22
627.731	417.8
628.075	359.07
628.418	428.01
628.762	376.94
629.105	387.16
629.448	356.52
629.792	371.84
630.135	417.8
630.478	382.05
630.821	402.48
631.164	433.12
631.507	318.21
631.85	392.26
632.193	384.6
632.536	343.75
632.879	369.28
633.221	366.73
633.564	384.6
633.907	369.28
634.249	415.24
634.592	443.33
634.935	407.58
635.277	353.96
635.619	392.26
635.962	405.03
636.304	415.24
636.646	382.05
636.989	394.82
637.331	440.78
637.673	394.82
638.015	369.28
638.357	364.18
638.699	399.92
639.041	366.73
639.383	353.96
639.725	412.69
640.067	389.71
640.408	366.73
640.75	417.8
641.092	394.82
641.433	353.96
641.775	387.16
642.116	341.2
642.458	392.26
642.799	394.82
643.141	405.03
643.482	366.73
643.823	425.46
644.164	405.03
644.506	496.95
644.847	410.14
645.188	443.33
645.529	379.5
645.87	430.56
646.211	369.28
646.552	392.26
646.893	425.46
647.233	417.8
647.574	412.69
647.915	325.87
648.255	359.07
648.596	369.28
648.937	376.94
649.277	364.18
649.618	412.69
649.958	433.12
650.298	448.44
650.639	433.12
650.979	338.64
651.319	384.6
651.659	415.24
651.999	336.09
652.339	359.07
652.679	433.12
653.019	450.99
653.359	394.82
653.699	438.22
654.039	376.94
654.379	389.71
654.719	422.9
655.058	384.6
655.398	458.65
655.737	453.54
656.077	376.94
656.416	435.67
656.756	430.56
657.095	397.37
657.435	359.07
657.774	387.16
658.113	384.6
658.452	417.8
658.792	417.8
659.131	402.48
659.47	412.69
659.809	410.14
660.148	422.9
660.487	412.69
660.826	369.28
661.164	318.21
661.503	371.84
661.842	420.35
662.181	338.64
662.519	417.8
662.858	422.9
663.196	405.03
663.535	366.73
663.873	315.66
664.212	356.52
664.55	364.18
664.888	369.28
665.226	412.69
665.565	376.94
665.903	606.75
666.241	425.46
666.579	330.98
666.917	369.28
667.255	320.77
667.593	415.24
667.931	364.18
668.268	415.24
668.606	325.87
668.944	343.75
669.282	394.82
669.619	374.39
669.957	348.86
670.294	428.01
670.632	399.92
670.969	425.46
671.307	379.5
671.644	417.8
671.981	417.8
672.318	422.9
672.656	410.14
672.993	438.22
673.33	366.73
673.667	433.12
674.004	369.28
674.341	376.94
674.678	392.26
675.015	382.05
675.351	369.28
675.688	433.12
676.025	397.37
676.362	384.6
676.698	415.24
677.035	417.8
677.371	430.56
677.708	387.16
678.044	399.92
678.38	338.64
678.717	402.48
679.053	392.26
679.389	407.58
679.725	387.16
680.062	412.69
680.398	435.67
680.734	348.86
681.07	397.37
681.406	402.48
681.742	435.67
682.077	415.24
682.413	407.58
682.749	402.48
683.085	394.82
683.42	430.56
683.756	461.2
684.091	392.26
684.427	415.24
684.762	389.71
685.098	356.52
685.433	422.9
685.768	374.39
686.104	379.5
686.439	387.16
686.774	392.26
687.109	430.56
687.444	415.24
687.779	397.37
688.114	392.26
688.449	379.5
688.784	412.69
689.119	389.71
689.454	356.52
689.789	420.35
690.123	371.84
690.458	435.67
690.792	494.4
691.127	448.44
691.461	330.98
691.796	410.14
692.13	374.39
692.465	399.92
692.799	433.12
693.133	389.71
693.467	422.9
693.802	430.56
694.136	422.9
694.47	364.18
694.804	479.08
695.138	420.35
695.472	366.73
695.806	338.64
696.139	379.5
696.473	376.94
696.807	361.62
697.141	376.94
697.474	428.01
697.808	407.58
698.141	356.52
698.475	308
698.808	433.12
699.142	417.8
699.475	376.94
699.808	417.8
700.142	397.37
700.475	410.14
700.808	366.73
701.141	417.8
701.474	407.58
701.807	422.9
702.14	453.54
702.473	376.94
702.806	346.3
703.139	341.2
703.472	445.88
703.804	374.39
704.137	397.37
704.47	412.69
704.802	343.75
705.135	338.64
705.467	384.6
705.8	433.12
706.132	389.71
706.464	445.88
706.797	351.41
707.129	379.5
707.461	435.67
707.793	351.41
708.125	466.31
708.457	364.18
708.789	382.05
709.121	348.86
709.453	369.28
709.785	435.67
710.117	389.71
710.449	384.6
710.781	356.52
711.112	387.16
711.444	369.28
711.775	361.62
712.107	405.03
712.438	412.69
712.77	392.26
713.101	361.62
713.433	394.82
713.764	384.6
714.095	343.75
714.426	435.67
714.757	425.46
715.089	364.18
715.42	450.99
715.751	374.39
716.082	364.18
716.412	389.71
716.743	430.56
717.074	392.26
717.405	415.24
717.736	379.5
718.066	336.09
718.397	361.62
718.727	379.5
719.058	399.92
719.388	417.8
719.719	407.58
720.049	445.88
720.38	412.69
720.71	463.76
721.04	433.12
721.37	382.05
721.7	405.03
722.031	435.67
722.361	425.46
722.691	399.92
723.021	466.31
723.35	394.82
723.68	313.11
724.01	389.71
724.34	341.2
724.67	338.64
724.999	394.82
725.329	369.28
725.658	463.76
725.988	415.24
726.317	402.48
726.647	379.5
726.976	382.05
727.306	348.86
727.635	359.07
727.964	399.92
728.293	402.48
728.622	353.96
728.952	371.84
729.281	320.77
729.61	422.9
729.939	399.92
730.267	323.32
730.596	374.39
730.925	338.64
731.254	440.78
731.583	453.54
731.911	359.07
732.24	379.5
732.568	417.8
732.897	417.8
733.225	394.82
733.554	397.37
733.882	407.58
734.21	371.84
734.539	428.01
734.867	415.24
735.195	428.01
735.523	407.58
735.851	389.71
736.179	417.8
736.507	364.18
736.835	371.84
737.163	336.09
737.491	361.62
737.819	412.69
738.147	374.39
738.474	440.78
738.802	443.33
739.13	415.24
739.457	415.24
739.785	471.42
740.112	361.62
740.44	450.99
740.767	364.18
741.094	394.82
741.422	433.12
741.749	405.03
742.076	356.52
742.403	348.86
742.73	415.24
743.057	420.35
743.384	333.54
743.711	428.01
744.038	428.01
744.365	496.95
744.692	443.33
745.018	445.88
745.345	376.94
745.672	366.73
745.998	435.67
746.325	425.46
746.651	359.07
746.978	387.16
747.304	371.84
747.631	359.07
747.957	410.14
748.283	371.84
748.61	366.73
748.936	394.82
749.262	407.58
749.588	346.3
749.914	353.96
750.24	392.26
750.566	399.92
750.892	356.52
751.218	402.48
751.543	374.39
751.869	369.28
752.195	376.94
752.521	376.94
752.846	348.86
753.172	394.82
753.497	376.94
753.823	402.48
754.148	387.16
754.473	433.12
754.799	456.1
755.124	402.48
755.449	435.67
755.774	402.48
756.1	389.71
756.425	338.64
756.75	394.82
757.075	405.03
757.4	532.7
757.724	392.26
758.049	417.8
758.374	353.96
758.699	420.35
759.024	392.26
759.348	338.64
759.673	428.01
759.997	435.67
760.322	417.8
760.646	456.1
760.971	417.8
761.295	397.37
761.619	420.35
761.944	443.33
762.268	471.42
762.592	443.33
762.916	504.61
763.24	550.57
763.564	542.91
763.888	637.39
764.212	696.11
764.536	762.5
764.86	739.52
765.184	795.7
765.508	757.4
765.831	703.77
766.155	1022.95
766.478	777.82
766.802	780.38
767.126	770.16
767.449	719.1
767.772	662.92
768.096	693.56
768.419	609.3
768.742	512.27
769.066	512.27
769.389	637.39
769.712	591.43
770.035	660.37
770.358	790.59
770.681	979.54
771.004	1140.4
771.327	1331.91
771.65	1421.27
771.972	1661.29
772.295	1985.57
772.618	2330.28
772.941	2697.96
773.263	2935.43
773.586	3366.95
773.908	3698.89
774.231	3635.05
774.553	3706.55
774.875	3790.81
775.198	3954.23
775.52	3548.24
775.842	3446.1
776.164	3139.7
776.487	2925.21
776.809	2802.65
777.131	2718.39
777.453	2468.16
777.775	2304.74
778.096	2018.76
778.418	1712.36
778.74	1423.83
779.062	1171.04
779.384	1068.91
779.705	956.56
780.027	910.6
780.348	1028.05
780.67	1074.01
780.991	1314.03
781.313	1697.04
781.634	2113.24
781.955	2539.65
782.277	2894.57
782.598	3525.26
782.919	3818.9
783.24	4176.37
783.561	4827.48
783.882	5123.67
784.203	5381.56
784.524	5509.23
784.845	5550.09
785.166	5915.22
785.487	6451.43
785.807	6714.43
786.128	6502.5
786.449	6379.93
786.769	6070.98
787.09	6037.78
787.41	5971.39
787.731	6282.91
788.051	6150.13
788.372	5966.29
788.692	5356.03
789.012	4909.19
789.332	4125.3
789.653	3711.65
789.973	3410.36
790.293	2820.53
790.613	2044.3
790.933	1806.83
791.253	1497.88
791.573	1097
791.893	1015.29
792.212	913.15
792.532	913.15
792.852	1058.69
793.171	1237.43
793.491	1569.37
793.811	2080.05
794.13	2626.47
794.45	2989.05
794.769	3379.71
795.088	4051.25
795.408	4556.82
795.727	5647.11
796.046	6762.94
796.365	7766.42
796.684	7973.24
797.004	8026.86
797.323	8266.88
797.642	9456.75
797.96	9106.94
798.279	8785.22
798.598	8506.9
798.917	8744.36
799.236	8164.75
799.554	8095.8
799.873	7245.53
800.192	7107.65
800.51	6714.43
800.829	6165.45
801.147	5460.72
