Data from 2025-12-03_xpw_interference_micrometer_631_FLMS141361__60__610.txt Node

Date: Wed Dec 03 15:54:10 MST 2025
User: james
Spectrometer: FLMS14136
Trigger mode: 0
Integration Time (sec): 1.000000E-1
Scans to average: 1
Electric dark correction enabled: true
Nonlinearity correction enabled: false
Boxcar width: 0
XAxis mode: Wavelengths
Number of Pixels in Spectrum: 2048
>>>>>Begin Spectral Data<<<<<
339.315	-53.78
339.697	-53.78
340.079	-53.78
340.461	-25.69
340.843	-117.61
341.225	-132.94
341.607	-76.76
341.989	-109.95
342.371	-104.85
342.752	-74.21
343.134	-15.48
343.516	12.61
343.897	-18.03
344.279	-10.37
344.661	61.12
345.042	-28.25
345.423	94.32
345.805	38.14
346.186	45.8
346.567	142.83
346.949	176.02
347.33	130.06
347.711	219.43
348.092	221.98
348.473	219.43
348.854	267.95
349.235	280.71
349.616	390.51
349.997	316.46
350.378	303.69
350.758	324.12
351.139	319.01
351.52	303.69
351.9	403.27
352.281	362.42
352.661	341.99
353.042	349.65
353.422	418.59
353.803	441.57
354.183	416.04
354.563	416.04
354.943	421.15
355.324	403.27
355.704	421.15
356.084	464.56
356.464	474.77
356.844	400.72
357.224	364.97
357.603	349.65
357.983	405.83
358.363	482.43
358.743	431.36
359.122	444.13
359.502	462
359.882	428.81
360.261	472.22
360.641	426.25
361.02	380.29
361.399	416.04
361.779	393.06
362.158	405.83
362.537	382.85
362.916	395.61
363.296	357.31
363.675	400.72
364.054	352.21
364.433	364.97
364.812	398.17
365.19	357.31
365.569	339.44
365.948	334.33
366.327	413.49
366.705	393.06
367.084	357.31
367.463	339.44
367.841	408.38
368.22	421.15
368.598	375.19
368.977	331.78
369.355	370.08
369.733	280.71
370.111	349.65
370.49	454.34
370.868	431.36
371.246	359.87
371.624	364.97
372.002	344.55
372.38	359.87
372.758	436.47
373.136	410.93
373.513	423.7
373.891	403.27
374.269	416.04
374.646	382.85
375.024	395.61
375.402	354.76
375.779	385.4
376.157	341.99
376.534	359.87
376.911	341.99
377.289	352.21
377.666	357.31
378.043	410.93
378.42	416.04
378.797	395.61
379.175	436.47
379.552	398.17
379.929	359.87
380.305	352.21
380.682	398.17
381.059	449.23
381.436	393.06
381.813	313.91
382.189	400.72
382.566	403.27
382.943	408.38
383.319	390.51
383.696	357.31
384.072	339.44
384.448	380.29
384.825	362.42
385.201	349.65
385.577	306.25
385.953	339.44
386.329	334.33
386.706	400.72
387.082	405.83
387.458	423.7
387.834	354.76
388.209	352.21
388.585	370.08
388.961	326.67
389.337	349.65
389.713	377.74
390.088	364.97
390.464	319.01
390.839	367.53
391.215	405.83
391.59	408.38
391.966	393.06
392.341	421.15
392.716	398.17
393.092	413.49
393.467	449.23
393.842	370.08
394.217	416.04
394.592	362.42
394.967	462
395.342	454.34
395.717	359.87
396.092	474.77
396.467	482.43
396.841	426.25
397.216	375.19
397.591	456.9
397.965	421.15
398.34	364.97
398.714	408.38
399.089	428.81
399.463	428.81
399.838	370.08
400.212	403.27
400.586	454.34
400.961	418.59
401.335	398.17
401.709	472.22
402.083	410.93
402.457	462
402.831	403.27
403.205	377.74
403.579	380.29
403.953	364.97
404.326	405.83
404.7	395.61
405.074	393.06
405.447	400.72
405.821	372.63
406.195	444.13
406.568	490.09
406.942	467.11
407.315	400.72
407.688	354.76
408.062	370.08
408.435	433.91
408.808	464.56
409.181	451.79
409.554	464.56
409.927	385.4
410.3	390.51
410.673	421.15
411.046	446.68
411.419	431.36
411.792	439.02
412.165	400.72
412.537	375.19
412.91	413.49
413.283	380.29
413.655	341.99
414.028	390.51
414.4	387.95
414.773	400.72
415.145	421.15
415.517	385.4
415.889	375.19
416.262	393.06
416.634	385.4
417.006	370.08
417.378	387.95
417.75	439.02
418.122	370.08
418.494	428.81
418.866	477.32
419.238	408.38
419.609	418.59
419.981	390.51
420.353	372.63
420.725	372.63
421.096	495.2
421.468	459.45
421.839	421.15
422.211	385.4
422.582	400.72
422.953	334.33
423.325	367.53
423.696	395.61
424.067	423.7
424.438	456.9
424.809	408.38
425.18	352.21
425.551	474.77
425.922	405.83
426.293	418.59
426.664	387.95
427.035	487.54
427.406	431.36
427.776	418.59
428.147	474.77
428.518	423.7
428.888	423.7
429.259	456.9
429.629	444.13
429.999	405.83
430.37	359.87
430.74	410.93
431.11	372.63
431.481	395.61
431.851	382.85
432.221	410.93
432.591	467.11
432.961	416.04
433.331	449.23
433.701	441.57
434.071	354.76
434.441	403.27
434.81	403.27
435.18	377.74
435.55	431.36
435.919	418.59
436.289	431.36
436.658	456.9
437.028	495.2
437.397	431.36
437.767	377.74
438.136	410.93
438.505	382.85
438.875	436.47
439.244	410.93
439.613	433.91
439.982	405.83
440.351	426.25
440.72	428.81
441.089	390.51
441.458	390.51
441.827	484.98
442.196	439.02
442.564	474.77
442.933	467.11
443.302	395.61
443.67	395.61
444.039	341.99
444.407	451.79
444.776	515.62
445.144	393.06
445.513	428.81
445.881	375.19
446.249	416.04
446.617	405.83
446.986	467.11
447.354	377.74
447.722	449.23
448.09	479.88
448.458	454.34
448.826	525.84
449.194	423.7
449.561	423.7
449.929	393.06
450.297	400.72
450.665	416.04
451.032	431.36
451.4	395.61
451.767	462
452.135	380.29
452.502	403.27
452.87	410.93
453.237	490.09
453.604	410.93
453.971	390.51
454.339	421.15
454.706	405.83
455.073	449.23
455.44	354.76
455.807	467.11
456.174	426.25
456.541	444.13
456.908	433.91
457.274	433.91
457.641	398.17
458.008	439.02
458.374	436.47
458.741	410.93
459.108	446.68
459.474	393.06
459.841	433.91
460.207	439.02
460.573	451.79
460.94	398.17
461.306	472.22
461.672	426.25
462.038	428.81
462.404	380.29
462.771	433.91
463.137	370.08
463.503	393.06
463.868	439.02
464.234	436.47
464.6	513.07
464.966	421.15
465.332	410.93
465.697	413.49
466.063	433.91
466.429	502.86
466.794	421.15
467.16	436.47
467.525	462
467.89	395.61
468.256	426.25
468.621	436.47
468.986	433.91
469.351	421.15
469.717	372.63
470.082	408.38
470.447	408.38
470.812	421.15
471.177	472.22
471.542	416.04
471.906	382.85
472.271	403.27
472.636	456.9
473.001	441.57
473.365	403.27
473.73	436.47
474.094	436.47
474.459	408.38
474.823	375.19
475.188	410.93
475.552	439.02
475.917	413.49
476.281	449.23
476.645	423.7
477.009	482.43
477.373	403.27
477.737	410.93
478.101	474.77
478.465	400.72
478.829	426.25
479.193	472.22
479.557	487.54
479.921	436.47
480.284	467.11
480.648	398.17
481.012	426.25
481.375	449.23
481.739	439.02
482.102	331.78
482.466	464.56
482.829	449.23
483.193	444.13
483.556	408.38
483.919	441.57
484.282	451.79
484.645	454.34
485.009	416.04
485.372	464.56
485.735	385.4
486.098	385.4
486.46	375.19
486.823	403.27
487.186	354.76
487.549	444.13
487.912	377.74
488.274	433.91
488.637	395.61
488.999	428.81
489.362	487.54
489.724	408.38
490.087	410.93
490.449	433.91
490.811	398.17
491.174	459.45
491.536	433.91
491.898	472.22
492.26	467.11
492.622	413.49
492.984	403.27
493.346	416.04
493.708	451.79
494.07	428.81
494.432	462
494.794	421.15
495.155	490.09
495.517	441.57
495.879	372.63
496.24	441.57
496.602	451.79
496.963	479.88
497.325	441.57
497.686	446.68
498.048	462
498.409	431.36
498.77	367.53
499.131	410.93
499.492	449.23
499.854	431.36
500.215	395.61
500.576	459.45
500.937	446.68
501.298	449.23
501.658	446.68
502.019	413.49
502.38	413.49
502.741	449.23
503.101	439.02
503.462	449.23
503.823	416.04
504.183	492.64
504.543	439.02
504.904	444.13
505.264	398.17
505.625	393.06
505.985	492.64
506.345	469.66
506.705	416.04
507.065	398.17
507.426	400.72
507.786	421.15
508.146	444.13
508.505	428.81
508.865	454.34
509.225	446.68
509.585	528.39
509.945	502.86
510.304	484.98
510.664	395.61
511.024	464.56
511.383	495.2
511.743	446.68
512.102	482.43
512.462	398.17
512.821	410.93
513.18	380.29
513.539	464.56
513.899	395.61
514.258	428.81
514.617	451.79
514.976	410.93
515.335	400.72
515.694	464.56
516.053	433.91
516.412	390.51
516.771	416.04
517.129	421.15
517.488	416.04
517.847	436.47
518.205	451.79
518.564	469.66
518.922	395.61
519.281	449.23
519.639	418.59
519.998	436.47
520.356	474.77
520.714	444.13
521.073	377.74
521.431	444.13
521.789	444.13
522.147	410.93
522.505	477.32
522.863	444.13
523.221	441.57
523.579	385.4
523.937	395.61
524.295	408.38
524.652	472.22
525.01	487.54
525.368	413.49
525.725	418.59
526.083	428.81
526.44	456.9
526.798	418.59
527.155	451.79
527.513	408.38
527.87	387.95
528.227	484.98
528.584	464.56
528.942	456.9
529.299	428.81
529.656	428.81
530.013	421.15
530.37	400.72
530.727	449.23
531.083	439.02
531.44	408.38
531.797	472.22
532.154	359.87
532.511	352.21
532.867	428.81
533.224	464.56
533.58	410.93
533.937	436.47
534.293	431.36
534.65	469.66
535.006	482.43
535.362	416.04
535.718	418.59
536.075	477.32
536.431	413.49
536.787	395.61
537.143	433.91
537.499	454.34
537.855	495.2
538.211	482.43
538.567	398.17
538.923	410.93
539.278	441.57
539.634	421.15
539.99	472.22
540.345	464.56
540.701	462
541.056	467.11
541.412	446.68
541.767	426.25
542.123	385.4
542.478	431.36
542.833	454.34
543.188	433.91
543.544	439.02
543.899	433.91
544.254	380.29
544.609	416.04
544.964	421.15
545.319	479.88
545.674	410.93
546.029	436.47
546.383	423.7
546.738	395.61
547.093	439.02
547.447	400.72
547.802	418.59
548.157	446.68
548.511	469.66
548.866	484.98
549.22	390.51
549.574	433.91
549.929	428.81
550.283	444.13
550.637	462
550.991	400.72
551.345	421.15
551.699	469.66
552.053	426.25
552.407	405.83
552.761	375.19
553.115	370.08
553.469	382.85
553.823	423.7
554.176	382.85
554.53	382.85
554.884	405.83
555.237	620.31
555.591	395.61
555.944	518.18
556.298	400.72
556.651	433.91
557.005	403.27
557.358	454.34
557.711	474.77
558.064	405.83
558.417	426.25
558.771	533.5
559.124	436.47
559.477	462
559.83	444.13
560.182	433.91
560.535	487.54
560.888	495.2
561.241	421.15
561.594	431.36
561.946	416.04
562.299	449.23
562.651	400.72
563.004	462
563.356	380.29
563.709	469.66
564.061	423.7
564.413	410.93
564.766	431.36
565.118	487.54
565.47	459.45
565.822	421.15
566.174	370.08
566.526	405.83
566.878	408.38
567.23	505.41
567.582	416.04
567.934	472.22
568.286	474.77
568.638	347.1
568.989	426.25
569.341	403.27
569.693	400.72
570.044	390.51
570.396	449.23
570.747	444.13
571.098	441.57
571.45	462
571.801	436.47
572.152	439.02
572.504	410.93
572.855	421.15
573.206	359.87
573.557	418.59
573.908	433.91
574.259	426.25
574.61	462
574.961	364.97
575.311	418.59
575.662	502.86
576.013	428.81
576.364	456.9
576.714	474.77
577.065	439.02
577.415	421.15
577.766	413.49
578.116	454.34
578.467	426.25
578.817	439.02
579.167	410.93
579.518	400.72
579.868	451.79
580.218	459.45
580.568	505.41
580.918	451.79
581.268	451.79
581.618	426.25
581.968	341.99
582.318	410.93
582.668	451.79
583.017	405.83
583.367	428.81
583.717	477.32
584.066	477.32
584.416	446.68
584.765	439.02
585.115	433.91
585.464	387.95
585.814	464.56
586.163	423.7
586.512	495.2
586.862	395.61
587.211	423.7
587.56	472.22
587.909	400.72
588.258	538.6
588.607	428.81
588.956	421.15
589.305	553.92
589.654	416.04
590.002	428.81
590.351	423.7
590.7	462
591.048	451.79
591.397	372.63
591.746	449.23
592.094	416.04
592.443	456.9
592.791	410.93
593.139	456.9
593.488	423.7
593.836	479.88
594.184	413.49
594.532	410.93
594.88	510.52
595.228	426.25
595.576	372.63
595.924	400.72
596.272	410.93
596.62	377.74
596.968	413.49
597.316	456.9
597.664	410.93
598.011	467.11
598.359	393.06
598.706	441.57
599.054	418.59
599.402	451.79
599.749	444.13
600.096	431.36
600.444	451.79
600.791	408.38
601.138	390.51
601.485	400.72
601.833	410.93
602.18	456.9
602.527	387.95
602.874	451.79
603.221	467.11
603.568	472.22
603.914	515.62
604.261	423.7
604.608	467.11
604.955	413.49
605.301	421.15
605.648	441.57
605.995	472.22
606.341	439.02
606.688	405.83
607.034	426.25
607.38	456.9
607.727	441.57
608.073	459.45
608.419	454.34
608.765	459.45
609.112	398.17
609.458	441.57
609.804	444.13
610.15	472.22
610.496	387.95
610.842	439.02
611.187	451.79
611.533	426.25
611.879	400.72
612.225	444.13
612.57	459.45
612.916	487.54
613.261	423.7
613.607	477.32
613.952	462
614.298	393.06
614.643	403.27
614.989	446.68
615.334	413.49
615.679	446.68
616.024	431.36
616.369	441.57
616.714	449.23
617.059	395.61
617.404	382.85
617.749	451.79
618.094	513.07
618.439	464.56
618.784	398.17
619.129	436.47
619.473	421.15
619.818	456.9
620.163	385.4
620.507	433.91
620.852	408.38
621.196	385.4
621.54	423.7
621.885	469.66
622.229	421.15
622.573	484.98
622.918	367.53
623.262	462
623.606	454.34
623.95	426.25
624.294	436.47
624.638	393.06
624.982	456.9
625.326	482.43
625.67	474.77
626.013	459.45
626.357	472.22
626.701	413.49
627.044	426.25
627.388	477.32
627.731	439.02
628.075	456.9
628.418	436.47
628.762	408.38
629.105	418.59
629.448	408.38
629.792	413.49
630.135	490.09
630.478	377.74
630.821	510.52
631.164	398.17
631.507	446.68
631.85	393.06
632.193	428.81
632.536	428.81
632.879	454.34
633.221	347.1
633.564	426.25
633.907	479.88
634.249	449.23
634.592	446.68
634.935	433.91
635.277	423.7
635.619	418.59
635.962	439.02
636.304	439.02
636.646	416.04
636.989	364.97
637.331	372.63
637.673	469.66
638.015	418.59
638.357	393.06
638.699	408.38
639.041	436.47
639.383	423.7
639.725	459.45
640.067	385.4
640.408	398.17
640.75	418.59
641.092	426.25
641.433	454.34
641.775	510.52
642.116	418.59
642.458	423.7
642.799	403.27
643.141	436.47
643.482	352.21
643.823	341.99
644.164	344.55
644.506	507.96
644.847	464.56
645.188	375.19
645.529	416.04
645.87	387.95
646.211	439.02
646.552	426.25
646.893	439.02
647.233	439.02
647.574	408.38
647.915	341.99
648.255	408.38
648.596	367.53
648.937	454.34
649.277	459.45
649.618	416.04
649.958	418.59
650.298	454.34
650.639	416.04
650.979	418.59
651.319	336.89
651.659	459.45
651.999	410.93
652.339	428.81
652.679	418.59
653.019	449.23
653.359	372.63
653.699	364.97
654.039	418.59
654.379	459.45
654.719	408.38
655.058	395.61
655.398	423.7
655.737	520.73
656.077	418.59
656.416	377.74
656.756	428.81
657.095	416.04
657.435	372.63
657.774	382.85
658.113	377.74
658.452	357.31
658.792	341.99
659.131	426.25
659.47	421.15
659.809	377.74
660.148	367.53
660.487	431.36
660.826	454.34
661.164	395.61
661.503	408.38
661.842	413.49
662.181	405.83
662.519	507.96
662.858	423.7
663.196	387.95
663.535	456.9
663.873	382.85
664.212	459.45
664.55	446.68
664.888	372.63
665.226	403.27
665.565	436.47
665.903	648.4
666.241	398.17
666.579	426.25
666.917	370.08
667.255	413.49
667.593	426.25
667.931	449.23
668.268	403.27
668.606	385.4
668.944	390.51
669.282	387.95
669.619	398.17
669.957	446.68
670.294	387.95
670.632	426.25
670.969	439.02
671.307	387.95
671.644	398.17
671.981	439.02
672.318	469.66
672.656	413.49
672.993	418.59
673.33	479.88
673.667	393.06
674.004	387.95
674.341	385.4
674.678	382.85
675.015	449.23
675.351	451.79
675.688	490.09
676.025	449.23
676.362	462
676.698	433.91
677.035	467.11
677.371	403.27
677.708	500.3
678.044	385.4
678.38	487.54
678.717	439.02
679.053	375.19
679.389	428.81
679.725	418.59
680.062	454.34
680.398	439.02
680.734	490.09
681.07	428.81
681.406	357.31
681.742	395.61
682.077	398.17
682.413	428.81
682.749	362.42
683.085	362.42
683.42	377.74
683.756	449.23
684.091	464.56
684.427	456.9
684.762	405.83
685.098	495.2
685.433	398.17
685.768	390.51
686.104	377.74
686.439	439.02
686.774	446.68
687.109	459.45
687.444	482.43
687.779	398.17
688.114	469.66
688.449	454.34
688.784	377.74
689.119	375.19
689.454	459.45
689.789	428.81
690.123	462
690.458	413.49
690.792	439.02
691.127	403.27
691.461	398.17
691.796	416.04
692.13	405.83
692.465	439.02
692.799	436.47
693.133	393.06
693.467	444.13
693.802	418.59
694.136	474.77
694.47	479.88
694.804	431.36
695.138	426.25
695.472	408.38
695.806	416.04
696.139	398.17
696.473	416.04
696.807	464.56
697.141	357.31
697.474	382.85
697.808	413.49
698.141	336.89
698.475	405.83
698.808	433.91
699.142	456.9
699.475	431.36
699.808	357.31
700.142	357.31
700.475	400.72
700.808	403.27
701.141	436.47
701.474	459.45
701.807	413.49
702.14	462
702.473	441.57
702.806	449.23
703.139	423.7
703.472	446.68
703.804	416.04
704.137	451.79
704.47	449.23
704.802	380.29
705.135	347.1
705.467	367.53
705.8	410.93
706.132	479.88
706.464	446.68
706.797	331.78
707.129	423.7
707.461	385.4
707.793	439.02
708.125	444.13
708.457	375.19
708.789	370.08
709.121	449.23
709.453	413.49
709.785	410.93
710.117	454.34
710.449	467.11
710.781	352.21
711.112	436.47
711.444	446.68
711.775	426.25
712.107	403.27
712.438	410.93
712.77	439.02
713.101	398.17
713.433	398.17
713.764	456.9
714.095	405.83
714.426	372.63
714.757	398.17
715.089	413.49
715.42	479.88
715.751	377.74
716.082	451.79
716.412	464.56
716.743	462
717.074	490.09
717.405	495.2
717.736	441.57
718.066	364.97
718.397	400.72
718.727	428.81
719.058	400.72
719.388	431.36
719.719	484.98
720.049	507.96
720.38	382.85
720.71	421.15
721.04	416.04
721.37	487.54
721.7	433.91
722.031	405.83
722.361	441.57
722.691	393.06
723.021	428.81
723.35	426.25
723.68	403.27
724.01	482.43
724.34	482.43
724.67	347.1
724.999	418.59
725.329	364.97
725.658	456.9
725.988	451.79
726.317	382.85
726.647	408.38
726.976	433.91
727.306	444.13
727.635	436.47
727.964	436.47
728.293	500.3
728.622	390.51
728.952	395.61
729.281	490.09
729.61	393.06
729.939	387.95
730.267	436.47
730.596	423.7
730.925	418.59
731.254	431.36
731.583	352.21
731.911	393.06
732.24	441.57
732.568	423.7
732.897	375.19
733.225	380.29
733.554	431.36
733.882	467.11
734.21	354.76
734.539	398.17
734.867	416.04
735.195	431.36
735.523	423.7
735.851	444.13
736.179	418.59
736.507	377.74
736.835	436.47
737.163	385.4
737.491	364.97
737.819	398.17
738.147	408.38
738.474	413.49
738.802	479.88
739.13	433.91
739.457	428.81
739.785	367.53
740.112	380.29
740.44	479.88
740.767	477.32
741.094	428.81
741.422	393.06
741.749	431.36
742.076	398.17
742.403	413.49
742.73	464.56
743.057	380.29
743.384	390.51
743.711	413.49
744.038	451.79
744.365	446.68
744.692	354.76
745.018	426.25
745.345	416.04
745.672	431.36
745.998	459.45
746.325	505.41
746.651	393.06
746.978	347.1
747.304	395.61
747.631	469.66
747.957	364.97
748.283	441.57
748.61	505.41
748.936	454.34
749.262	439.02
749.588	367.53
749.914	395.61
750.24	349.65
750.566	405.83
750.892	418.59
751.218	428.81
751.543	393.06
751.869	462
752.195	433.91
752.521	428.81
752.846	403.27
753.172	467.11
753.497	390.51
753.823	385.4
754.148	418.59
754.473	349.65
754.799	403.27
755.124	375.19
755.449	393.06
755.774	433.91
756.1	410.93
756.425	410.93
756.75	331.78
757.075	421.15
757.4	543.71
757.724	467.11
758.049	497.75
758.374	472.22
758.699	482.43
759.024	441.57
759.348	433.91
759.673	423.7
759.997	364.97
760.322	462
760.646	359.87
760.971	472.22
761.295	426.25
761.619	459.45
761.944	400.72
762.268	487.54
762.592	518.18
762.916	530.94
763.24	546.26
763.564	661.17
763.888	633.08
764.212	704.57
764.536	673.93
764.86	737.77
765.184	822.03
765.508	776.07
765.831	811.81
766.155	1087.58
766.478	1018.64
766.802	845.01
767.126	770.96
767.449	845.01
767.772	773.51
768.096	781.17
768.419	709.68
768.742	707.13
769.066	633.08
769.389	612.65
769.712	589.67
770.035	676.49
770.358	778.62
770.681	919.06
771.004	1082.47
771.327	1210.14
771.65	1345.47
771.972	1544.63
772.295	1914.87
772.618	2308.09
772.941	2622.16
773.263	2757.49
773.586	3214.54
773.908	3536.27
774.231	3554.14
774.553	3554.14
774.875	3758.41
775.198	3921.83
775.52	3679.26
775.842	3467.33
776.164	3120.07
776.487	3007.72
776.809	2823.88
777.131	2851.96
777.453	2504.7
777.775	2366.82
778.096	2259.58
778.418	1988.92
778.74	1641.66
779.062	1340.36
779.384	1286.74
779.705	1110.56
780.027	1067.15
780.348	1036.51
780.67	1141.2
780.991	1434.84
781.313	1685.07
781.634	2070.63
781.955	2443.42
782.277	3104.75
782.598	3495.41
782.919	3753.31
783.24	4192.49
783.561	4644.44
783.882	5086.17
784.203	5410.45
784.524	5553.44
784.845	5599.4
785.166	5862.4
785.487	6531.38
785.807	6679.48
786.128	6577.34
786.449	6544.15
786.769	6189.23
787.09	6156.03
787.41	6378.18
787.731	6495.63
788.051	6352.64
788.372	6204.55
788.692	5821.54
789.012	5277.67
789.332	4544.85
789.653	4233.34
789.973	3776.29
790.293	3222.2
790.613	2445.98
790.933	2037.44
791.253	1728.48
791.573	1368.45
791.893	1115.67
792.212	916.5
792.532	942.04
792.852	1003.32
793.171	1164.18
793.491	1565.06
793.811	2073.18
794.13	2479.17
794.45	2862.18
794.769	3482.65
795.088	4072.48
795.408	4575.49
795.727	5862.4
796.046	6901.62
796.365	8083.84
796.684	8094.05
797.004	8119.58
797.323	8574.08
797.642	9672.04
797.96	9511.17
798.279	9107.74
798.598	8860.06
798.917	8913.68
799.236	8502.59
799.554	8214.06
799.873	7802.96
800.192	7351.02
800.51	6934.82
800.829	6498.19
