Data from 2025-12-03_xpw_interference_micrometer_631_FLMS141361__63__613.txt Node

Date: Wed Dec 03 15:54:10 MST 2025
User: james
Spectrometer: FLMS14136
Trigger mode: 0
Integration Time (sec): 1.000000E-1
Scans to average: 1
Electric dark correction enabled: true
Nonlinearity correction enabled: false
Boxcar width: 0
XAxis mode: Wavelengths
Number of Pixels in Spectrum: 2048
>>>>>Begin Spectral Data<<<<<
339.315	-51.39
339.697	-51.39
340.079	-51.39
340.461	-74.37
340.843	-59.05
341.225	-122.88
341.607	-89.69
341.989	-51.39
342.371	-43.73
342.752	-102.45
343.134	-41.17
343.516	-15.64
343.897	9.89
344.279	-28.41
344.661	9.89
345.042	81.39
345.423	7.34
345.805	112.03
346.186	50.75
346.567	91.6
346.949	132.46
347.33	155.44
347.711	198.84
348.092	147.78
348.473	255.02
348.854	255.02
349.235	285.66
349.616	242.25
349.997	278
350.378	321.41
350.758	295.87
351.139	311.19
351.52	375.03
351.9	403.11
352.281	323.96
352.661	352.05
353.042	369.92
353.422	385.24
353.803	380.13
354.183	395.45
354.563	436.31
354.943	316.3
355.324	405.67
355.704	362.26
356.084	359.71
356.464	400.56
356.844	423.54
357.224	441.42
357.603	400.56
357.983	418.43
358.363	403.11
358.743	400.56
359.122	357.15
359.502	469.5
359.882	331.62
360.261	329.07
360.641	372.47
361.02	382.69
361.399	336.73
361.779	405.67
362.158	357.15
362.537	308.64
362.916	334.17
363.296	341.83
363.675	354.6
364.054	403.11
364.433	392.9
364.812	329.07
365.19	405.67
365.569	446.52
365.948	354.6
366.327	390.35
366.705	285.66
367.084	293.32
367.463	354.6
367.841	267.79
368.22	306.09
368.598	352.05
368.977	349.49
369.355	354.6
369.733	341.83
370.111	362.26
370.49	380.13
370.868	331.62
371.246	385.24
371.624	349.49
372.002	359.71
372.38	372.47
372.758	375.03
373.136	380.13
373.513	321.41
373.891	382.69
374.269	308.64
374.646	420.99
375.024	346.94
375.402	375.03
375.779	410.77
376.157	372.47
376.534	367.37
376.911	321.41
377.289	334.17
377.666	418.43
378.043	375.03
378.42	398.01
378.797	380.13
379.175	375.03
379.552	352.05
379.929	344.39
380.305	357.15
380.682	392.9
381.059	410.77
381.436	395.45
381.813	364.81
382.189	392.9
382.566	395.45
382.943	377.58
383.319	369.92
383.696	318.85
384.072	364.81
384.448	339.28
384.825	357.15
385.201	367.37
385.577	352.05
385.953	364.81
386.329	382.69
386.706	367.37
387.082	392.9
387.458	303.53
387.834	400.56
388.209	329.07
388.585	367.37
388.961	385.24
389.337	349.49
389.713	367.37
390.088	392.9
390.464	295.87
390.839	375.03
391.215	357.15
391.59	469.5
391.966	410.77
392.341	377.58
392.716	334.17
393.092	382.69
393.467	367.37
393.842	346.94
394.217	418.43
394.592	390.35
394.967	380.13
395.342	352.05
395.717	372.47
396.092	392.9
396.467	357.15
396.841	367.37
397.216	441.42
397.591	446.52
397.965	456.74
398.34	382.69
398.714	352.05
399.089	346.94
399.463	410.77
399.838	323.96
400.212	359.71
400.586	334.17
400.961	387.79
401.335	326.51
401.709	364.81
402.083	326.51
402.457	349.49
402.831	423.54
403.205	392.9
403.579	349.49
403.953	336.73
404.326	387.79
404.7	390.35
405.074	329.07
405.447	387.79
405.821	387.79
406.195	408.22
406.568	377.58
406.942	423.54
407.315	377.58
407.688	449.08
408.062	413.33
408.435	433.76
408.808	390.35
409.181	418.43
409.554	382.69
409.927	334.17
410.3	364.81
410.673	433.76
411.046	392.9
411.419	400.56
411.792	426.09
412.165	420.99
412.537	359.71
412.91	375.03
413.283	413.33
413.655	426.09
414.028	362.26
414.4	403.11
414.773	436.31
415.145	400.56
415.517	375.03
415.889	395.45
416.262	446.52
416.634	400.56
417.006	413.33
417.378	369.92
417.75	436.31
418.122	461.84
418.494	346.94
418.866	364.81
419.238	403.11
419.609	482.27
419.981	433.76
420.353	336.73
420.725	436.31
421.096	395.45
421.468	408.22
421.839	380.13
422.211	290.77
422.582	364.81
422.953	364.81
423.325	336.73
423.696	382.69
424.067	415.88
424.438	349.49
424.809	400.56
425.18	382.69
425.551	410.77
425.922	390.35
426.293	398.01
426.664	382.69
427.035	405.67
427.406	418.43
427.776	372.47
428.147	362.26
428.518	410.77
428.888	369.92
429.259	413.33
429.629	405.67
429.999	431.2
430.37	433.76
430.74	408.22
431.11	441.42
431.481	431.2
431.851	352.05
432.221	415.88
432.591	474.61
432.961	387.79
433.331	382.69
433.701	415.88
434.071	385.24
434.441	349.49
434.81	377.58
435.18	451.63
435.55	375.03
435.919	323.96
436.289	362.26
436.658	392.9
437.028	377.58
437.397	426.09
437.767	431.2
438.136	395.45
438.505	415.88
438.875	377.58
439.244	375.03
439.613	449.08
439.982	420.99
440.351	472.06
440.72	408.22
441.089	420.99
441.458	392.9
441.827	423.54
442.196	408.22
442.564	551.21
442.933	428.65
443.302	451.63
443.67	369.92
444.039	367.37
444.407	377.58
444.776	341.83
445.144	418.43
445.513	362.26
445.881	346.94
446.249	398.01
446.617	375.03
446.986	403.11
447.354	364.81
447.722	418.43
448.09	433.76
448.458	380.13
448.826	405.67
449.194	364.81
449.561	438.86
449.929	441.42
450.297	413.33
450.665	451.63
451.032	390.35
451.4	372.47
451.767	413.33
452.135	415.88
452.502	372.47
452.87	398.01
453.237	426.09
453.604	390.35
453.971	420.99
454.339	477.16
454.706	443.97
455.073	380.13
455.44	449.08
455.807	377.58
456.174	426.09
456.541	441.42
456.908	459.29
457.274	433.76
457.641	403.11
458.008	359.71
458.374	352.05
458.741	403.11
459.108	323.96
459.474	466.95
459.841	377.58
460.207	461.84
460.573	446.52
460.94	400.56
461.306	436.31
461.672	387.79
462.038	413.33
462.404	446.52
462.771	408.22
463.137	334.17
463.503	377.58
463.868	420.99
464.234	400.56
464.6	403.11
464.966	456.74
465.332	464.4
465.697	418.43
466.063	413.33
466.429	466.95
466.794	497.59
467.16	502.7
467.525	474.61
467.89	410.77
468.256	461.84
468.621	323.96
468.986	433.76
469.351	380.13
469.717	408.22
470.082	367.37
470.447	436.31
470.812	436.31
471.177	413.33
471.542	418.43
471.906	423.54
472.271	431.2
472.636	380.13
473.001	441.42
473.365	438.86
473.73	400.56
474.094	464.4
474.459	382.69
474.823	418.43
475.188	398.01
475.552	423.54
475.917	359.71
476.281	415.88
476.645	382.69
477.009	408.22
477.373	415.88
477.737	469.5
478.101	410.77
478.465	400.56
478.829	367.37
479.193	420.99
479.557	408.22
479.921	433.76
480.284	438.86
480.648	392.9
481.012	398.01
481.375	403.11
481.739	446.52
482.102	418.43
482.466	400.56
482.829	505.25
483.193	461.84
483.556	395.45
483.919	443.97
484.282	398.01
484.645	466.95
485.009	454.18
485.372	405.67
485.735	431.2
486.098	454.18
486.46	461.84
486.823	415.88
487.186	426.09
487.549	464.4
487.912	390.35
488.274	382.69
488.637	431.2
488.999	441.42
489.362	369.92
489.724	362.26
490.087	436.31
490.449	367.37
490.811	392.9
491.174	464.4
491.536	410.77
491.898	446.52
492.26	454.18
492.622	497.59
492.984	395.45
493.346	367.37
493.708	369.92
494.07	446.52
494.432	410.77
494.794	400.56
495.155	382.69
495.517	418.43
495.879	390.35
496.24	413.33
496.602	398.01
496.963	385.24
497.325	479.72
497.686	428.65
498.048	400.56
498.409	413.33
498.77	405.67
499.131	454.18
499.492	352.05
499.854	413.33
500.215	446.52
500.576	461.84
500.937	415.88
501.298	410.77
501.658	441.42
502.019	477.16
502.38	454.18
502.741	385.24
503.101	413.33
503.462	433.76
503.823	456.74
504.183	375.03
504.543	466.95
504.904	441.42
505.264	431.2
505.625	446.52
505.985	420.99
506.345	390.35
506.705	387.79
507.065	438.86
507.426	436.31
507.786	423.54
508.146	433.76
508.505	336.73
508.865	413.33
509.225	472.06
509.585	415.88
509.945	405.67
510.304	418.43
510.664	380.13
511.024	464.4
511.383	385.24
511.743	395.45
512.102	443.97
512.462	362.26
512.821	369.92
513.18	472.06
513.539	354.6
513.899	375.03
514.258	415.88
514.617	387.79
514.976	341.83
515.335	441.42
515.694	431.2
516.053	380.13
516.412	377.58
516.771	375.03
517.129	367.37
517.488	306.09
517.847	362.26
518.205	382.69
518.564	461.84
518.922	454.18
519.281	438.86
519.639	431.2
519.998	354.6
520.356	372.47
520.714	410.77
521.073	408.22
521.431	423.54
521.789	472.06
522.147	461.84
522.505	469.5
522.863	433.76
523.221	431.2
523.579	423.54
523.937	428.65
524.295	484.82
524.652	339.28
525.01	443.97
525.368	385.24
525.725	403.11
526.083	431.2
526.44	331.62
526.798	436.31
527.155	420.99
527.513	426.09
527.87	443.97
528.227	451.63
528.584	415.88
528.942	428.65
529.299	405.67
529.656	446.52
530.013	403.11
530.37	359.71
530.727	418.43
531.083	354.6
531.44	339.28
531.797	400.56
532.154	357.15
532.511	377.58
532.867	400.56
533.224	382.69
533.58	387.79
533.937	408.22
534.293	403.11
534.65	413.33
535.006	446.52
535.362	413.33
535.718	474.61
536.075	395.45
536.431	395.45
536.787	339.28
537.143	461.84
537.499	405.67
537.855	431.2
538.211	451.63
538.567	418.43
538.923	433.76
539.278	456.74
539.634	403.11
539.99	408.22
540.345	464.4
540.701	375.03
541.056	390.35
541.412	487.38
541.767	403.11
542.123	405.67
542.478	380.13
542.833	449.08
543.188	446.52
543.544	436.31
543.899	426.09
544.254	372.47
544.609	346.94
544.964	420.99
545.319	364.81
545.674	364.81
546.029	405.67
546.383	367.37
546.738	418.43
547.093	441.42
547.447	400.56
547.802	420.99
548.157	392.9
548.511	331.62
548.866	423.54
549.22	392.9
549.574	423.54
549.929	431.2
550.283	461.84
550.637	472.06
550.991	385.24
551.345	349.49
551.699	357.15
552.053	443.97
552.407	346.94
552.761	380.13
553.115	372.47
553.469	438.86
553.823	441.42
554.176	387.79
554.53	336.73
554.884	420.99
555.237	607.38
555.591	495.04
555.944	520.57
556.298	469.5
556.651	449.08
557.005	354.6
557.358	436.31
557.711	408.22
558.064	418.43
558.417	357.15
558.771	482.27
559.124	426.09
559.477	443.97
559.83	403.11
560.182	392.9
560.535	413.33
560.888	364.81
561.241	395.45
561.594	405.67
561.946	369.92
562.299	354.6
562.651	395.45
563.004	359.71
563.356	400.56
563.709	392.9
564.061	369.92
564.413	410.77
564.766	449.08
565.118	326.51
565.47	405.67
565.822	438.86
566.174	377.58
566.526	372.47
566.878	438.86
567.23	410.77
567.582	449.08
567.934	413.33
568.286	446.52
568.638	413.33
568.989	392.9
569.341	464.4
569.693	420.99
570.044	426.09
570.396	415.88
570.747	385.24
571.098	420.99
571.45	382.69
571.801	415.88
572.152	405.67
572.504	431.2
572.855	382.69
573.206	329.07
573.557	405.67
573.908	415.88
574.259	321.41
574.61	385.24
574.961	413.33
575.311	420.99
575.662	390.35
576.013	369.92
576.364	349.49
576.714	426.09
577.065	372.47
577.415	449.08
577.766	352.05
578.116	362.26
578.467	390.35
578.817	400.56
579.167	382.69
579.518	466.95
579.868	441.42
580.218	449.08
580.568	382.69
580.918	451.63
581.268	380.13
581.618	352.05
581.968	418.43
582.318	415.88
582.668	382.69
583.017	428.65
583.367	420.99
583.717	398.01
584.066	395.45
584.416	400.56
584.765	398.01
585.115	443.97
585.464	464.4
585.814	405.67
586.163	433.76
586.512	357.15
586.862	415.88
587.211	329.07
587.56	354.6
587.909	441.42
588.258	372.47
588.607	395.45
588.956	392.9
589.305	405.67
589.654	423.54
590.002	451.63
590.351	466.95
590.7	385.24
591.048	431.2
591.397	390.35
591.746	377.58
592.094	477.16
592.443	415.88
592.791	392.9
593.139	357.15
593.488	387.79
593.836	364.81
594.184	420.99
594.532	375.03
594.88	459.29
595.228	387.79
595.576	420.99
595.924	357.15
596.272	395.45
596.62	438.86
596.968	352.05
597.316	413.33
597.664	326.51
598.011	344.39
598.359	423.54
598.706	436.31
599.054	420.99
599.402	428.65
599.749	359.71
600.096	431.2
600.444	451.63
600.791	377.58
601.138	398.01
601.485	413.33
601.833	341.83
602.18	387.79
602.527	459.29
602.874	423.54
603.221	420.99
603.568	385.24
603.914	449.08
604.261	392.9
604.608	431.2
604.955	443.97
605.301	415.88
605.648	474.61
605.995	436.31
606.341	469.5
606.688	369.92
607.034	400.56
607.38	400.56
607.727	446.52
608.073	372.47
608.419	392.9
608.765	372.47
609.112	357.15
609.458	420.99
609.804	334.17
610.15	410.77
610.496	415.88
610.842	423.54
611.187	408.22
611.533	441.42
611.879	377.58
612.225	410.77
612.57	451.63
612.916	454.18
613.261	418.43
613.607	413.33
613.952	408.22
614.298	408.22
614.643	359.71
614.989	413.33
615.334	431.2
615.679	398.01
616.024	408.22
616.369	392.9
616.714	359.71
617.059	367.37
617.404	372.47
617.749	403.11
618.094	400.56
618.439	403.11
618.784	423.54
619.129	461.84
619.473	359.71
619.818	382.69
620.163	436.31
620.507	359.71
620.852	423.54
621.196	428.65
621.54	431.2
621.885	415.88
622.229	449.08
622.573	359.71
622.918	321.41
623.262	362.26
623.606	431.2
623.95	387.79
624.294	443.97
624.638	395.45
624.982	415.88
625.326	357.15
625.67	423.54
626.013	426.09
626.357	426.09
626.701	385.24
627.044	377.58
627.388	395.45
627.731	369.92
628.075	426.09
628.418	466.95
628.762	398.01
629.105	477.16
629.448	423.54
629.792	375.03
630.135	426.09
630.478	382.69
630.821	410.77
631.164	426.09
631.507	431.2
631.85	466.95
632.193	257.57
632.536	377.58
632.879	359.71
633.221	392.9
633.564	364.81
633.907	418.43
634.249	392.9
634.592	336.73
634.935	354.6
635.277	349.49
635.619	377.58
635.962	395.45
636.304	403.11
636.646	395.45
636.989	403.11
637.331	367.37
637.673	456.74
638.015	364.81
638.357	461.84
638.699	436.31
639.041	428.65
639.383	431.2
639.725	278
640.067	413.33
640.408	441.42
640.75	398.01
641.092	408.22
641.433	341.83
641.775	477.16
642.116	346.94
642.458	387.79
642.799	408.22
643.141	456.74
643.482	354.6
643.823	449.08
644.164	398.01
644.506	443.97
644.847	380.13
645.188	385.24
645.529	423.54
645.87	423.54
646.211	385.24
646.552	377.58
646.893	446.52
647.233	472.06
647.574	441.42
647.915	415.88
648.255	392.9
648.596	359.71
648.937	408.22
649.277	357.15
649.618	426.09
649.958	441.42
650.298	438.86
650.639	418.43
650.979	428.65
651.319	364.81
651.659	428.65
651.999	331.62
652.339	331.62
652.679	367.37
653.019	364.81
653.359	459.29
653.699	385.24
654.039	410.77
654.379	352.05
654.719	400.56
655.058	392.9
655.398	415.88
655.737	438.86
656.077	385.24
656.416	428.65
656.756	441.42
657.095	420.99
657.435	443.97
657.774	405.67
658.113	438.86
658.452	362.26
658.792	346.94
659.131	395.45
659.47	451.63
659.809	413.33
660.148	426.09
660.487	392.9
660.826	410.77
661.164	387.79
661.503	441.42
661.842	400.56
662.181	441.42
662.519	377.58
662.858	443.97
663.196	403.11
663.535	382.69
663.873	428.65
664.212	413.33
664.55	349.49
664.888	410.77
665.226	390.35
665.565	392.9
665.903	599.72
666.241	500.14
666.579	367.37
666.917	316.3
667.255	339.28
667.593	446.52
667.931	428.65
668.268	398.01
668.606	387.79
668.944	428.65
669.282	446.52
669.619	443.97
669.957	454.18
670.294	428.65
670.632	469.5
670.969	472.06
671.307	359.71
671.644	344.39
671.981	418.43
672.318	433.76
672.656	428.65
672.993	428.65
673.33	451.63
673.667	341.83
674.004	369.92
674.341	387.79
674.678	321.41
675.015	428.65
675.351	395.45
675.688	433.76
676.025	357.15
676.362	395.45
676.698	377.58
677.035	420.99
677.371	420.99
677.708	428.65
678.044	359.71
678.38	367.37
678.717	403.11
679.053	398.01
679.389	433.76
679.725	377.58
680.062	459.29
680.398	395.45
680.734	418.43
681.07	369.92
681.406	372.47
681.742	423.54
682.077	456.74
682.413	382.69
682.749	398.01
683.085	364.81
683.42	415.88
683.756	405.67
684.091	369.92
684.427	433.76
684.762	349.49
685.098	364.81
685.433	405.67
685.768	382.69
686.104	410.77
686.439	382.69
686.774	369.92
687.109	400.56
687.444	395.45
687.779	423.54
688.114	405.67
688.449	372.47
688.784	352.05
689.119	369.92
689.454	400.56
689.789	395.45
690.123	431.2
690.458	395.45
690.792	443.97
691.127	418.43
691.461	431.2
691.796	413.33
692.13	420.99
692.465	410.77
692.799	362.26
693.133	387.79
693.467	380.13
693.802	362.26
694.136	408.22
694.47	385.24
694.804	321.41
695.138	357.15
695.472	441.42
695.806	454.18
696.139	354.6
696.473	390.35
696.807	438.86
697.141	423.54
697.474	415.88
697.808	410.77
698.141	352.05
698.475	423.54
698.808	431.2
699.142	426.09
699.475	423.54
699.808	446.52
700.142	415.88
700.475	403.11
700.808	446.52
701.141	385.24
701.474	466.95
701.807	369.92
702.14	405.67
702.473	405.67
702.806	380.13
703.139	415.88
703.472	418.43
703.804	385.24
704.137	339.28
704.47	464.4
704.802	431.2
705.135	382.69
705.467	395.45
705.8	392.9
706.132	466.95
706.464	423.54
706.797	334.17
707.129	390.35
707.461	477.16
707.793	385.24
708.125	385.24
708.457	405.67
708.789	372.47
709.121	400.56
709.453	436.31
709.785	354.6
710.117	415.88
710.449	426.09
710.781	398.01
711.112	318.85
711.444	441.42
711.775	339.28
712.107	339.28
712.438	398.01
712.77	474.61
713.101	387.79
713.433	474.61
713.764	464.4
714.095	403.11
714.426	400.56
714.757	413.33
715.089	446.52
715.42	400.56
715.751	364.81
716.082	331.62
716.412	369.92
716.743	446.52
717.074	403.11
717.405	410.77
717.736	456.74
718.066	479.72
718.397	461.84
718.727	420.99
719.058	362.26
719.388	405.67
719.719	413.33
720.049	387.79
720.38	423.54
720.71	400.56
721.04	415.88
721.37	400.56
721.7	387.79
722.031	436.31
722.361	413.33
722.691	375.03
723.021	454.18
723.35	352.05
723.68	436.31
724.01	446.52
724.34	354.6
724.67	415.88
724.999	344.39
725.329	380.13
725.658	446.52
725.988	441.42
726.317	390.35
726.647	380.13
726.976	438.86
727.306	420.99
727.635	372.47
727.964	326.51
728.293	316.3
728.622	357.15
728.952	454.18
729.281	497.59
729.61	398.01
729.939	398.01
730.267	413.33
730.596	466.95
730.925	456.74
731.254	392.9
731.583	403.11
731.911	426.09
732.24	395.45
732.568	441.42
732.897	354.6
733.225	369.92
733.554	426.09
733.882	431.2
734.21	433.76
734.539	415.88
734.867	367.37
735.195	456.74
735.523	372.47
735.851	369.92
736.179	380.13
736.507	428.65
736.835	436.31
737.163	369.92
737.491	372.47
737.819	408.22
738.147	357.15
738.474	344.39
738.802	372.47
739.13	344.39
739.457	413.33
739.785	398.01
740.112	385.24
740.44	472.06
740.767	359.71
741.094	349.49
741.422	418.43
741.749	436.31
742.076	464.4
742.403	413.33
742.73	382.69
743.057	403.11
743.384	380.13
743.711	451.63
744.038	420.99
744.365	466.95
744.692	441.42
745.018	438.86
745.345	464.4
745.672	372.47
745.998	431.2
746.325	408.22
746.651	341.83
746.978	390.35
747.304	395.45
747.631	377.58
747.957	413.33
748.283	380.13
748.61	372.47
748.936	380.13
749.262	387.79
749.588	380.13
749.914	423.54
750.24	456.74
750.566	346.94
750.892	398.01
751.218	357.15
751.543	369.92
751.869	405.67
752.195	382.69
752.521	464.4
752.846	459.29
753.172	382.69
753.497	400.56
753.823	405.67
754.148	375.03
754.473	357.15
754.799	359.71
755.124	357.15
755.449	318.85
755.774	390.35
756.1	428.65
756.425	433.76
756.75	398.01
757.075	398.01
757.4	571.64
757.724	392.9
758.049	461.84
758.374	479.72
758.699	464.4
759.024	459.29
759.348	359.71
759.673	418.43
759.997	367.37
760.322	375.03
760.646	377.58
760.971	418.43
761.295	433.76
761.619	433.76
761.944	410.77
762.268	459.29
762.592	484.82
762.916	518.02
763.24	558.87
763.564	592.06
763.888	638.03
764.212	722.29
764.536	768.25
764.86	768.25
765.184	770.8
765.508	752.93
765.831	752.93
766.155	1077.21
766.478	913.79
766.802	798.89
767.126	763.14
767.449	901.02
767.772	814.21
768.096	691.65
768.419	658.45
768.742	615.04
769.066	597.17
769.389	645.69
769.712	609.94
770.035	604.83
770.358	806.55
770.681	962.3
771.004	1128.27
771.327	1253.39
771.65	1322.33
771.972	1562.35
772.295	1873.86
772.618	2341.13
772.941	2504.54
773.263	2846.7
773.586	3334.39
773.908	3617.82
774.231	3589.73
774.553	3686.76
774.875	3862.94
775.198	4082.53
775.52	3839.96
775.842	3689.31
776.164	3293.54
776.487	3073.95
776.809	2933.51
777.131	2961.6
777.453	2639.87
777.775	2524.97
778.096	2328.36
778.418	2052.6
778.74	1664.48
779.062	1340.2
779.384	1158.91
779.705	1051.67
780.027	1056.78
780.348	1118.06
780.67	1041.46
780.991	1335.1
781.313	1608.31
781.634	1942.8
781.955	2336.02
782.277	2905.43
782.598	3255.24
782.919	3663.78
783.24	4161.69
783.561	4756.62
783.882	5134.52
784.203	5292.83
784.524	5405.18
784.845	5604.35
785.166	5961.82
785.487	6467.39
785.807	6704.85
786.128	6755.92
786.449	6814.65
786.769	6319.29
787.09	6464.83
787.41	6615.48
787.731	6635.91
788.051	6684.42
788.372	6360.15
788.692	6040.97
789.012	5614.56
789.332	4664.7
789.653	4251.06
789.973	3959.97
790.293	3336.95
790.613	2479.01
790.933	2050.04
791.253	1766.62
791.573	1421.91
791.893	1151.25
792.212	890.81
792.532	875.49
792.852	995.5
793.171	1179.34
793.491	1518.94
793.811	1945.35
794.13	2453.48
794.45	2800.74
794.769	3245.02
795.088	3862.94
795.408	4440.01
795.727	5571.15
796.046	6847.84
796.365	7892.17
796.684	7915.15
797.004	8147.51
797.323	8515.2
797.642	9582.51
797.96	9209.72
798.279	9150.99
798.598	9051.41
798.917	8923.74
799.236	8859.9
799.554	8418.17
799.873	7869.19
