Data from 2025-12-03_xpw_interference_micrometer_631_FLMS141361__64__614.txt Node

Date: Wed Dec 03 15:54:10 MST 2025
User: james
Spectrometer: FLMS14136
Trigger mode: 0
Integration Time (sec): 1.000000E-1
Scans to average: 1
Electric dark correction enabled: true
Nonlinearity correction enabled: false
Boxcar width: 0
XAxis mode: Wavelengths
Number of Pixels in Spectrum: 2048
>>>>>Begin Spectral Data<<<<<
339.315	-52.66
339.697	-52.66
340.079	-52.66
340.461	-78.2
340.843	-70.54
341.225	-62.88
341.607	-85.86
341.989	-60.32
342.371	-101.18
342.752	-55.22
343.134	-22.02
343.516	-32.24
343.897	-14.36
344.279	6.06
344.661	-6.7
345.042	-27.13
345.423	54.58
345.805	39.26
346.186	80.11
346.567	149.05
346.949	138.84
347.33	271.62
347.711	172.03
348.092	228.21
348.473	223.1
348.854	197.57
349.235	274.17
349.616	299.7
349.997	297.15
350.378	284.38
350.758	338
351.139	366.09
351.52	348.22
351.9	378.86
352.281	355.88
352.661	332.9
353.042	391.62
353.422	399.28
353.803	460.57
354.183	371.2
354.563	360.98
354.943	317.58
355.324	363.54
355.704	404.39
356.084	404.39
356.464	409.5
356.844	363.54
357.224	463.12
357.603	401.84
357.983	442.69
358.363	414.6
358.743	263.96
359.122	363.54
359.502	348.22
359.882	368.64
360.261	345.66
360.641	427.37
361.02	422.26
361.399	383.96
361.779	368.64
362.158	371.2
362.537	325.24
362.916	302.26
363.296	366.09
363.675	419.71
364.054	348.22
364.433	320.13
364.812	340.56
365.19	325.24
365.569	399.28
365.948	363.54
366.327	327.79
366.705	389.07
367.084	381.41
367.463	338
367.841	371.2
368.22	399.28
368.598	383.96
368.977	338
369.355	353.32
369.733	404.39
370.111	378.86
370.49	396.73
370.868	343.11
371.246	309.92
371.624	381.41
372.002	358.43
372.38	360.98
372.758	309.92
373.136	383.96
373.513	317.58
373.891	383.96
374.269	358.43
374.646	378.86
375.024	417.16
375.402	378.86
375.779	376.3
376.157	424.82
376.534	373.75
376.911	350.77
377.289	332.9
377.666	309.92
378.043	386.52
378.42	376.3
378.797	404.39
379.175	376.3
379.552	394.18
379.929	381.41
380.305	360.98
380.682	376.3
381.059	376.3
381.436	350.77
381.813	332.9
382.189	348.22
382.566	360.98
382.943	366.09
383.319	332.9
383.696	315.02
384.072	389.07
384.448	383.96
384.825	391.62
385.201	422.26
385.577	406.94
385.953	389.07
386.329	401.84
386.706	394.18
387.082	429.93
387.458	376.3
387.834	404.39
388.209	338
388.585	401.84
388.961	353.32
389.337	391.62
389.713	417.16
390.088	373.75
390.464	399.28
390.839	406.94
391.215	414.6
391.59	350.77
391.966	422.26
392.341	409.5
392.716	396.73
393.092	360.98
393.467	332.9
393.842	394.18
394.217	383.96
394.592	355.88
394.967	302.26
395.342	315.02
395.717	320.13
396.092	396.73
396.467	345.66
396.841	401.84
397.216	427.37
397.591	404.39
397.965	422.26
398.34	355.88
398.714	394.18
399.089	386.52
399.463	366.09
399.838	394.18
400.212	371.2
400.586	360.98
400.961	371.2
401.335	417.16
401.709	401.84
402.083	353.32
402.457	378.86
402.831	404.39
403.205	417.16
403.579	383.96
403.953	350.77
404.326	373.75
404.7	447.8
405.074	315.02
405.447	355.88
405.821	455.46
406.195	325.24
406.568	417.16
406.942	417.16
407.315	320.13
407.688	427.37
408.062	366.09
408.435	371.2
408.808	422.26
409.181	419.71
409.554	360.98
409.927	396.73
410.3	338
410.673	338
411.046	368.64
411.419	363.54
411.792	401.84
412.165	429.93
412.537	373.75
412.91	394.18
413.283	381.41
413.655	414.6
414.028	414.6
414.4	376.3
414.773	396.73
415.145	465.67
415.517	422.26
415.889	366.09
416.262	406.94
416.634	396.73
417.006	401.84
417.378	378.86
417.75	427.37
418.122	412.05
418.494	366.09
418.866	394.18
419.238	389.07
419.609	371.2
419.981	312.47
420.353	396.73
420.725	376.3
421.096	399.28
421.468	455.46
421.839	406.94
422.211	417.16
422.582	452.91
422.953	383.96
423.325	468.23
423.696	360.98
424.067	427.37
424.438	435.03
424.809	381.41
425.18	391.62
425.551	378.86
425.922	386.52
426.293	417.16
426.664	450.35
427.035	455.46
427.406	363.54
427.776	340.56
428.147	406.94
428.518	389.07
428.888	391.62
429.259	412.05
429.629	394.18
429.999	376.3
430.37	358.43
430.74	368.64
431.11	424.82
431.481	386.52
431.851	417.16
432.221	455.46
432.591	465.67
432.961	417.16
433.331	360.98
433.701	401.84
434.071	391.62
434.441	391.62
434.81	406.94
435.18	414.6
435.55	414.6
435.919	353.32
436.289	414.6
436.658	422.26
437.028	406.94
437.397	432.48
437.767	391.62
438.136	391.62
438.505	404.39
438.875	371.2
439.244	394.18
439.613	368.64
439.982	348.22
440.351	406.94
440.72	445.25
441.089	427.37
441.458	368.64
441.827	368.64
442.196	381.41
442.564	590.79
442.933	493.76
443.302	419.71
443.67	450.35
444.039	424.82
444.407	396.73
444.776	440.14
445.144	363.54
445.513	317.58
445.881	406.94
446.249	432.48
446.617	338
446.986	376.3
447.354	429.93
447.722	422.26
448.09	424.82
448.458	404.39
448.826	422.26
449.194	399.28
449.561	440.14
449.929	360.98
450.297	401.84
450.665	399.28
451.032	383.96
451.4	404.39
451.767	450.35
452.135	389.07
452.502	429.93
452.87	386.52
453.237	355.88
453.604	399.28
453.971	450.35
454.339	419.71
454.706	417.16
455.073	386.52
455.44	383.96
455.807	404.39
456.174	404.39
456.541	401.84
456.908	396.73
457.274	452.91
457.641	381.41
458.008	447.8
458.374	414.6
458.741	447.8
459.108	399.28
459.474	440.14
459.841	427.37
460.207	401.84
460.573	371.2
460.94	470.78
461.306	429.93
461.672	447.8
462.038	470.78
462.404	378.86
462.771	429.93
463.137	378.86
463.503	422.26
463.868	343.11
464.234	332.9
464.6	409.5
464.966	435.03
465.332	450.35
465.697	396.73
466.063	417.16
466.429	389.07
466.794	452.91
467.16	480.99
467.525	473.33
467.89	498.87
468.256	414.6
468.621	414.6
468.986	450.35
469.351	373.75
469.717	330.34
470.082	345.66
470.447	406.94
470.812	429.93
471.177	335.45
471.542	404.39
471.906	432.48
472.271	442.69
472.636	424.82
473.001	406.94
473.365	401.84
473.73	470.78
474.094	404.39
474.459	417.16
474.823	412.05
475.188	389.07
475.552	465.67
475.917	452.91
476.281	473.33
476.645	358.43
477.009	440.14
477.373	386.52
477.737	419.71
478.101	429.93
478.465	424.82
478.829	363.54
479.193	355.88
479.557	394.18
479.921	445.25
480.284	381.41
480.648	437.59
481.012	463.12
481.375	366.09
481.739	422.26
482.102	404.39
482.466	371.2
482.829	496.31
483.193	381.41
483.556	414.6
483.919	345.66
484.282	414.6
484.645	412.05
485.009	404.39
485.372	432.48
485.735	386.52
486.098	345.66
486.46	373.75
486.823	442.69
487.186	419.71
487.549	376.3
487.912	417.16
488.274	401.84
488.637	363.54
488.999	389.07
489.362	432.48
489.724	442.69
490.087	429.93
490.449	391.62
490.811	358.43
491.174	389.07
491.536	470.78
491.898	404.39
492.26	338
492.622	409.5
492.984	394.18
493.346	399.28
493.708	371.2
494.07	455.46
494.432	450.35
494.794	391.62
495.155	480.99
495.517	363.54
495.879	483.55
496.24	496.31
496.602	394.18
496.963	419.71
497.325	376.3
497.686	460.57
498.048	437.59
498.409	468.23
498.77	353.32
499.131	458.01
499.492	373.75
499.854	452.91
500.215	386.52
500.576	396.73
500.937	396.73
501.298	406.94
501.658	414.6
502.019	478.44
502.38	427.37
502.741	417.16
503.101	350.77
503.462	381.41
503.823	396.73
504.183	360.98
504.543	376.3
504.904	353.32
505.264	435.03
505.625	391.62
505.985	399.28
506.345	376.3
506.705	452.91
507.065	376.3
507.426	383.96
507.786	378.86
508.146	376.3
508.505	343.11
508.865	412.05
509.225	437.59
509.585	496.31
509.945	335.45
510.304	376.3
510.664	394.18
511.024	432.48
511.383	401.84
511.743	427.37
512.102	335.45
512.462	412.05
512.821	404.39
513.18	378.86
513.539	381.41
513.899	350.77
514.258	424.82
514.617	458.01
514.976	450.35
515.335	475.89
515.694	353.32
516.053	355.88
516.412	355.88
516.771	455.46
517.129	437.59
517.488	376.3
517.847	412.05
518.205	366.09
518.564	427.37
518.922	401.84
519.281	360.98
519.639	424.82
519.998	442.69
520.356	345.66
520.714	506.53
521.073	501.42
521.431	427.37
521.789	450.35
522.147	401.84
522.505	371.2
522.863	435.03
523.221	427.37
523.579	414.6
523.937	419.71
524.295	363.54
524.652	376.3
525.01	396.73
525.368	396.73
525.725	440.14
526.083	488.65
526.44	468.23
526.798	406.94
527.155	391.62
527.513	445.25
527.87	376.3
528.227	391.62
528.584	406.94
528.942	445.25
529.299	376.3
529.656	381.41
530.013	383.96
530.37	360.98
530.727	391.62
531.083	381.41
531.44	429.93
531.797	360.98
532.154	373.75
532.511	414.6
532.867	409.5
533.224	445.25
533.58	440.14
533.937	366.09
534.293	417.16
534.65	470.78
535.006	381.41
535.362	445.25
535.718	417.16
536.075	447.8
536.431	394.18
536.787	394.18
537.143	391.62
537.499	452.91
537.855	396.73
538.211	401.84
538.567	406.94
538.923	399.28
539.278	404.39
539.634	355.88
539.99	378.86
540.345	309.92
540.701	353.32
541.056	376.3
541.412	391.62
541.767	358.43
542.123	404.39
542.478	458.01
542.833	401.84
543.188	353.32
543.544	378.86
543.899	391.62
544.254	427.37
544.609	414.6
544.964	381.41
545.319	389.07
545.674	394.18
546.029	427.37
546.383	412.05
546.738	348.22
547.093	358.43
547.447	468.23
547.802	355.88
548.157	419.71
548.511	424.82
548.866	419.71
549.22	417.16
549.574	442.69
549.929	394.18
550.283	432.48
550.637	435.03
550.991	437.59
551.345	378.86
551.699	396.73
552.053	424.82
552.407	401.84
552.761	355.88
553.115	491.21
553.469	509.08
553.823	401.84
554.176	404.39
554.53	412.05
554.884	378.86
555.237	657.18
555.591	419.71
555.944	478.44
556.298	475.89
556.651	399.28
557.005	399.28
557.358	368.64
557.711	381.41
558.064	381.41
558.417	450.35
558.771	496.31
559.124	465.67
559.477	414.6
559.83	414.6
560.182	383.96
560.535	396.73
560.888	432.48
561.241	463.12
561.594	432.48
561.946	401.84
562.299	422.26
562.651	383.96
563.004	378.86
563.356	383.96
563.709	409.5
564.061	419.71
564.413	386.52
564.766	378.86
565.118	442.69
565.47	455.46
565.822	414.6
566.174	427.37
566.526	419.71
566.878	368.64
567.23	381.41
567.582	396.73
567.934	427.37
568.286	394.18
568.638	419.71
568.989	389.07
569.341	381.41
569.693	376.3
570.044	427.37
570.396	440.14
570.747	383.96
571.098	440.14
571.45	381.41
571.801	406.94
572.152	455.46
572.504	396.73
572.855	363.54
573.206	455.46
573.557	360.98
573.908	340.56
574.259	391.62
574.61	432.48
574.961	412.05
575.311	399.28
575.662	348.22
576.013	399.28
576.364	378.86
576.714	440.14
577.065	429.93
577.415	419.71
577.766	368.64
578.116	496.31
578.467	435.03
578.817	368.64
579.167	414.6
579.518	465.67
579.868	412.05
580.218	412.05
580.568	404.39
580.918	427.37
581.268	412.05
581.618	419.71
581.968	368.64
582.318	396.73
582.668	376.3
583.017	424.82
583.367	486.1
583.717	394.18
584.066	376.3
584.416	376.3
584.765	386.52
585.115	376.3
585.464	396.73
585.814	401.84
586.163	371.2
586.512	417.16
586.862	376.3
587.211	396.73
587.56	435.03
587.909	409.5
588.258	366.09
588.607	381.41
588.956	458.01
589.305	412.05
589.654	491.21
590.002	432.48
590.351	450.35
590.7	330.34
591.048	414.6
591.397	353.32
591.746	363.54
592.094	394.18
592.443	445.25
592.791	406.94
593.139	447.8
593.488	452.91
593.836	422.26
594.184	376.3
594.532	391.62
594.88	452.91
595.228	394.18
595.576	327.79
595.924	427.37
596.272	470.78
596.62	429.93
596.968	412.05
597.316	445.25
597.664	391.62
598.011	496.31
598.359	455.46
598.706	429.93
599.054	442.69
599.402	399.28
599.749	294.6
600.096	427.37
600.444	404.39
600.791	383.96
601.138	409.5
601.485	412.05
601.833	406.94
602.18	417.16
602.527	437.59
602.874	373.75
603.221	404.39
603.568	401.84
603.914	381.41
604.261	406.94
604.608	442.69
604.955	391.62
605.301	332.9
605.648	389.07
605.995	355.88
606.341	414.6
606.688	399.28
607.034	401.84
607.38	378.86
607.727	422.26
608.073	432.48
608.419	394.18
608.765	419.71
609.112	419.71
609.458	445.25
609.804	389.07
610.15	391.62
610.496	394.18
610.842	363.54
611.187	412.05
611.533	419.71
611.879	465.67
612.225	437.59
612.57	437.59
612.916	343.11
613.261	424.82
613.607	381.41
613.952	447.8
614.298	417.16
614.643	412.05
614.989	401.84
615.334	363.54
615.679	396.73
616.024	473.33
616.369	424.82
616.714	455.46
617.059	458.01
617.404	335.45
617.749	404.39
618.094	355.88
618.439	452.91
618.784	396.73
619.129	309.92
619.473	406.94
619.818	381.41
620.163	440.14
620.507	366.09
620.852	414.6
621.196	330.34
621.54	455.46
621.885	414.6
622.229	406.94
622.573	412.05
622.918	394.18
623.262	463.12
623.606	458.01
623.95	406.94
624.294	424.82
624.638	401.84
624.982	455.46
625.326	355.88
625.67	427.37
626.013	401.84
626.357	404.39
626.701	422.26
627.044	401.84
627.388	401.84
627.731	404.39
628.075	376.3
628.418	389.07
628.762	394.18
629.105	404.39
629.448	468.23
629.792	371.2
630.135	440.14
630.478	458.01
630.821	412.05
631.164	381.41
631.507	343.11
631.85	389.07
632.193	401.84
632.536	394.18
632.879	383.96
633.221	412.05
633.564	358.43
633.907	414.6
634.249	422.26
634.592	468.23
634.935	368.64
635.277	399.28
635.619	493.76
635.962	455.46
636.304	478.44
636.646	404.39
636.989	338
637.331	389.07
637.673	432.48
638.015	396.73
638.357	366.09
638.699	363.54
639.041	394.18
639.383	383.96
639.725	386.52
640.067	427.37
640.408	391.62
640.75	406.94
641.092	330.34
641.433	417.16
641.775	396.73
642.116	440.14
642.458	401.84
642.799	424.82
643.141	422.26
643.482	381.41
643.823	429.93
644.164	378.86
644.506	442.69
644.847	389.07
645.188	429.93
645.529	399.28
645.87	368.64
646.211	419.71
646.552	424.82
646.893	414.6
647.233	424.82
647.574	404.39
647.915	429.93
648.255	406.94
648.596	381.41
648.937	401.84
649.277	406.94
649.618	343.11
649.958	381.41
650.298	424.82
650.639	343.11
650.979	406.94
651.319	442.69
651.659	394.18
651.999	366.09
652.339	355.88
652.679	355.88
653.019	383.96
653.359	437.59
653.699	406.94
654.039	432.48
654.379	350.77
654.719	401.84
655.058	417.16
655.398	350.77
655.737	455.46
656.077	460.57
656.416	383.96
656.756	427.37
657.095	399.28
657.435	355.88
657.774	445.25
658.113	366.09
658.452	381.41
658.792	348.22
659.131	447.8
659.47	325.24
659.809	289.49
660.148	373.75
660.487	373.75
660.826	366.09
661.164	396.73
661.503	338
661.842	524.4
662.181	432.48
662.519	371.2
662.858	447.8
663.196	460.57
663.535	378.86
663.873	419.71
664.212	353.32
664.55	355.88
664.888	404.39
665.226	353.32
665.565	419.71
665.903	575.47
666.241	452.91
666.579	355.88
666.917	412.05
667.255	363.54
667.593	404.39
667.931	424.82
668.268	371.2
668.606	414.6
668.944	320.13
669.282	340.56
669.619	412.05
669.957	424.82
670.294	401.84
670.632	424.82
670.969	343.11
671.307	327.79
671.644	422.26
671.981	409.5
672.318	371.2
672.656	335.45
672.993	409.5
673.33	358.43
673.667	368.64
674.004	440.14
674.341	325.24
674.678	378.86
675.015	353.32
675.351	409.5
675.688	348.22
676.025	376.3
676.362	399.28
676.698	366.09
677.035	470.78
677.371	389.07
677.708	396.73
678.044	358.43
678.38	366.09
678.717	414.6
679.053	409.5
679.389	401.84
679.725	363.54
680.062	360.98
680.398	325.24
680.734	465.67
681.07	419.71
681.406	406.94
681.742	440.14
682.077	447.8
682.413	381.41
682.749	399.28
683.085	417.16
683.42	383.96
683.756	406.94
684.091	429.93
684.427	440.14
684.762	447.8
685.098	406.94
685.433	437.59
685.768	399.28
686.104	383.96
686.439	437.59
686.774	432.48
687.109	447.8
687.444	424.82
687.779	391.62
688.114	366.09
688.449	455.46
688.784	427.37
689.119	391.62
689.454	399.28
689.789	360.98
690.123	376.3
690.458	396.73
690.792	399.28
691.127	399.28
691.461	378.86
691.796	381.41
692.13	427.37
692.465	389.07
692.799	409.5
693.133	389.07
693.467	435.03
693.802	355.88
694.136	363.54
694.47	394.18
694.804	373.75
695.138	345.66
695.472	386.52
695.806	396.73
696.139	381.41
696.473	432.48
696.807	422.26
697.141	381.41
697.474	412.05
697.808	399.28
698.141	394.18
698.475	450.35
698.808	419.71
699.142	394.18
699.475	389.07
699.808	437.59
700.142	424.82
700.475	399.28
700.808	422.26
701.141	409.5
701.474	432.48
701.807	437.59
702.14	424.82
702.473	363.54
702.806	404.39
703.139	394.18
703.472	422.26
703.804	360.98
704.137	391.62
704.47	345.66
704.802	427.37
705.135	394.18
705.467	399.28
705.8	414.6
706.132	386.52
706.464	386.52
706.797	396.73
707.129	399.28
707.461	366.09
707.793	437.59
708.125	360.98
708.457	391.62
708.789	486.1
709.121	473.33
709.453	422.26
709.785	389.07
710.117	373.75
710.449	427.37
710.781	440.14
711.112	409.5
711.444	378.86
711.775	391.62
712.107	401.84
712.438	440.14
712.77	389.07
713.101	383.96
713.433	445.25
713.764	378.86
714.095	414.6
714.426	429.93
714.757	498.87
715.089	366.09
715.42	394.18
715.751	452.91
716.082	383.96
716.412	437.59
716.743	376.3
717.074	452.91
717.405	368.64
717.736	371.2
718.066	396.73
718.397	371.2
718.727	419.71
719.058	353.32
719.388	424.82
719.719	427.37
720.049	465.67
720.38	399.28
720.71	391.62
721.04	437.59
721.37	437.59
721.7	381.41
722.031	348.22
722.361	404.39
722.691	371.2
723.021	442.69
723.35	414.6
723.68	435.03
724.01	422.26
724.34	358.43
724.67	419.71
724.999	493.76
725.329	412.05
725.658	414.6
725.988	394.18
726.317	404.39
726.647	409.5
726.976	399.28
727.306	406.94
727.635	391.62
727.964	412.05
728.293	424.82
728.622	378.86
728.952	386.52
729.281	409.5
729.61	332.9
729.939	355.88
730.267	383.96
730.596	488.65
730.925	429.93
731.254	498.87
731.583	422.26
731.911	330.34
732.24	345.66
732.568	404.39
732.897	401.84
733.225	419.71
733.554	378.86
733.882	360.98
734.21	381.41
734.539	404.39
734.867	424.82
735.195	424.82
735.523	475.89
735.851	435.03
736.179	340.56
736.507	340.56
736.835	412.05
737.163	396.73
737.491	360.98
737.819	424.82
738.147	409.5
738.474	312.47
738.802	422.26
739.13	414.6
739.457	396.73
739.785	399.28
740.112	406.94
740.44	409.5
740.767	371.2
741.094	396.73
741.422	414.6
741.749	442.69
742.076	429.93
742.403	378.86
742.73	406.94
743.057	386.52
743.384	348.22
743.711	419.71
744.038	389.07
744.365	473.33
744.692	427.37
745.018	399.28
745.345	419.71
745.672	419.71
745.998	450.35
746.325	391.62
746.651	424.82
746.978	414.6
747.304	435.03
747.631	389.07
747.957	414.6
748.283	417.16
748.61	371.2
748.936	366.09
749.262	419.71
749.588	412.05
749.914	391.62
750.24	419.71
750.566	396.73
750.892	440.14
751.218	389.07
751.543	424.82
751.869	378.86
752.195	386.52
752.521	424.82
752.846	470.78
753.172	406.94
753.497	455.46
753.823	360.98
754.148	401.84
754.473	368.64
754.799	381.41
755.124	366.09
755.449	363.54
755.774	424.82
756.1	435.03
756.425	389.07
756.75	427.37
757.075	442.69
757.4	509.08
757.724	442.69
758.049	445.25
758.374	447.8
758.699	435.03
759.024	396.73
759.348	419.71
759.673	447.8
759.997	386.52
760.322	386.52
760.646	376.3
760.971	424.82
761.295	483.55
761.619	483.55
761.944	478.44
762.268	452.91
762.592	565.25
762.916	521.85
763.24	486.1
763.564	514.19
763.888	639.3
764.212	797.61
764.536	695.48
764.86	779.74
765.184	726.12
765.508	795.06
765.831	828.25
766.155	1047.84
766.478	930.39
766.802	874.21
767.126	876.77
767.449	807.82
767.772	784.84
768.096	772.08
768.419	667.39
768.742	555.04
769.066	547.38
769.389	560.15
769.712	570.36
770.035	593.34
770.358	715.9
770.681	917.62
771.004	1014.65
771.327	1239.35
771.65	1292.97
771.972	1624.91
772.295	1959.4
772.618	2288.78
772.941	2549.23
773.263	2750.95
773.586	3218.21
773.908	3516.96
774.231	3703.36
774.553	3665.05
774.875	3795.28
775.198	3928.05
775.52	3723.78
775.842	3435.25
776.164	3062.46
776.487	3118.63
776.809	2945
777.131	2904.15
777.453	2687.11
777.775	2500.71
778.096	2263.25
778.418	1977.27
778.74	1599.37
779.062	1446.17
779.384	1167.85
779.705	1055.5
780.027	963.58
780.348	1075.93
780.67	1162.74
780.991	1338.93
781.313	1655.55
781.634	1900.67
781.955	2247.93
782.277	2715.2
782.598	3325.46
782.919	3616.54
783.24	4071.04
783.561	4576.61
783.882	4951.96
784.203	5130.69
784.524	5337.52
784.845	5518.81
785.166	5883.94
785.487	6529.95
785.807	6634.63
786.128	6606.55
786.449	6455.9
786.769	6425.26
787.09	6210.77
787.41	6269.5
787.731	6478.88
788.051	6440.58
788.372	6430.36
788.692	6078
789.012	5421.78
789.332	4617.46
789.653	4262.55
789.973	3930.61
790.293	3386.74
790.613	2434.33
790.933	2064.09
791.253	1767.9
791.573	1412.98
791.893	1157.64
792.212	935.49
792.532	858.89
792.852	1042.74
793.171	1134.66
793.491	1517.66
793.811	1913.44
794.13	2237.72
794.45	2636.04
794.769	3294.82
795.088	3884.65
795.408	4408.09
795.727	5317.09
796.046	6644.85
796.365	7918.98
796.684	7758.12
797.004	8026.22
797.323	8531.79
797.642	9588.89
797.96	9540.38
798.279	9175.24
798.598	9068
798.917	8830.54
799.236	8644.14
799.554	8340.29
799.873	7860.26
800.192	7428.73
800.51	6866.99
800.829	6767.41
801.147	5973.31
801.466	5048.99
