Data from 2025-12-03_xpw_interference_micrometer_631_FLMS141361__47__597.txt Node

Date: Wed Dec 03 15:54:09 MST 2025
User: james
Spectrometer: FLMS14136
Trigger mode: 0
Integration Time (sec): 1.000000E-1
Scans to average: 1
Electric dark correction enabled: true
Nonlinearity correction enabled: false
Boxcar width: 0
XAxis mode: Wavelengths
Number of Pixels in Spectrum: 2048
>>>>>Begin Spectral Data<<<<<
339.315	24.9
339.697	24.9
340.079	24.9
340.461	-92.56
340.843	-72.13
341.225	-90.01
341.607	-41.49
341.989	-49.15
342.371	-61.92
342.752	-97.67
343.134	-41.49
343.516	-77.24
343.897	-97.67
344.279	-67.03
344.661	22.34
345.042	30
345.423	-3.19
345.805	63.2
346.186	119.37
346.567	152.56
346.949	239.38
347.33	231.72
347.711	172.99
348.092	241.93
348.473	254.7
348.854	267.47
349.235	303.21
349.616	244.49
349.997	282.79
350.378	300.66
350.758	259.81
351.139	328.75
351.52	290.45
351.9	287.89
352.281	415.56
352.661	349.17
353.042	326.19
353.422	369.6
353.803	382.37
354.183	374.71
354.563	356.83
354.943	387.48
355.324	356.83
355.704	435.99
356.084	384.92
356.464	382.37
356.844	377.26
357.224	382.37
357.603	313.43
357.983	374.71
358.363	481.95
358.743	413.01
359.122	379.81
359.502	338.96
359.882	354.28
360.261	407.9
360.641	400.24
361.02	428.33
361.399	361.94
361.779	400.24
362.158	387.48
362.537	418.12
362.916	331.3
363.296	390.03
363.675	367.05
364.054	367.05
364.433	326.19
364.812	369.6
365.19	387.48
365.569	321.09
365.948	341.51
366.327	356.83
366.705	315.98
367.084	372.15
367.463	390.03
367.841	282.79
368.22	351.73
368.598	361.94
368.977	364.49
369.355	356.83
369.733	338.96
370.111	354.28
370.49	354.28
370.868	369.6
371.246	418.12
371.624	331.3
372.002	374.71
372.38	267.47
372.758	310.87
373.136	290.45
373.513	395.14
373.891	410.46
374.269	367.05
374.646	384.92
375.024	369.6
375.402	323.64
375.779	351.73
376.157	387.48
376.534	384.92
376.911	377.26
377.289	364.49
377.666	400.24
378.043	387.48
378.42	374.71
378.797	336.41
379.175	333.85
379.552	387.48
379.929	331.3
380.305	308.32
380.682	392.58
381.059	323.64
381.436	321.09
381.813	451.31
382.189	377.26
382.566	318.53
382.943	405.35
383.319	364.49
383.696	326.19
384.072	392.58
384.448	361.94
384.825	384.92
385.201	441.1
385.577	418.12
385.953	338.96
386.329	364.49
386.706	395.14
387.082	290.45
387.458	377.26
387.834	387.48
388.209	410.46
388.585	379.81
388.961	359.39
389.337	361.94
389.713	418.12
390.088	336.41
390.464	367.05
390.839	397.69
391.215	420.67
391.59	387.48
391.966	402.8
392.341	423.22
392.716	341.51
393.092	387.48
393.467	326.19
393.842	369.6
394.217	390.03
394.592	359.39
394.967	315.98
395.342	367.05
395.717	397.69
396.092	346.62
396.467	367.05
396.841	402.8
397.216	341.51
397.591	407.9
397.965	382.37
398.34	331.3
398.714	349.17
399.089	323.64
399.463	413.01
399.838	333.85
400.212	390.03
400.586	367.05
400.961	359.39
401.335	379.81
401.709	318.53
402.083	367.05
402.457	443.65
402.831	341.51
403.205	351.73
403.579	321.09
403.953	402.8
404.326	405.35
404.7	374.71
405.074	338.96
405.447	318.53
405.821	456.42
406.195	405.35
406.568	405.35
406.942	423.22
407.315	351.73
407.688	364.49
408.062	420.67
408.435	349.17
408.808	410.46
409.181	390.03
409.554	374.71
409.927	372.15
410.3	341.51
410.673	377.26
411.046	367.05
411.419	410.46
411.792	384.92
412.165	333.85
412.537	402.8
412.91	351.73
413.283	458.97
413.655	410.46
414.028	415.56
414.4	441.1
414.773	420.67
415.145	341.51
415.517	382.37
415.889	395.14
416.262	407.9
416.634	418.12
417.006	328.75
417.378	446.2
417.75	369.6
418.122	346.62
418.494	367.05
418.866	367.05
419.238	349.17
419.609	438.54
419.981	407.9
420.353	428.33
420.725	458.97
421.096	464.08
421.468	418.12
421.839	387.48
422.211	402.8
422.582	423.22
422.953	323.64
423.325	392.58
423.696	367.05
424.067	400.24
424.438	390.03
424.809	359.39
425.18	359.39
425.551	418.12
425.922	402.8
426.293	402.8
426.664	387.48
427.035	453.86
427.406	413.01
427.776	374.71
428.147	354.28
428.518	402.8
428.888	405.35
429.259	390.03
429.629	405.35
429.999	405.35
430.37	405.35
430.74	420.67
431.11	458.97
431.481	425.78
431.851	410.46
432.221	441.1
432.591	489.61
432.961	382.37
433.331	374.71
433.701	433.44
434.071	367.05
434.441	346.62
434.81	364.49
435.18	446.2
435.55	405.35
435.919	367.05
436.289	351.73
436.658	374.71
437.028	415.56
437.397	369.6
437.767	413.01
438.136	395.14
438.505	359.39
438.875	369.6
439.244	428.33
439.613	333.85
439.982	395.14
440.351	382.37
440.72	377.26
441.089	407.9
441.458	461.52
441.827	471.74
442.196	410.46
442.564	520.25
442.933	392.58
443.302	418.12
443.67	397.69
444.039	387.48
444.407	392.58
444.776	415.56
445.144	387.48
445.513	479.4
445.881	413.01
446.249	395.14
446.617	395.14
446.986	387.48
447.354	377.26
447.722	369.6
448.09	349.17
448.458	338.96
448.826	448.76
449.194	428.33
449.561	367.05
449.929	382.37
450.297	402.8
450.665	413.01
451.032	377.26
451.4	382.37
451.767	446.2
452.135	410.46
452.502	430.88
452.87	397.69
453.237	354.28
453.604	369.6
453.971	443.65
454.339	387.48
454.706	397.69
455.073	369.6
455.44	407.9
455.807	359.39
456.174	423.22
456.541	402.8
456.908	392.58
457.274	402.8
457.641	372.15
458.008	410.46
458.374	430.88
458.741	441.1
459.108	430.88
459.474	435.99
459.841	453.86
460.207	392.58
460.573	346.62
460.94	438.54
461.306	441.1
461.672	487.06
462.038	400.24
462.404	428.33
462.771	382.37
463.137	377.26
463.503	435.99
463.868	423.22
464.234	428.33
464.6	451.31
464.966	418.12
465.332	405.35
465.697	395.14
466.063	428.33
466.429	377.26
466.794	397.69
467.16	415.56
467.525	390.03
467.89	458.97
468.256	438.54
468.621	418.12
468.986	410.46
469.351	448.76
469.717	315.98
470.082	402.8
470.447	433.44
470.812	382.37
471.177	413.01
471.542	377.26
471.906	446.2
472.271	344.07
472.636	390.03
473.001	441.1
473.365	438.54
473.73	420.67
474.094	446.2
474.459	418.12
474.823	367.05
475.188	346.62
475.552	433.44
475.917	395.14
476.281	418.12
476.645	464.08
477.009	392.58
477.373	384.92
477.737	405.35
478.101	367.05
478.465	410.46
478.829	369.6
479.193	405.35
479.557	441.1
479.921	413.01
480.284	413.01
480.648	423.22
481.012	400.24
481.375	407.9
481.739	425.78
482.102	430.88
482.466	374.71
482.829	443.65
483.193	367.05
483.556	338.96
483.919	397.69
484.282	405.35
484.645	446.2
485.009	443.65
485.372	397.69
485.735	443.65
486.098	481.95
486.46	410.46
486.823	420.67
487.186	438.54
487.549	425.78
487.912	458.97
488.274	402.8
488.637	438.54
488.999	407.9
489.362	369.6
489.724	443.65
490.087	435.99
490.449	418.12
490.811	413.01
491.174	402.8
491.536	328.75
491.898	390.03
492.26	428.33
492.622	400.24
492.984	430.88
493.346	448.76
493.708	453.86
494.07	418.12
494.432	453.86
494.794	377.26
495.155	433.44
495.517	338.96
495.879	464.08
496.24	430.88
496.602	438.54
496.963	435.99
497.325	387.48
497.686	420.67
498.048	428.33
498.409	423.22
498.77	395.14
499.131	443.65
499.492	351.73
499.854	407.9
500.215	390.03
500.576	415.56
500.937	354.28
501.298	395.14
501.658	438.54
502.019	443.65
502.38	400.24
502.741	420.67
503.101	400.24
503.462	407.9
503.823	471.74
504.183	387.48
504.543	423.22
504.904	453.86
505.264	423.22
505.625	392.58
505.985	418.12
506.345	379.81
506.705	441.1
507.065	410.46
507.426	435.99
507.786	397.69
508.146	479.4
508.505	402.8
508.865	397.69
509.225	461.52
509.585	499.82
509.945	392.58
510.304	400.24
510.664	402.8
511.024	336.41
511.383	372.15
511.743	456.42
512.102	382.37
512.462	430.88
512.821	458.97
513.18	379.81
513.539	405.35
513.899	441.1
514.258	418.12
514.617	438.54
514.976	382.37
515.335	390.03
515.694	341.51
516.053	402.8
516.412	443.65
516.771	415.56
517.129	423.22
517.488	461.52
517.847	420.67
518.205	456.42
518.564	369.6
518.922	420.67
519.281	407.9
519.639	413.01
519.998	390.03
520.356	438.54
520.714	377.26
521.073	387.48
521.431	328.75
521.789	341.51
522.147	392.58
522.505	387.48
522.863	387.48
523.221	392.58
523.579	400.24
523.937	405.35
524.295	418.12
524.652	443.65
525.01	425.78
525.368	438.54
525.725	451.31
526.083	402.8
526.44	395.14
526.798	405.35
527.155	407.9
527.513	458.97
527.87	446.2
528.227	415.56
528.584	430.88
528.942	433.44
529.299	413.01
529.656	430.88
530.013	471.74
530.37	392.58
530.727	451.31
531.083	374.71
531.44	464.08
531.797	356.83
532.154	441.1
532.511	407.9
532.867	435.99
533.224	405.35
533.58	428.33
533.937	484.5
534.293	428.33
534.65	441.1
535.006	410.46
535.362	397.69
535.718	415.56
536.075	387.48
536.431	321.09
536.787	361.94
537.143	423.22
537.499	446.2
537.855	428.33
538.211	384.92
538.567	415.56
538.923	471.74
539.278	405.35
539.634	453.86
539.99	400.24
540.345	410.46
540.701	407.9
541.056	430.88
541.412	405.35
541.767	443.65
542.123	397.69
542.478	423.22
542.833	418.12
543.188	374.71
543.544	430.88
543.899	433.44
544.254	420.67
544.609	413.01
544.964	369.6
545.319	351.73
545.674	379.81
546.029	402.8
546.383	374.71
546.738	453.86
547.093	456.42
547.447	453.86
547.802	446.2
548.157	369.6
548.511	390.03
548.866	456.42
549.22	441.1
549.574	390.03
549.929	484.5
550.283	392.58
550.637	390.03
550.991	438.54
551.345	377.26
551.699	451.31
552.053	390.03
552.407	418.12
552.761	438.54
553.115	356.83
553.469	387.48
553.823	428.33
554.176	443.65
554.53	407.9
554.884	372.15
555.237	617.28
555.591	423.22
555.944	492.16
556.298	438.54
556.651	384.92
557.005	435.99
557.358	415.56
557.711	433.44
558.064	418.12
558.417	446.2
558.771	471.74
559.124	410.46
559.477	476.84
559.83	361.94
560.182	446.2
560.535	351.73
560.888	351.73
561.241	395.14
561.594	415.56
561.946	410.46
562.299	395.14
562.651	420.67
563.004	374.71
563.356	430.88
563.709	377.26
564.061	390.03
564.413	464.08
564.766	420.67
565.118	397.69
565.47	453.86
565.822	407.9
566.174	374.71
566.526	407.9
566.878	331.3
567.23	405.35
567.582	448.76
567.934	400.24
568.286	382.37
568.638	425.78
568.989	446.2
569.341	402.8
569.693	356.83
570.044	425.78
570.396	400.24
570.747	369.6
571.098	379.81
571.45	392.58
571.801	400.24
572.152	418.12
572.504	392.58
572.855	372.15
573.206	425.78
573.557	453.86
573.908	428.33
574.259	379.81
574.61	390.03
574.961	425.78
575.311	497.27
575.662	356.83
576.013	382.37
576.364	438.54
576.714	390.03
577.065	425.78
577.415	448.76
577.766	435.99
578.116	407.9
578.467	494.72
578.817	461.52
579.167	407.9
579.518	333.85
579.868	361.94
580.218	374.71
580.568	418.12
580.918	397.69
581.268	374.71
581.618	400.24
581.968	461.52
582.318	438.54
582.668	448.76
583.017	420.67
583.367	443.65
583.717	413.01
584.066	438.54
584.416	372.15
584.765	372.15
585.115	395.14
585.464	461.52
585.814	428.33
586.163	441.1
586.512	471.74
586.862	405.35
587.211	464.08
587.56	469.18
587.909	438.54
588.258	397.69
588.607	420.67
588.956	527.91
589.305	443.65
589.654	484.5
590.002	418.12
590.351	443.65
590.7	435.99
591.048	410.46
591.397	400.24
591.746	443.65
592.094	415.56
592.443	405.35
592.791	530.46
593.139	377.26
593.488	430.88
593.836	430.88
594.184	395.14
594.532	428.33
594.88	438.54
595.228	402.8
595.576	428.33
595.924	430.88
596.272	361.94
596.62	387.48
596.968	410.46
597.316	407.9
597.664	458.97
598.011	405.35
598.359	443.65
598.706	413.01
599.054	407.9
599.402	413.01
599.749	400.24
600.096	328.75
600.444	512.59
600.791	489.61
601.138	430.88
601.485	433.44
601.833	438.54
602.18	392.58
602.527	433.44
602.874	392.58
603.221	425.78
603.568	433.44
603.914	374.71
604.261	476.84
604.608	405.35
604.955	390.03
605.301	425.78
605.648	420.67
605.995	461.52
606.341	420.67
606.688	397.69
607.034	456.42
607.38	469.18
607.727	494.72
608.073	346.62
608.419	474.29
608.765	435.99
609.112	397.69
609.458	476.84
609.804	387.48
610.15	323.64
610.496	410.46
610.842	423.22
611.187	435.99
611.533	382.37
611.879	425.78
612.225	433.44
612.57	461.52
612.916	384.92
613.261	441.1
613.607	425.78
613.952	400.24
614.298	423.22
614.643	400.24
614.989	402.8
615.334	349.17
615.679	448.76
616.024	338.96
616.369	382.37
616.714	354.28
617.059	423.22
617.404	305.77
617.749	438.54
618.094	481.95
618.439	430.88
618.784	405.35
619.129	428.33
619.473	402.8
619.818	392.58
620.163	407.9
620.507	476.84
620.852	407.9
621.196	359.39
621.54	441.1
621.885	428.33
622.229	420.67
622.573	407.9
622.918	367.05
623.262	321.09
623.606	356.83
623.95	356.83
624.294	387.48
624.638	418.12
624.982	410.46
625.326	469.18
625.67	346.62
626.013	341.51
626.357	458.97
626.701	423.22
627.044	367.05
627.388	300.66
627.731	384.92
628.075	392.58
628.418	420.67
628.762	372.15
629.105	410.46
629.448	415.56
629.792	415.56
630.135	443.65
630.478	446.2
630.821	367.05
631.164	384.92
631.507	384.92
631.85	410.46
632.193	456.42
632.536	443.65
632.879	415.56
633.221	435.99
633.564	438.54
633.907	395.14
634.249	390.03
634.592	461.52
634.935	369.6
635.277	453.86
635.619	390.03
635.962	407.9
636.304	402.8
636.646	397.69
636.989	410.46
637.331	413.01
637.673	397.69
638.015	384.92
638.357	448.76
638.699	474.29
639.041	323.64
639.383	382.37
639.725	425.78
640.067	361.94
640.408	420.67
640.75	374.71
641.092	420.67
641.433	405.35
641.775	420.67
642.116	413.01
642.458	430.88
642.799	377.26
643.141	425.78
643.482	433.44
643.823	395.14
644.164	402.8
644.506	474.29
644.847	374.71
645.188	415.56
645.529	379.81
645.87	400.24
646.211	420.67
646.552	425.78
646.893	400.24
647.233	423.22
647.574	310.87
647.915	418.12
648.255	405.35
648.596	387.48
648.937	410.46
649.277	410.46
649.618	387.48
649.958	441.1
650.298	392.58
650.639	402.8
650.979	428.33
651.319	387.48
651.659	402.8
651.999	364.49
652.339	405.35
652.679	413.01
653.019	407.9
653.359	430.88
653.699	369.6
654.039	328.75
654.379	364.49
654.719	407.9
655.058	351.73
655.398	372.15
655.737	464.08
656.077	461.52
656.416	382.37
656.756	441.1
657.095	374.71
657.435	415.56
657.774	407.9
658.113	308.32
658.452	433.44
658.792	410.46
659.131	364.49
659.47	407.9
659.809	428.33
660.148	466.63
660.487	387.48
660.826	390.03
661.164	428.33
661.503	413.01
661.842	400.24
662.181	331.3
662.519	397.69
662.858	402.8
663.196	338.96
663.535	367.05
663.873	333.85
664.212	438.54
664.55	400.24
664.888	392.58
665.226	433.44
665.565	390.03
665.903	586.64
666.241	423.22
666.579	400.24
666.917	379.81
667.255	382.37
667.593	344.07
667.931	446.2
668.268	392.58
668.606	438.54
668.944	349.17
669.282	384.92
669.619	451.31
669.957	349.17
670.294	367.05
670.632	448.76
670.969	374.71
671.307	341.51
671.644	423.22
671.981	413.01
672.318	321.09
672.656	379.81
672.993	395.14
673.33	344.07
673.667	374.71
674.004	364.49
674.341	367.05
674.678	395.14
675.015	430.88
675.351	430.88
675.688	446.2
676.025	407.9
676.362	430.88
676.698	351.73
677.035	372.15
677.371	384.92
677.708	407.9
678.044	392.58
678.38	349.17
678.717	430.88
679.053	420.67
679.389	413.01
679.725	415.56
680.062	458.97
680.398	392.58
680.734	392.58
681.07	420.67
681.406	374.71
681.742	387.48
682.077	374.71
682.413	400.24
682.749	382.37
683.085	364.49
683.42	443.65
683.756	374.71
684.091	382.37
684.427	379.81
684.762	420.67
685.098	410.46
685.433	395.14
685.768	328.75
686.104	392.58
686.439	407.9
686.774	407.9
687.109	369.6
687.444	392.58
687.779	405.35
688.114	423.22
688.449	413.01
688.784	423.22
689.119	390.03
689.454	420.67
689.789	410.46
690.123	390.03
690.458	364.49
690.792	418.12
691.127	372.15
691.461	433.44
691.796	367.05
692.13	410.46
692.465	397.69
692.799	410.46
693.133	435.99
693.467	397.69
693.802	407.9
694.136	392.58
694.47	479.4
694.804	369.6
695.138	356.83
695.472	336.41
695.806	344.07
696.139	361.94
696.473	367.05
696.807	356.83
697.141	367.05
697.474	384.92
697.808	369.6
698.141	372.15
698.475	356.83
698.808	453.86
699.142	395.14
699.475	346.62
699.808	338.96
700.142	402.8
700.475	471.74
700.808	374.71
701.141	413.01
701.474	413.01
701.807	415.56
702.14	382.37
702.473	390.03
702.806	395.14
703.139	390.03
703.472	430.88
703.804	313.43
704.137	407.9
704.47	379.81
704.802	397.69
705.135	392.58
705.467	420.67
705.8	336.41
706.132	387.48
706.464	453.86
706.797	415.56
707.129	377.26
707.461	423.22
707.793	464.08
708.125	441.1
708.457	395.14
708.789	428.33
709.121	395.14
709.453	354.28
709.785	418.12
710.117	333.85
710.449	407.9
710.781	405.35
711.112	384.92
711.444	392.58
711.775	395.14
712.107	418.12
712.438	369.6
712.77	323.64
713.101	354.28
713.433	400.24
713.764	336.41
714.095	367.05
714.426	395.14
714.757	425.78
715.089	382.37
715.42	402.8
715.751	413.01
716.082	430.88
716.412	379.81
716.743	364.49
717.074	364.49
717.405	293
717.736	377.26
718.066	356.83
718.397	435.99
718.727	410.46
719.058	435.99
719.388	387.48
719.719	428.33
720.049	425.78
720.38	407.9
720.71	374.71
721.04	387.48
721.37	356.83
721.7	420.67
722.031	387.48
722.361	400.24
722.691	413.01
723.021	361.94
723.35	367.05
723.68	407.9
724.01	402.8
724.34	369.6
724.67	318.53
724.999	428.33
725.329	377.26
725.658	333.85
725.988	392.58
726.317	397.69
726.647	407.9
726.976	392.58
727.306	333.85
727.635	364.49
727.964	387.48
728.293	346.62
728.622	395.14
728.952	390.03
729.281	354.28
729.61	433.44
729.939	428.33
730.267	369.6
730.596	453.86
730.925	481.95
731.254	374.71
731.583	351.73
731.911	423.22
732.24	410.46
732.568	423.22
732.897	369.6
733.225	369.6
733.554	456.42
733.882	397.69
734.21	415.56
734.539	438.54
734.867	448.76
735.195	379.81
735.523	346.62
735.851	384.92
736.179	392.58
736.507	367.05
736.835	361.94
737.163	423.22
737.491	441.1
737.819	415.56
738.147	402.8
738.474	400.24
738.802	517.7
739.13	377.26
739.457	410.46
739.785	425.78
740.112	448.76
740.44	405.35
740.767	392.58
741.094	423.22
741.422	420.67
741.749	387.48
742.076	395.14
742.403	328.75
742.73	384.92
743.057	448.76
743.384	418.12
743.711	333.85
744.038	351.73
744.365	395.14
744.692	372.15
745.018	372.15
745.345	405.35
745.672	395.14
745.998	435.99
746.325	410.46
746.651	415.56
746.978	354.28
747.304	435.99
747.631	338.96
747.957	361.94
748.283	359.39
748.61	420.67
748.936	410.46
749.262	413.01
749.588	282.79
749.914	387.48
750.24	418.12
750.566	402.8
750.892	313.43
751.218	400.24
751.543	397.69
751.869	361.94
752.195	425.78
752.521	446.2
752.846	361.94
753.172	382.37
753.497	349.17
753.823	333.85
754.148	405.35
754.473	400.24
754.799	461.52
755.124	433.44
755.449	410.46
755.774	456.42
756.1	418.12
756.425	448.76
756.75	451.31
757.075	372.15
757.4	522.8
757.724	341.51
758.049	346.62
758.374	402.8
758.699	451.31
759.024	413.01
759.348	379.81
759.673	407.9
759.997	374.71
760.322	402.8
760.646	390.03
760.971	474.29
761.295	423.22
761.619	497.27
761.944	522.8
762.268	535.57
762.592	538.12
762.916	563.66
763.24	604.51
763.564	545.78
763.888	645.37
764.212	757.71
764.536	790.91
764.86	744.95
765.184	859.85
765.508	755.16
765.831	775.59
766.155	1013.05
766.478	867.51
766.802	841.98
767.126	770.48
767.449	806.23
767.772	760.27
768.096	678.56
768.419	619.83
768.742	522.8
769.066	591.75
769.389	578.98
769.712	609.62
770.035	619.83
770.358	816.44
770.681	974.75
771.004	1110.08
771.327	1253.07
771.65	1406.27
771.972	1648.84
772.295	2131.43
772.618	2504.23
772.941	2723.82
773.263	2815.74
773.586	3305.99
773.908	3688.99
774.231	3829.43
774.553	3551.11
774.875	4020.93
775.198	3990.29
775.52	3614.94
775.842	3523.02
776.164	3157.89
776.487	3071.08
776.809	2922.98
777.131	2746.8
777.453	2573.17
777.775	2302.51
778.096	2253.99
778.418	1888.86
778.74	1546.71
779.062	1240.3
779.384	1130.51
779.705	1053.91
780.027	1097.31
780.348	1079.44
780.67	1186.68
780.991	1380.74
781.313	1715.23
781.634	2121.22
781.955	2565.51
782.277	3094.06
782.598	3594.52
782.919	4003.06
783.24	4475.43
783.561	5003.98
783.882	5366.56
784.203	5652.54
784.524	5647.43
784.845	5770
785.166	6198.96
785.487	6635.59
785.807	6911.36
786.128	6816.88
786.449	6495.16
786.769	6352.17
787.09	6349.61
787.41	6431.32
787.731	6523.24
788.051	6372.59
788.372	6209.18
788.692	5711.27
789.012	5083.14
789.332	4296.7
789.653	4013.27
789.973	3650.69
790.293	2966.39
790.613	2243.78
790.933	1860.77
791.253	1592.67
791.573	1273.5
791.893	1043.69
792.212	982.41
792.532	959.43
792.852	1102.42
793.171	1472.66
793.491	1643.74
793.811	2205.48
794.13	2568.06
794.45	2981.71
794.769	3482.17
795.088	4064.34
795.408	4820.14
795.727	5905.32
796.046	7220.31
796.365	8272.31
796.684	8297.84
797.004	8338.69
797.323	8737.02
797.642	10018.82
797.96	9569.42
798.279	9132.79
798.598	9076.62
798.917	9056.19
799.236	8594.03
799.554	8354.01
799.873	7633.96
800.192	7299.47
800.51	6911.36
800.829	6472.17
801.147	5790.42
