Data from 2025-12-03_xpw_interference_micrometer_631_FLMS141361__49__599.txt Node

Date: Wed Dec 03 15:54:09 MST 2025
User: james
Spectrometer: FLMS14136
Trigger mode: 0
Integration Time (sec): 1.000000E-1
Scans to average: 1
Electric dark correction enabled: true
Nonlinearity correction enabled: false
Boxcar width: 0
XAxis mode: Wavelengths
Number of Pixels in Spectrum: 2048
>>>>>Begin Spectral Data<<<<<
339.315	-45
339.697	-45
340.079	-45
340.461	-42.45
340.843	-32.24
341.225	-85.86
341.607	-111.39
341.989	-83.3
342.371	-80.75
342.752	-96.07
343.134	-39.9
343.516	-73.09
343.897	0.96
344.279	49.47
344.661	6.06
345.042	64.79
345.423	87.77
345.805	80.11
346.186	118.41
346.567	82.67
346.949	80.11
347.33	174.59
347.711	230.76
348.092	281.83
348.473	187.35
348.854	276.72
349.235	258.85
349.616	240.98
349.997	230.76
350.378	279.28
350.758	304.81
351.139	345.66
351.52	343.11
351.9	322.68
352.281	345.66
352.661	424.82
353.042	378.86
353.422	429.93
353.803	440.14
354.183	399.28
354.563	435.03
354.943	406.94
355.324	422.26
355.704	386.52
356.084	386.52
356.464	368.64
356.844	429.93
357.224	355.88
357.603	373.75
357.983	404.39
358.363	406.94
358.743	401.84
359.122	399.28
359.502	358.43
359.882	343.11
360.261	429.93
360.641	350.77
361.02	330.34
361.399	376.3
361.779	281.83
362.158	304.81
362.537	340.56
362.916	335.45
363.296	363.54
363.675	297.15
364.054	368.64
364.433	391.62
364.812	338
365.19	332.9
365.569	360.98
365.948	376.3
366.327	304.81
366.705	412.05
367.084	414.6
367.463	345.66
367.841	363.54
368.22	332.9
368.598	381.41
368.977	368.64
369.355	383.96
369.733	332.9
370.111	343.11
370.49	304.81
370.868	345.66
371.246	348.22
371.624	419.71
372.002	368.64
372.38	363.54
372.758	445.25
373.136	452.91
373.513	315.02
373.891	371.2
374.269	404.39
374.646	450.35
375.024	381.41
375.402	348.22
375.779	412.05
376.157	394.18
376.534	412.05
376.911	386.52
377.289	386.52
377.666	412.05
378.043	343.11
378.42	396.73
378.797	358.43
379.175	327.79
379.552	355.88
379.929	312.47
380.305	363.54
380.682	366.09
381.059	366.09
381.436	358.43
381.813	358.43
382.189	343.11
382.566	363.54
382.943	353.32
383.319	371.2
383.696	366.09
384.072	409.5
384.448	383.96
384.825	429.93
385.201	366.09
385.577	378.86
385.953	381.41
386.329	317.58
386.706	381.41
387.082	378.86
387.458	366.09
387.834	452.91
388.209	386.52
388.585	325.24
388.961	350.77
389.337	399.28
389.713	345.66
390.088	363.54
390.464	348.22
390.839	376.3
391.215	284.38
391.59	394.18
391.966	450.35
392.341	406.94
392.716	424.82
393.092	373.75
393.467	383.96
393.842	396.73
394.217	368.64
394.592	383.96
394.967	399.28
395.342	419.71
395.717	363.54
396.092	350.77
396.467	404.39
396.841	412.05
397.216	360.98
397.591	332.9
397.965	350.77
398.34	404.39
398.714	360.98
399.089	422.26
399.463	440.14
399.838	447.8
400.212	394.18
400.586	360.98
400.961	412.05
401.335	345.66
401.709	409.5
402.083	358.43
402.457	396.73
402.831	422.26
403.205	414.6
403.579	412.05
403.953	422.26
404.326	338
404.7	386.52
405.074	414.6
405.447	340.56
405.821	371.2
406.195	401.84
406.568	353.32
406.942	455.46
407.315	391.62
407.688	335.45
408.062	345.66
408.435	455.46
408.808	389.07
409.181	427.37
409.554	378.86
409.927	440.14
410.3	440.14
410.673	381.41
411.046	419.71
411.419	447.8
411.792	376.3
412.165	412.05
412.537	386.52
412.91	406.94
413.283	404.39
413.655	429.93
414.028	345.66
414.4	404.39
414.773	414.6
415.145	373.75
415.517	340.56
415.889	378.86
416.262	409.5
416.634	394.18
417.006	383.96
417.378	320.13
417.75	437.59
418.122	412.05
418.494	363.54
418.866	429.93
419.238	371.2
419.609	394.18
419.981	345.66
420.353	419.71
420.725	473.33
421.096	442.69
421.468	414.6
421.839	455.46
422.211	452.91
422.582	473.33
422.953	417.16
423.325	399.28
423.696	414.6
424.067	396.73
424.438	406.94
424.809	404.39
425.18	386.52
425.551	470.78
425.922	378.86
426.293	373.75
426.664	455.46
427.035	516.74
427.406	422.26
427.776	442.69
428.147	383.96
428.518	399.28
428.888	302.26
429.259	386.52
429.629	447.8
429.999	394.18
430.37	391.62
430.74	445.25
431.11	368.64
431.481	460.57
431.851	414.6
432.221	422.26
432.591	363.54
432.961	381.41
433.331	452.91
433.701	383.96
434.071	437.59
434.441	409.5
434.81	345.66
435.18	437.59
435.55	424.82
435.919	363.54
436.289	432.48
436.658	419.71
437.028	394.18
437.397	480.99
437.767	414.6
438.136	473.33
438.505	447.8
438.875	440.14
439.244	447.8
439.613	399.28
439.982	422.26
440.351	399.28
440.72	427.37
441.089	445.25
441.458	391.62
441.827	412.05
442.196	478.44
442.564	470.78
442.933	358.43
443.302	452.91
443.67	406.94
444.039	440.14
444.407	427.37
444.776	406.94
445.144	401.84
445.513	338
445.881	396.73
446.249	373.75
446.617	394.18
446.986	396.73
447.354	417.16
447.722	414.6
448.09	389.07
448.458	455.46
448.826	475.89
449.194	424.82
449.561	399.28
449.929	376.3
450.297	440.14
450.665	358.43
451.032	440.14
451.4	406.94
451.767	435.03
452.135	412.05
452.502	376.3
452.87	452.91
453.237	399.28
453.604	404.39
453.971	391.62
454.339	383.96
454.706	406.94
455.073	432.48
455.44	511.63
455.807	401.84
456.174	465.67
456.541	429.93
456.908	391.62
457.274	396.73
457.641	458.01
458.008	450.35
458.374	396.73
458.741	412.05
459.108	475.89
459.474	465.67
459.841	366.09
460.207	450.35
460.573	412.05
460.94	455.46
461.306	409.5
461.672	399.28
462.038	452.91
462.404	458.01
462.771	429.93
463.137	442.69
463.503	406.94
463.868	417.16
464.234	404.39
464.6	442.69
464.966	360.98
465.332	327.79
465.697	414.6
466.063	419.71
466.429	452.91
466.794	406.94
467.16	417.16
467.525	368.64
467.89	417.16
468.256	417.16
468.621	435.03
468.986	450.35
469.351	401.84
469.717	450.35
470.082	404.39
470.447	383.96
470.812	401.84
471.177	422.26
471.542	452.91
471.906	414.6
472.271	435.03
472.636	376.3
473.001	335.45
473.365	396.73
473.73	414.6
474.094	419.71
474.459	409.5
474.823	429.93
475.188	414.6
475.552	470.78
475.917	391.62
476.281	473.33
476.645	509.08
477.009	424.82
477.373	396.73
477.737	406.94
478.101	355.88
478.465	404.39
478.829	409.5
479.193	373.75
479.557	414.6
479.921	363.54
480.284	404.39
480.648	386.52
481.012	378.86
481.375	440.14
481.739	429.93
482.102	475.89
482.466	394.18
482.829	437.59
483.193	437.59
483.556	483.55
483.919	419.71
484.282	404.39
484.645	373.75
485.009	424.82
485.372	396.73
485.735	463.12
486.098	419.71
486.46	450.35
486.823	455.46
487.186	389.07
487.549	391.62
487.912	396.73
488.274	452.91
488.637	409.5
488.999	366.09
489.362	396.73
489.724	435.03
490.087	417.16
490.449	427.37
490.811	373.75
491.174	429.93
491.536	394.18
491.898	394.18
492.26	348.22
492.622	414.6
492.984	437.59
493.346	368.64
493.708	373.75
494.07	396.73
494.432	383.96
494.794	414.6
495.155	422.26
495.517	389.07
495.879	450.35
496.24	419.71
496.602	429.93
496.963	452.91
497.325	417.16
497.686	478.44
498.048	422.26
498.409	442.69
498.77	432.48
499.131	363.54
499.492	450.35
499.854	412.05
500.215	360.98
500.576	401.84
500.937	429.93
501.298	452.91
501.658	493.76
502.019	483.55
502.38	427.37
502.741	442.69
503.101	427.37
503.462	417.16
503.823	396.73
504.183	470.78
504.543	401.84
504.904	460.57
505.264	383.96
505.625	465.67
505.985	412.05
506.345	468.23
506.705	478.44
507.065	394.18
507.426	409.5
507.786	391.62
508.146	506.53
508.505	378.86
508.865	491.21
509.225	432.48
509.585	463.12
509.945	389.07
510.304	417.16
510.664	401.84
511.024	355.88
511.383	412.05
511.743	427.37
512.102	455.46
512.462	406.94
512.821	363.54
513.18	447.8
513.539	404.39
513.899	419.71
514.258	389.07
514.617	378.86
514.976	486.1
515.335	455.46
515.694	437.59
516.053	412.05
516.412	463.12
516.771	409.5
517.129	373.75
517.488	399.28
517.847	401.84
518.205	468.23
518.564	422.26
518.922	424.82
519.281	355.88
519.639	437.59
519.998	440.14
520.356	376.3
520.714	378.86
521.073	399.28
521.431	389.07
521.789	437.59
522.147	455.46
522.505	458.01
522.863	427.37
523.221	417.16
523.579	373.75
523.937	435.03
524.295	424.82
524.652	353.32
525.01	435.03
525.368	429.93
525.725	532.06
526.083	429.93
526.44	358.43
526.798	455.46
527.155	463.12
527.513	447.8
527.87	427.37
528.227	432.48
528.584	496.31
528.942	452.91
529.299	363.54
529.656	455.46
530.013	396.73
530.37	343.11
530.727	422.26
531.083	409.5
531.44	409.5
531.797	440.14
532.154	440.14
532.511	371.2
532.867	381.41
533.224	417.16
533.58	478.44
533.937	427.37
534.293	391.62
534.65	447.8
535.006	429.93
535.362	394.18
535.718	358.43
536.075	432.48
536.431	429.93
536.787	366.09
537.143	404.39
537.499	473.33
537.855	396.73
538.211	401.84
538.567	414.6
538.923	496.31
539.278	498.87
539.634	429.93
539.99	432.48
540.345	429.93
540.701	440.14
541.056	424.82
541.412	406.94
541.767	458.01
542.123	396.73
542.478	503.97
542.833	445.25
543.188	332.9
543.544	404.39
543.899	419.71
544.254	437.59
544.609	455.46
544.964	383.96
545.319	450.35
545.674	432.48
546.029	435.03
546.383	394.18
546.738	440.14
547.093	386.52
547.447	437.59
547.802	404.39
548.157	353.32
548.511	391.62
548.866	414.6
549.22	465.67
549.574	435.03
549.929	440.14
550.283	376.3
550.637	389.07
550.991	450.35
551.345	445.25
551.699	396.73
552.053	368.64
552.407	340.56
552.761	437.59
553.115	435.03
553.469	435.03
553.823	422.26
554.176	396.73
554.53	399.28
554.884	419.71
555.237	736.33
555.591	417.16
555.944	532.06
556.298	417.16
556.651	412.05
557.005	371.2
557.358	435.03
557.711	468.23
558.064	368.64
558.417	396.73
558.771	452.91
559.124	480.99
559.477	394.18
559.83	463.12
560.182	394.18
560.535	391.62
560.888	427.37
561.241	455.46
561.594	406.94
561.946	368.64
562.299	406.94
562.651	419.71
563.004	424.82
563.356	404.39
563.709	422.26
564.061	424.82
564.413	396.73
564.766	378.86
565.118	348.22
565.47	386.52
565.822	409.5
566.174	358.43
566.526	417.16
566.878	371.2
567.23	480.99
567.582	452.91
567.934	406.94
568.286	404.39
568.638	458.01
568.989	412.05
569.341	406.94
569.693	475.89
570.044	450.35
570.396	383.96
570.747	386.52
571.098	521.85
571.45	450.35
571.801	422.26
572.152	460.57
572.504	419.71
572.855	406.94
573.206	412.05
573.557	442.69
573.908	391.62
574.259	391.62
574.61	409.5
574.961	401.84
575.311	376.3
575.662	427.37
576.013	406.94
576.364	437.59
576.714	427.37
577.065	389.07
577.415	491.21
577.766	429.93
578.116	460.57
578.467	317.58
578.817	360.98
579.167	417.16
579.518	427.37
579.868	463.12
580.218	412.05
580.568	447.8
580.918	460.57
581.268	470.78
581.618	427.37
581.968	442.69
582.318	419.71
582.668	422.26
583.017	417.16
583.367	475.89
583.717	396.73
584.066	412.05
584.416	493.76
584.765	475.89
585.115	475.89
585.464	424.82
585.814	401.84
586.163	432.48
586.512	378.86
586.862	435.03
587.211	363.54
587.56	391.62
587.909	366.09
588.258	473.33
588.607	378.86
588.956	450.35
589.305	412.05
589.654	429.93
590.002	381.41
590.351	406.94
590.7	427.37
591.048	427.37
591.397	417.16
591.746	488.65
592.094	414.6
592.443	440.14
592.791	404.39
593.139	486.1
593.488	445.25
593.836	445.25
594.184	427.37
594.532	394.18
594.88	404.39
595.228	358.43
595.576	317.58
595.924	373.75
596.272	389.07
596.62	332.9
596.968	432.48
597.316	412.05
597.664	419.71
598.011	427.37
598.359	414.6
598.706	345.66
599.054	360.98
599.402	412.05
599.749	419.71
600.096	414.6
600.444	460.57
600.791	350.77
601.138	447.8
601.485	371.2
601.833	389.07
602.18	412.05
602.527	412.05
602.874	445.25
603.221	468.23
603.568	381.41
603.914	442.69
604.261	427.37
604.608	363.54
604.955	409.5
605.301	345.66
605.648	376.3
605.995	394.18
606.341	404.39
606.688	437.59
607.034	363.54
607.38	373.75
607.727	343.11
608.073	368.64
608.419	368.64
608.765	480.99
609.112	399.28
609.458	419.71
609.804	396.73
610.15	371.2
610.496	427.37
610.842	437.59
611.187	401.84
611.533	353.32
611.879	442.69
612.225	394.18
612.57	399.28
612.916	381.41
613.261	409.5
613.607	458.01
613.952	429.93
614.298	422.26
614.643	452.91
614.989	412.05
615.334	409.5
615.679	406.94
616.024	396.73
616.369	366.09
616.714	432.48
617.059	391.62
617.404	383.96
617.749	419.71
618.094	414.6
618.439	360.98
618.784	452.91
619.129	419.71
619.473	376.3
619.818	424.82
620.163	396.73
620.507	381.41
620.852	396.73
621.196	394.18
621.54	399.28
621.885	307.36
622.229	315.02
622.573	378.86
622.918	470.78
623.262	406.94
623.606	437.59
623.95	363.54
624.294	427.37
624.638	437.59
624.982	419.71
625.326	419.71
625.67	373.75
626.013	414.6
626.357	399.28
626.701	458.01
627.044	447.8
627.388	414.6
627.731	404.39
628.075	386.52
628.418	399.28
628.762	399.28
629.105	399.28
629.448	353.32
629.792	440.14
630.135	391.62
630.478	442.69
630.821	432.48
631.164	383.96
631.507	386.52
631.85	360.98
632.193	360.98
632.536	468.23
632.879	404.39
633.221	419.71
633.564	427.37
633.907	340.56
634.249	368.64
634.592	409.5
634.935	427.37
635.277	368.64
635.619	401.84
635.962	376.3
636.304	437.59
636.646	394.18
636.989	427.37
637.331	340.56
637.673	450.35
638.015	404.39
638.357	348.22
638.699	414.6
639.041	396.73
639.383	442.69
639.725	353.32
640.067	391.62
640.408	404.39
640.75	440.14
641.092	391.62
641.433	414.6
641.775	442.69
642.116	373.75
642.458	458.01
642.799	381.41
643.141	429.93
643.482	473.33
643.823	445.25
644.164	424.82
644.506	452.91
644.847	406.94
645.188	396.73
645.529	368.64
645.87	409.5
646.211	458.01
646.552	450.35
646.893	419.71
647.233	360.98
647.574	406.94
647.915	424.82
648.255	386.52
648.596	391.62
648.937	422.26
649.277	368.64
649.618	424.82
649.958	378.86
650.298	442.69
650.639	447.8
650.979	386.52
651.319	455.46
651.659	396.73
651.999	401.84
652.339	348.22
652.679	399.28
653.019	429.93
653.359	343.11
653.699	360.98
654.039	442.69
654.379	401.84
654.719	447.8
655.058	383.96
655.398	396.73
655.737	458.01
656.077	366.09
656.416	394.18
656.756	404.39
657.095	383.96
657.435	429.93
657.774	409.5
658.113	378.86
658.452	363.54
658.792	383.96
659.131	391.62
659.47	386.52
659.809	437.59
660.148	475.89
660.487	409.5
660.826	396.73
661.164	358.43
661.503	429.93
661.842	424.82
662.181	406.94
662.519	404.39
662.858	458.01
663.196	442.69
663.535	389.07
663.873	429.93
664.212	348.22
664.55	450.35
664.888	478.44
665.226	427.37
665.565	386.52
665.903	641.86
666.241	458.01
666.579	440.14
666.917	399.28
667.255	409.5
667.593	435.03
667.931	414.6
668.268	391.62
668.606	406.94
668.944	452.91
669.282	409.5
669.619	465.67
669.957	406.94
670.294	399.28
670.632	406.94
670.969	366.09
671.307	475.89
671.644	399.28
671.981	350.77
672.318	424.82
672.656	404.39
672.993	435.03
673.33	452.91
673.667	422.26
674.004	394.18
674.341	414.6
674.678	414.6
675.015	427.37
675.351	406.94
675.688	368.64
676.025	409.5
676.362	343.11
676.698	419.71
677.035	338
677.371	345.66
677.708	452.91
678.044	378.86
678.38	381.41
678.717	396.73
679.053	455.46
679.389	417.16
679.725	401.84
680.062	447.8
680.398	404.39
680.734	414.6
681.07	414.6
681.406	432.48
681.742	445.25
682.077	383.96
682.413	480.99
682.749	429.93
683.085	396.73
683.42	455.46
683.756	440.14
684.091	442.69
684.427	360.98
684.762	399.28
685.098	338
685.433	401.84
685.768	386.52
686.104	355.88
686.439	437.59
686.774	447.8
687.109	458.01
687.444	409.5
687.779	378.86
688.114	435.03
688.449	358.43
688.784	363.54
689.119	473.33
689.454	350.77
689.789	317.58
690.123	427.37
690.458	419.71
690.792	437.59
691.127	381.41
691.461	468.23
691.796	404.39
692.13	381.41
692.465	419.71
692.799	452.91
693.133	383.96
693.467	343.11
693.802	437.59
694.136	381.41
694.47	412.05
694.804	424.82
695.138	373.75
695.472	348.22
695.806	391.62
696.139	386.52
696.473	363.54
696.807	338
697.141	406.94
697.474	376.3
697.808	368.64
698.141	455.46
698.475	386.52
698.808	383.96
699.142	470.78
699.475	412.05
699.808	394.18
700.142	373.75
700.475	404.39
700.808	396.73
701.141	396.73
701.474	363.54
701.807	455.46
702.14	409.5
702.473	414.6
702.806	409.5
703.139	414.6
703.472	409.5
703.804	458.01
704.137	450.35
704.47	473.33
704.802	419.71
705.135	463.12
705.467	399.28
705.8	401.84
706.132	447.8
706.464	437.59
706.797	406.94
707.129	452.91
707.461	406.94
707.793	373.75
708.125	419.71
708.457	399.28
708.789	432.48
709.121	368.64
709.453	455.46
709.785	473.33
710.117	406.94
710.449	458.01
710.781	447.8
711.112	435.03
711.444	478.44
711.775	501.42
712.107	496.31
712.438	348.22
712.77	399.28
713.101	409.5
713.433	427.37
713.764	394.18
714.095	417.16
714.426	417.16
714.757	463.12
715.089	389.07
715.42	501.42
715.751	435.03
716.082	445.25
716.412	371.2
716.743	406.94
717.074	412.05
717.405	363.54
717.736	409.5
718.066	355.88
718.397	338
718.727	330.34
719.058	312.47
719.388	381.41
719.719	394.18
720.049	391.62
720.38	417.16
720.71	486.1
721.04	366.09
721.37	435.03
721.7	432.48
722.031	383.96
722.361	394.18
722.691	394.18
723.021	445.25
723.35	345.66
723.68	389.07
724.01	419.71
724.34	343.11
724.67	445.25
724.999	455.46
725.329	406.94
725.658	468.23
725.988	491.21
726.317	389.07
726.647	409.5
726.976	424.82
727.306	414.6
727.635	406.94
727.964	422.26
728.293	315.02
728.622	348.22
728.952	404.39
729.281	429.93
729.61	422.26
729.939	445.25
730.267	432.48
730.596	532.06
730.925	437.59
731.254	417.16
731.583	327.79
731.911	315.02
732.24	355.88
732.568	440.14
732.897	389.07
733.225	437.59
733.554	424.82
733.882	414.6
734.21	478.44
734.539	376.3
734.867	424.82
735.195	404.39
735.523	378.86
735.851	383.96
736.179	435.03
736.507	455.46
736.835	429.93
737.163	473.33
737.491	378.86
737.819	338
738.147	358.43
738.474	458.01
738.802	473.33
739.13	463.12
739.457	371.2
739.785	422.26
740.112	424.82
740.44	432.48
740.767	447.8
741.094	386.52
741.422	422.26
741.749	409.5
742.076	391.62
742.403	399.28
742.73	394.18
743.057	452.91
743.384	330.34
743.711	345.66
744.038	396.73
744.365	394.18
744.692	386.52
745.018	360.98
745.345	338
745.672	404.39
745.998	378.86
746.325	368.64
746.651	355.88
746.978	350.77
747.304	363.54
747.631	340.56
747.957	396.73
748.283	440.14
748.61	442.69
748.936	394.18
749.262	396.73
749.588	368.64
749.914	386.52
750.24	473.33
750.566	450.35
750.892	450.35
751.218	396.73
751.543	435.03
751.869	401.84
752.195	427.37
752.521	386.52
752.846	399.28
753.172	378.86
753.497	452.91
753.823	460.57
754.148	470.78
754.473	427.37
754.799	355.88
755.124	468.23
755.449	427.37
755.774	432.48
756.1	368.64
756.425	455.46
756.75	389.07
757.075	389.07
757.4	570.36
757.724	473.33
758.049	445.25
758.374	458.01
758.699	417.16
759.024	348.22
759.348	432.48
759.673	409.5
759.997	389.07
760.322	465.67
760.646	396.73
760.971	432.48
761.295	401.84
761.619	437.59
761.944	455.46
762.268	455.46
762.592	463.12
762.916	519.29
763.24	578.02
763.564	613.77
763.888	664.84
764.212	667.39
764.536	777.18
764.86	766.97
765.184	743.99
765.508	830.81
765.831	774.63
766.155	1040.18
766.478	938.05
766.802	823.15
767.126	749.1
767.449	741.44
767.772	761.86
768.096	736.33
768.419	639.3
768.742	585.68
769.066	629.09
769.389	608.66
769.712	621.43
770.035	695.48
770.358	841.02
770.681	1032.52
771.004	1098.91
771.327	1425.74
771.65	1443.62
771.972	1760.23
772.295	2112.6
772.618	2482.84
772.941	2784.14
773.263	3026.71
773.586	3419.93
773.908	3718.68
774.231	3859.11
774.553	3769.74
774.875	4088.92
775.198	3974.01
775.52	3762.08
775.842	3550.15
776.164	3195.23
776.487	3006.28
776.809	2939.9
777.131	2776.48
777.453	2620.72
777.775	2385.81
778.096	2204.52
778.418	1885.35
778.74	1573.84
779.062	1282.75
779.384	1134.66
779.705	1144.87
780.027	1119.34
780.348	1142.32
780.67	1190.83
780.991	1499.79
781.313	1795.98
781.634	2283.68
781.955	2687.11
782.277	3182.47
782.598	3779.96
782.919	4214.03
783.24	4591.93
783.561	4977.49
783.882	5546.89
784.203	5763.93
784.524	5940.11
784.845	6006.5
785.166	6366.53
785.487	6826.14
785.807	7066.15
786.128	6833.8
786.449	6739.32
786.769	6478.88
787.09	6386.96
787.41	6369.08
787.731	6392.06
788.051	6435.47
788.372	6039.7
788.692	5763.93
789.012	5194.53
789.332	4454.05
789.653	3899.97
789.973	3695.7
790.293	3016.5
790.613	2258.14
790.933	1887.9
791.253	1578.95
791.573	1282.75
791.893	1127
792.212	902.3
792.532	945.71
792.852	1088.7
793.171	1349.14
793.491	1744.91
793.811	2276.02
794.13	2738.18
794.45	3136.51
794.769	3522.07
795.088	4208.92
795.408	4867.7
795.727	6106.08
796.046	7423.63
796.365	8488.39
796.684	8730.96
797.004	8539.45
797.323	9244.19
797.642	10045.95
797.96	9512.29
798.279	9218.65
798.598	9068
798.917	9119.07
799.236	8718.19
799.554	8266.24
799.873	7707.05
800.192	7375.11
800.51	6997.21
800.829	6466.11
801.147	5743.5
