Data from 2025-12-03_xpw_interference_micrometer_631_FLMS141361__31__581.txt Node

Date: Wed Dec 03 15:54:07 MST 2025
User: james
Spectrometer: FLMS14136
Trigger mode: 0
Integration Time (sec): 1.000000E-1
Scans to average: 1
Electric dark correction enabled: true
Nonlinearity correction enabled: false
Boxcar width: 0
XAxis mode: Wavelengths
Number of Pixels in Spectrum: 2048
>>>>>Begin Spectral Data<<<<<
339.315	-66.55
339.697	-66.55
340.079	-66.55
340.461	-130.38
340.843	-117.61
341.225	-30.8
341.607	-35.91
341.989	-46.12
342.371	-84.42
342.752	-107.4
343.134	-79.31
343.516	-71.65
343.897	-76.76
344.279	-46.12
344.661	-35.91
345.042	84.1
345.423	73.89
345.805	76.44
346.186	81.55
346.567	117.3
346.949	181.13
347.33	135.17
347.711	117.3
348.092	191.34
348.473	163.26
348.854	290.93
349.235	267.95
349.616	229.64
349.997	280.71
350.378	278.16
350.758	321.57
351.139	329.23
351.52	311.35
351.9	382.85
352.281	370.08
352.661	341.99
353.042	395.61
353.422	382.85
353.803	423.7
354.183	390.51
354.563	418.59
354.943	403.27
355.324	398.17
355.704	428.81
356.084	421.15
356.464	451.79
356.844	428.81
357.224	359.87
357.603	364.97
357.983	324.12
358.363	482.43
358.743	380.29
359.122	349.65
359.502	413.49
359.882	372.63
360.261	370.08
360.641	390.51
361.02	349.65
361.399	367.53
361.779	382.85
362.158	390.51
362.537	354.76
362.916	364.97
363.296	380.29
363.675	347.1
364.054	370.08
364.433	331.78
364.812	377.74
365.19	380.29
365.569	370.08
365.948	354.76
366.327	403.27
366.705	308.8
367.084	334.33
367.463	385.4
367.841	352.21
368.22	372.63
368.598	319.01
368.977	372.63
369.355	301.14
369.733	367.53
370.111	362.42
370.49	390.51
370.868	393.06
371.246	347.1
371.624	349.65
372.002	331.78
372.38	364.97
372.758	290.93
373.136	380.29
373.513	339.44
373.891	362.42
374.269	331.78
374.646	341.99
375.024	400.72
375.402	390.51
375.779	367.53
376.157	341.99
376.534	336.89
376.911	313.91
377.289	390.51
377.666	359.87
378.043	306.25
378.42	390.51
378.797	362.42
379.175	375.19
379.552	364.97
379.929	370.08
380.305	370.08
380.682	372.63
381.059	372.63
381.436	372.63
381.813	364.97
382.189	329.23
382.566	331.78
382.943	362.42
383.319	362.42
383.696	382.85
384.072	395.61
384.448	352.21
384.825	408.38
385.201	321.57
385.577	372.63
385.953	367.53
386.329	321.57
386.706	441.57
387.082	362.42
387.458	321.57
387.834	334.33
388.209	362.42
388.585	375.19
388.961	398.17
389.337	393.06
389.713	352.21
390.088	408.38
390.464	372.63
390.839	380.29
391.215	316.46
391.59	301.14
391.966	370.08
392.341	347.1
392.716	390.51
393.092	405.83
393.467	357.31
393.842	359.87
394.217	329.23
394.592	410.93
394.967	413.49
395.342	375.19
395.717	329.23
396.092	364.97
396.467	349.65
396.841	306.25
397.216	352.21
397.591	359.87
397.965	326.67
398.34	380.29
398.714	329.23
399.089	301.14
399.463	390.51
399.838	359.87
400.212	400.72
400.586	349.65
400.961	464.56
401.335	354.76
401.709	298.59
402.083	349.65
402.457	334.33
402.831	398.17
403.205	423.7
403.579	385.4
403.953	370.08
404.326	347.1
404.7	354.76
405.074	408.38
405.447	408.38
405.821	359.87
406.195	359.87
406.568	393.06
406.942	400.72
407.315	364.97
407.688	400.72
408.062	380.29
408.435	321.57
408.808	390.51
409.181	413.49
409.554	405.83
409.927	400.72
410.3	382.85
410.673	319.01
411.046	418.59
411.419	413.49
411.792	359.87
412.165	357.31
412.537	436.47
412.91	400.72
413.283	387.95
413.655	370.08
414.028	416.04
414.4	398.17
414.773	334.33
415.145	319.01
415.517	416.04
415.889	321.57
416.262	421.15
416.634	357.31
417.006	308.8
417.378	362.42
417.75	377.74
418.122	410.93
418.494	349.65
418.866	334.33
419.238	347.1
419.609	359.87
419.981	400.72
420.353	421.15
420.725	367.53
421.096	380.29
421.468	380.29
421.839	364.97
422.211	324.12
422.582	339.44
422.953	405.83
423.325	364.97
423.696	341.99
424.067	408.38
424.438	400.72
424.809	341.99
425.18	372.63
425.551	362.42
425.922	390.51
426.293	400.72
426.664	393.06
427.035	403.27
427.406	377.74
427.776	359.87
428.147	334.33
428.518	377.74
428.888	347.1
429.259	329.23
429.629	380.29
429.999	341.99
430.37	375.19
430.74	421.15
431.11	451.79
431.481	431.36
431.851	382.85
432.221	413.49
432.591	416.04
432.961	410.93
433.331	416.04
433.701	393.06
434.071	413.49
434.441	393.06
434.81	431.36
435.18	423.7
435.55	408.38
435.919	362.42
436.289	398.17
436.658	370.08
437.028	408.38
437.397	354.76
437.767	367.53
438.136	395.61
438.505	416.04
438.875	421.15
439.244	433.91
439.613	395.61
439.982	372.63
440.351	423.7
440.72	426.25
441.089	372.63
441.458	398.17
441.827	377.74
442.196	331.78
442.564	439.02
442.933	393.06
443.302	400.72
443.67	375.19
444.039	423.7
444.407	375.19
444.776	367.53
445.144	375.19
445.513	382.85
445.881	408.38
446.249	413.49
446.617	410.93
446.986	408.38
447.354	377.74
447.722	441.57
448.09	393.06
448.458	400.72
448.826	380.29
449.194	339.44
449.561	354.76
449.929	423.7
450.297	390.51
450.665	400.72
451.032	364.97
451.4	454.34
451.767	413.49
452.135	410.93
452.502	416.04
452.87	341.99
453.237	439.02
453.604	377.74
453.971	400.72
454.339	479.88
454.706	372.63
455.073	349.65
455.44	405.83
455.807	400.72
456.174	385.4
456.541	479.88
456.908	431.36
457.274	352.21
457.641	416.04
458.008	382.85
458.374	451.79
458.741	416.04
459.108	377.74
459.474	433.91
459.841	341.99
460.207	375.19
460.573	428.81
460.94	370.08
461.306	357.31
461.672	372.63
462.038	372.63
462.404	390.51
462.771	354.76
463.137	359.87
463.503	423.7
463.868	403.27
464.234	375.19
464.6	362.42
464.966	370.08
465.332	469.66
465.697	382.85
466.063	372.63
466.429	382.85
466.794	390.51
467.16	456.9
467.525	444.13
467.89	377.74
468.256	352.21
468.621	354.76
468.986	362.42
469.351	413.49
469.717	385.4
470.082	444.13
470.447	357.31
470.812	316.46
471.177	382.85
471.542	393.06
471.906	398.17
472.271	416.04
472.636	431.36
473.001	423.7
473.365	423.7
473.73	359.87
474.094	403.27
474.459	416.04
474.823	362.42
475.188	408.38
475.552	410.93
475.917	387.95
476.281	459.45
476.645	510.52
477.009	395.61
477.373	370.08
477.737	370.08
478.101	400.72
478.465	518.18
478.829	362.42
479.193	339.44
479.557	324.12
479.921	359.87
480.284	428.81
480.648	413.49
481.012	385.4
481.375	418.59
481.739	349.65
482.102	359.87
482.466	387.95
482.829	433.91
483.193	354.76
483.556	364.97
483.919	334.33
484.282	380.29
484.645	418.59
485.009	433.91
485.372	418.59
485.735	398.17
486.098	395.61
486.46	375.19
486.823	403.27
487.186	390.51
487.549	370.08
487.912	403.27
488.274	439.02
488.637	449.23
488.999	395.61
489.362	349.65
489.724	403.27
490.087	395.61
490.449	390.51
490.811	341.99
491.174	364.97
491.536	403.27
491.898	336.89
492.26	385.4
492.622	393.06
492.984	418.59
493.346	408.38
493.708	390.51
494.07	398.17
494.432	413.49
494.794	426.25
495.155	436.47
495.517	405.83
495.879	421.15
496.24	367.53
496.602	398.17
496.963	449.23
497.325	387.95
497.686	446.68
498.048	431.36
498.409	421.15
498.77	400.72
499.131	390.51
499.492	423.7
499.854	354.76
500.215	380.29
500.576	380.29
500.937	400.72
501.298	352.21
501.658	352.21
502.019	533.5
502.38	375.19
502.741	456.9
503.101	413.49
503.462	418.59
503.823	405.83
504.183	393.06
504.543	352.21
504.904	398.17
505.264	410.93
505.625	403.27
505.985	449.23
506.345	428.81
506.705	385.4
507.065	431.36
507.426	423.7
507.786	354.76
508.146	370.08
508.505	413.49
508.865	364.97
509.225	372.63
509.585	454.34
509.945	349.65
510.304	367.53
510.664	367.53
511.024	331.78
511.383	321.57
511.743	441.57
512.102	400.72
512.462	385.4
512.821	423.7
513.18	444.13
513.539	441.57
513.899	410.93
514.258	439.02
514.617	398.17
514.976	418.59
515.335	344.55
515.694	441.57
516.053	410.93
516.412	400.72
516.771	400.72
517.129	382.85
517.488	400.72
517.847	405.83
518.205	456.9
518.564	416.04
518.922	362.42
519.281	385.4
519.639	439.02
519.998	403.27
520.356	377.74
520.714	403.27
521.073	393.06
521.431	364.97
521.789	393.06
522.147	375.19
522.505	408.38
522.863	336.89
523.221	290.93
523.579	326.67
523.937	449.23
524.295	436.47
524.652	400.72
525.01	413.49
525.368	390.51
525.725	405.83
526.083	418.59
526.44	354.76
526.798	336.89
527.155	380.29
527.513	423.7
527.87	410.93
528.227	413.49
528.584	426.25
528.942	421.15
529.299	362.42
529.656	380.29
530.013	418.59
530.37	454.34
530.727	395.61
531.083	459.45
531.44	410.93
531.797	370.08
532.154	357.31
532.511	347.1
532.867	395.61
533.224	456.9
533.58	354.76
533.937	385.4
534.293	375.19
534.65	372.63
535.006	500.3
535.362	428.81
535.718	408.38
536.075	403.27
536.431	469.66
536.787	472.22
537.143	421.15
537.499	436.47
537.855	408.38
538.211	400.72
538.567	375.19
538.923	451.79
539.278	403.27
539.634	364.97
539.99	421.15
540.345	387.95
540.701	395.61
541.056	423.7
541.412	352.21
541.767	431.36
542.123	390.51
542.478	367.53
542.833	341.99
543.188	341.99
543.544	364.97
543.899	395.61
544.254	390.51
544.609	398.17
544.964	341.99
545.319	362.42
545.674	449.23
546.029	380.29
546.383	370.08
546.738	336.89
547.093	372.63
547.447	410.93
547.802	400.72
548.157	436.47
548.511	410.93
548.866	403.27
549.22	436.47
549.574	395.61
549.929	393.06
550.283	324.12
550.637	423.7
550.991	362.42
551.345	423.7
551.699	439.02
552.053	393.06
552.407	403.27
552.761	490.09
553.115	454.34
553.469	462
553.823	433.91
554.176	433.91
554.53	462
554.884	413.49
555.237	686.7
555.591	418.59
555.944	459.45
556.298	451.79
556.651	382.85
557.005	451.79
557.358	446.68
557.711	370.08
558.064	380.29
558.417	418.59
558.771	472.22
559.124	439.02
559.477	426.25
559.83	370.08
560.182	421.15
560.535	400.72
560.888	441.57
561.241	331.78
561.594	456.9
561.946	339.44
562.299	431.36
562.651	359.87
563.004	352.21
563.356	377.74
563.709	375.19
564.061	400.72
564.413	364.97
564.766	377.74
565.118	416.04
565.47	464.56
565.822	410.93
566.174	372.63
566.526	410.93
566.878	326.67
567.23	362.42
567.582	410.93
567.934	510.52
568.286	385.4
568.638	400.72
568.989	444.13
569.341	456.9
569.693	370.08
570.044	413.49
570.396	395.61
570.747	423.7
571.098	398.17
571.45	354.76
571.801	423.7
572.152	444.13
572.504	484.98
572.855	385.4
573.206	377.74
573.557	428.81
573.908	408.38
574.259	341.99
574.61	377.74
574.961	329.23
575.311	359.87
575.662	390.51
576.013	398.17
576.364	421.15
576.714	446.68
577.065	410.93
577.415	400.72
577.766	410.93
578.116	410.93
578.467	433.91
578.817	467.11
579.167	421.15
579.518	410.93
579.868	395.61
580.218	418.59
580.568	387.95
580.918	385.4
581.268	467.11
581.618	372.63
581.968	426.25
582.318	441.57
582.668	316.46
583.017	382.85
583.367	377.74
583.717	306.25
584.066	400.72
584.416	354.76
584.765	398.17
585.115	390.51
585.464	436.47
585.814	400.72
586.163	433.91
586.512	497.75
586.862	431.36
587.211	352.21
587.56	380.29
587.909	418.59
588.258	387.95
588.607	370.08
588.956	454.34
589.305	416.04
589.654	482.43
590.002	426.25
590.351	405.83
590.7	387.95
591.048	439.02
591.397	390.51
591.746	341.99
592.094	352.21
592.443	370.08
592.791	308.8
593.139	421.15
593.488	459.45
593.836	382.85
594.184	390.51
594.532	421.15
594.88	482.43
595.228	385.4
595.576	387.95
595.924	375.19
596.272	400.72
596.62	405.83
596.968	495.2
597.316	390.51
597.664	428.81
598.011	359.87
598.359	408.38
598.706	403.27
599.054	364.97
599.402	354.76
599.749	313.91
600.096	359.87
600.444	362.42
600.791	362.42
601.138	398.17
601.485	423.7
601.833	441.57
602.18	398.17
602.527	444.13
602.874	385.4
603.221	408.38
603.568	456.9
603.914	426.25
604.261	464.56
604.608	418.59
604.955	339.44
605.301	484.98
605.648	403.27
605.995	387.95
606.341	395.61
606.688	385.4
607.034	393.06
607.38	377.74
607.727	487.54
608.073	387.95
608.419	398.17
608.765	357.31
609.112	359.87
609.458	372.63
609.804	451.79
610.15	441.57
610.496	375.19
610.842	380.29
611.187	439.02
611.533	441.57
611.879	416.04
612.225	393.06
612.57	385.4
612.916	410.93
613.261	456.9
613.607	439.02
613.952	367.53
614.298	449.23
614.643	303.69
614.989	362.42
615.334	421.15
615.679	426.25
616.024	421.15
616.369	423.7
616.714	347.1
617.059	405.83
617.404	387.95
617.749	349.65
618.094	387.95
618.439	359.87
618.784	316.46
619.129	395.61
619.473	416.04
619.818	364.97
620.163	446.68
620.507	405.83
620.852	336.89
621.196	505.41
621.54	387.95
621.885	444.13
622.229	382.85
622.573	436.47
622.918	418.59
623.262	400.72
623.606	403.27
623.95	444.13
624.294	444.13
624.638	446.68
624.982	426.25
625.326	377.74
625.67	393.06
626.013	387.95
626.357	296.03
626.701	444.13
627.044	405.83
627.388	413.49
627.731	410.93
628.075	370.08
628.418	433.91
628.762	428.81
629.105	393.06
629.448	395.61
629.792	441.57
630.135	444.13
630.478	354.76
630.821	341.99
631.164	296.03
631.507	426.25
631.85	403.27
632.193	367.53
632.536	408.38
632.879	456.9
633.221	387.95
633.564	423.7
633.907	390.51
634.249	400.72
634.592	413.49
634.935	375.19
635.277	454.34
635.619	385.4
635.962	390.51
636.304	398.17
636.646	372.63
636.989	398.17
637.331	428.81
637.673	339.44
638.015	359.87
638.357	433.91
638.699	375.19
639.041	410.93
639.383	380.29
639.725	431.36
640.067	382.85
640.408	357.31
640.75	410.93
641.092	446.68
641.433	426.25
641.775	418.59
642.116	359.87
642.458	344.55
642.799	382.85
643.141	398.17
643.482	385.4
643.823	364.97
644.164	408.38
644.506	459.45
644.847	441.57
645.188	413.49
645.529	326.67
645.87	456.9
646.211	426.25
646.552	400.72
646.893	372.63
647.233	385.4
647.574	352.21
647.915	387.95
648.255	431.36
648.596	296.03
648.937	403.27
649.277	469.66
649.618	467.11
649.958	421.15
650.298	436.47
650.639	398.17
650.979	359.87
651.319	316.46
651.659	359.87
651.999	362.42
652.339	436.47
652.679	395.61
653.019	359.87
653.359	405.83
653.699	418.59
654.039	428.81
654.379	336.89
654.719	400.72
655.058	433.91
655.398	416.04
655.737	446.68
656.077	436.47
656.416	405.83
656.756	408.38
657.095	352.21
657.435	382.85
657.774	372.63
658.113	444.13
658.452	370.08
658.792	444.13
659.131	398.17
659.47	433.91
659.809	403.27
660.148	426.25
660.487	403.27
660.826	451.79
661.164	413.49
661.503	408.38
661.842	433.91
662.181	408.38
662.519	385.4
662.858	433.91
663.196	334.33
663.535	367.53
663.873	431.36
664.212	382.85
664.55	357.31
664.888	387.95
665.226	395.61
665.565	431.36
665.903	597.33
666.241	431.36
666.579	405.83
666.917	393.06
667.255	410.93
667.593	403.27
667.931	482.43
668.268	423.7
668.606	387.95
668.944	405.83
669.282	444.13
669.619	395.61
669.957	413.49
670.294	390.51
670.632	413.49
670.969	393.06
671.307	362.42
671.644	377.74
671.981	400.72
672.318	398.17
672.656	347.1
672.993	367.53
673.33	477.32
673.667	436.47
674.004	436.47
674.341	370.08
674.678	380.29
675.015	418.59
675.351	413.49
675.688	413.49
676.025	426.25
676.362	395.61
676.698	441.57
677.035	362.42
677.371	326.67
677.708	382.85
678.044	387.95
678.38	410.93
678.717	423.7
679.053	405.83
679.389	403.27
679.725	344.55
680.062	410.93
680.398	367.53
680.734	464.56
681.07	423.7
681.406	403.27
681.742	436.47
682.077	436.47
682.413	382.85
682.749	362.42
683.085	393.06
683.42	382.85
683.756	367.53
684.091	464.56
684.427	449.23
684.762	382.85
685.098	393.06
685.433	426.25
685.768	408.38
686.104	339.44
686.439	372.63
686.774	433.91
687.109	316.46
687.444	456.9
687.779	426.25
688.114	408.38
688.449	474.77
688.784	416.04
689.119	357.31
689.454	418.59
689.789	349.65
690.123	428.81
690.458	387.95
690.792	390.51
691.127	436.47
691.461	390.51
691.796	385.4
692.13	405.83
692.465	410.93
692.799	321.57
693.133	395.61
693.467	413.49
693.802	449.23
694.136	364.97
694.47	428.81
694.804	408.38
695.138	408.38
695.472	421.15
695.806	336.89
696.139	308.8
696.473	421.15
696.807	405.83
697.141	375.19
697.474	410.93
697.808	400.72
698.141	380.29
698.475	382.85
698.808	316.46
699.142	467.11
699.475	410.93
699.808	421.15
700.142	387.95
700.475	441.57
700.808	413.49
701.141	385.4
701.474	370.08
701.807	467.11
702.14	431.36
702.473	382.85
702.806	459.45
703.139	462
703.472	418.59
703.804	421.15
704.137	403.27
704.47	426.25
704.802	431.36
705.135	405.83
705.467	426.25
705.8	352.21
706.132	377.74
706.464	324.12
706.797	321.57
707.129	357.31
707.461	372.63
707.793	410.93
708.125	403.27
708.457	362.42
708.789	349.65
709.121	398.17
709.453	395.61
709.785	382.85
710.117	495.2
710.449	308.8
710.781	334.33
711.112	428.81
711.444	362.42
711.775	393.06
712.107	359.87
712.438	336.89
712.77	441.57
713.101	423.7
713.433	352.21
713.764	339.44
714.095	380.29
714.426	400.72
714.757	408.38
715.089	423.7
715.42	456.9
715.751	482.43
716.082	370.08
716.412	344.55
716.743	377.74
717.074	393.06
717.405	354.76
717.736	436.47
718.066	357.31
718.397	385.4
718.727	413.49
719.058	387.95
719.388	367.53
719.719	426.25
720.049	372.63
720.38	393.06
720.71	405.83
721.04	370.08
721.37	393.06
721.7	341.99
722.031	357.31
722.361	393.06
722.691	313.91
723.021	336.89
723.35	393.06
723.68	390.51
724.01	367.53
724.34	321.57
724.67	390.51
724.999	372.63
725.329	405.83
725.658	410.93
725.988	418.59
726.317	400.72
726.647	423.7
726.976	449.23
727.306	364.97
727.635	303.69
727.964	400.72
728.293	403.27
728.622	339.44
728.952	408.38
729.281	398.17
729.61	339.44
729.939	377.74
730.267	441.57
730.596	451.79
730.925	405.83
731.254	400.72
731.583	410.93
731.911	390.51
732.24	436.47
732.568	316.46
732.897	359.87
733.225	364.97
733.554	426.25
733.882	393.06
734.21	441.57
734.539	385.4
734.867	357.31
735.195	377.74
735.523	377.74
735.851	395.61
736.179	367.53
736.507	344.55
736.835	370.08
737.163	380.29
737.491	387.95
737.819	390.51
738.147	423.7
738.474	339.44
738.802	421.15
739.13	405.83
739.457	405.83
739.785	408.38
740.112	451.79
740.44	421.15
740.767	372.63
741.094	403.27
741.422	405.83
741.749	410.93
742.076	426.25
742.403	418.59
742.73	393.06
743.057	372.63
743.384	370.08
743.711	382.85
744.038	405.83
744.365	418.59
744.692	393.06
745.018	390.51
745.345	423.7
745.672	398.17
745.998	441.57
746.325	449.23
746.651	426.25
746.978	347.1
747.304	385.4
747.631	405.83
747.957	405.83
748.283	372.63
748.61	395.61
748.936	311.35
749.262	316.46
749.588	372.63
749.914	352.21
750.24	377.74
750.566	336.89
750.892	421.15
751.218	377.74
751.543	326.67
751.869	380.29
752.195	344.55
752.521	405.83
752.846	395.61
753.172	482.43
753.497	385.4
753.823	362.42
754.148	357.31
754.473	372.63
754.799	380.29
755.124	341.99
755.449	479.88
755.774	431.36
756.1	387.95
756.425	385.4
756.75	428.81
757.075	400.72
757.4	502.86
757.724	405.83
758.049	382.85
758.374	410.93
758.699	410.93
759.024	359.87
759.348	403.27
759.673	464.56
759.997	436.47
760.322	426.25
760.646	462
760.971	418.59
761.295	357.31
761.619	377.74
761.944	423.7
762.268	497.75
762.592	507.96
762.916	431.36
763.24	528.39
763.564	576.9
763.888	714.79
764.212	673.93
764.536	702.02
764.86	699.47
765.184	781.17
765.508	829.69
765.831	814.37
766.155	1046.73
766.478	873.1
766.802	913.95
767.126	906.29
767.449	827.13
767.772	770.96
768.096	781.17
768.419	658.61
768.742	684.15
769.066	691.81
769.389	576.9
769.712	638.18
770.035	627.97
770.358	656.06
770.681	970.12
771.004	1021.19
771.327	1189.71
771.65	1378.66
771.972	1631.45
772.295	2009.35
772.618	2448.53
772.941	2685.99
773.263	2913.24
773.586	3528.61
773.908	3880.97
774.231	3870.76
774.553	3837.57
774.875	4108.23
775.198	4146.53
775.52	3837.57
775.842	3704.79
776.164	3462.22
776.487	3434.13
776.809	3153.26
777.131	2992.4
777.453	2803.45
777.775	2652.8
778.096	2336.18
778.418	2057.86
778.74	1718.26
779.062	1373.56
779.384	1235.68
779.705	1138.65
780.027	1026.3
780.348	1090.13
780.67	1225.46
780.991	1268.87
781.313	1542.08
781.634	2022.12
781.955	2359.16
782.277	3035.81
782.598	3556.7
782.919	3827.35
783.24	4435.06
783.561	4736.36
783.882	5139.79
784.203	5548.33
784.524	5775.58
784.845	5875.16
785.166	6255.62
785.487	6865.87
785.807	7054.82
786.128	7036.95
786.449	6973.12
786.769	6531.38
787.09	6549.26
787.41	6827.57
787.731	6942.48
788.051	6807.15
788.372	6592.66
788.692	6447.12
789.012	5770.47
789.332	4851.26
789.653	4504
789.973	4243.55
790.293	3464.77
790.613	2652.8
790.933	2039.99
791.253	1687.62
791.573	1388.88
791.893	1156.52
792.212	985.44
792.532	944.59
792.852	998.21
793.171	1233.12
793.491	1570.17
793.811	2124.25
794.13	2451.08
794.45	2900.48
794.769	3288.59
795.088	3906.51
795.408	4547.41
795.727	5808.78
796.046	7146.75
796.365	8464.29
796.684	8538.34
797.004	8709.41
797.323	9038.8
797.642	10095.9
797.96	9763.96
798.279	9541.81
798.598	9401.38
798.917	9363.08
799.236	8962.2
799.554	8811.55
799.873	8137.46
