Data from 2025-12-03_xpw_interference_micrometer_631_FLMS141361__68__618.txt Node

Date: Wed Dec 03 15:54:11 MST 2025
User: james
Spectrometer: FLMS14136
Trigger mode: 0
Integration Time (sec): 1.000000E-1
Scans to average: 1
Electric dark correction enabled: true
Nonlinearity correction enabled: false
Boxcar width: 0
XAxis mode: Wavelengths
Number of Pixels in Spectrum: 2048
>>>>>Begin Spectral Data<<<<<
339.315	-41.97
339.697	-41.97
340.079	-41.97
340.461	-113.47
340.843	-59.84
341.225	-47.08
341.607	-39.42
341.989	-105.81
342.371	-128.79
342.752	-47.08
343.134	-64.95
343.516	-47.08
343.897	-59.84
344.279	-18.99
344.661	-8.78
345.042	26.97
345.423	88.25
345.805	111.23
346.186	131.66
346.567	90.8
346.949	118.89
347.33	190.39
347.711	187.83
348.092	233.79
348.473	259.33
348.854	251.67
349.235	348.7
349.616	302.73
349.997	310.4
350.378	348.7
350.758	312.95
351.139	346.14
351.52	364.02
351.9	384.44
352.281	387
352.661	369.12
353.042	376.78
353.422	409.98
353.803	399.76
354.183	371.68
354.563	387
354.943	387
355.324	417.64
355.704	346.14
356.084	389.55
356.464	417.64
356.844	453.38
357.224	381.89
357.603	371.68
357.983	453.38
358.363	361.46
358.743	353.8
359.122	394.66
359.502	389.55
359.882	348.7
360.261	435.51
360.641	343.59
361.02	318.06
361.399	335.93
361.779	371.68
362.158	323.16
362.537	369.12
362.916	310.4
363.296	422.74
363.675	338.48
364.054	312.95
364.433	412.53
364.812	353.8
365.19	369.12
365.569	366.57
365.948	358.91
366.327	404.87
366.705	353.8
367.084	412.53
367.463	330.82
367.841	335.93
368.22	389.55
368.598	374.23
368.977	277.2
369.355	343.59
369.733	346.14
370.111	330.82
370.49	348.7
370.868	320.61
371.246	404.87
371.624	341.04
372.002	374.23
372.38	432.96
372.758	425.3
373.136	348.7
373.513	369.12
373.891	409.98
374.269	369.12
374.646	358.91
375.024	387
375.402	407.42
375.779	371.68
376.157	325.72
376.534	356.36
376.911	300.18
377.289	330.82
377.666	318.06
378.043	387
378.42	387
378.797	389.55
379.175	420.19
379.552	361.46
379.929	387
380.305	402.32
380.682	361.46
381.059	300.18
381.436	348.7
381.813	366.57
382.189	409.98
382.566	333.38
382.943	364.02
383.319	412.53
383.696	361.46
384.072	335.93
384.448	394.66
384.825	384.44
385.201	415.08
385.577	399.76
385.953	432.96
386.329	369.12
386.706	358.91
387.082	466.15
387.458	371.68
387.834	338.48
388.209	422.74
388.585	305.29
388.961	374.23
389.337	358.91
389.713	376.78
390.088	277.2
390.464	448.28
390.839	379.34
391.215	397.21
391.59	356.36
391.966	361.46
392.341	335.93
392.716	330.82
393.092	402.32
393.467	397.21
393.842	430.4
394.217	422.74
394.592	440.62
394.967	364.02
395.342	412.53
395.717	335.93
396.092	343.59
396.467	402.32
396.841	409.98
397.216	348.7
397.591	376.78
397.965	364.02
398.34	318.06
398.714	402.32
399.089	392.1
399.463	330.82
399.838	455.94
400.212	478.92
400.586	374.23
400.961	328.27
401.335	415.08
401.709	364.02
402.083	295.07
402.457	343.59
402.831	422.74
403.205	481.47
403.579	415.08
403.953	463.6
404.326	445.72
404.7	435.51
405.074	422.74
405.447	348.7
405.821	348.7
406.195	430.4
406.568	476.36
406.942	471.26
407.315	443.17
407.688	407.42
408.062	402.32
408.435	409.98
408.808	381.89
409.181	461.04
409.554	387
409.927	394.66
410.3	402.32
410.673	435.51
411.046	402.32
411.419	412.53
411.792	394.66
412.165	374.23
412.537	379.34
412.91	394.66
413.283	415.08
413.655	420.19
414.028	440.62
414.4	417.64
414.773	389.55
415.145	374.23
415.517	407.42
415.889	376.78
416.262	356.36
416.634	448.28
417.006	420.19
417.378	509.56
417.75	402.32
418.122	392.1
418.494	346.14
418.866	427.85
419.238	412.53
419.609	384.44
419.981	353.8
420.353	422.74
420.725	417.64
421.096	425.3
421.468	415.08
421.839	415.08
422.211	471.26
422.582	387
422.953	333.38
423.325	348.7
423.696	364.02
424.067	392.1
424.438	366.57
424.809	374.23
425.18	443.17
425.551	415.08
425.922	430.4
426.293	407.42
426.664	425.3
427.035	471.26
427.406	374.23
427.776	468.7
428.147	387
428.518	425.3
428.888	407.42
429.259	364.02
429.629	392.1
429.999	438.06
430.37	338.48
430.74	397.21
431.11	404.87
431.481	404.87
431.851	387
432.221	412.53
432.591	412.53
432.961	394.66
433.331	394.66
433.701	397.21
434.071	379.34
434.441	440.62
434.81	415.08
435.18	455.94
435.55	468.7
435.919	438.06
436.289	412.53
436.658	394.66
437.028	425.3
437.397	427.85
437.767	361.46
438.136	415.08
438.505	389.55
438.875	358.91
439.244	407.42
439.613	348.7
439.982	384.44
440.351	412.53
440.72	412.53
441.089	346.14
441.458	432.96
441.827	471.26
442.196	409.98
442.564	491.68
442.933	366.57
443.302	399.76
443.67	381.89
444.039	387
444.407	443.17
444.776	417.64
445.144	356.36
445.513	409.98
445.881	432.96
446.249	415.08
446.617	432.96
446.986	376.78
447.354	438.06
447.722	343.59
448.09	379.34
448.458	430.4
448.826	448.28
449.194	376.78
449.561	415.08
449.929	478.92
450.297	432.96
450.665	407.42
451.032	412.53
451.4	374.23
451.767	397.21
452.135	425.3
452.502	397.21
452.87	409.98
453.237	302.73
453.604	417.64
453.971	409.98
454.339	387
454.706	366.57
455.073	409.98
455.44	397.21
455.807	381.89
456.174	453.38
456.541	432.96
456.908	438.06
457.274	392.1
457.641	369.12
458.008	343.59
458.374	409.98
458.741	387
459.108	450.83
459.474	453.38
459.841	394.66
460.207	504.45
460.573	376.78
460.94	402.32
461.306	415.08
461.672	415.08
462.038	455.94
462.404	427.85
462.771	364.02
463.137	435.51
463.503	415.08
463.868	430.4
464.234	407.42
464.6	379.34
464.966	358.91
465.332	384.44
465.697	427.85
466.063	407.42
466.429	438.06
466.794	402.32
467.16	369.12
467.525	448.28
467.89	458.49
468.256	438.06
468.621	420.19
468.986	443.17
469.351	412.53
469.717	417.64
470.082	422.74
470.447	376.78
470.812	394.66
471.177	394.66
471.542	335.93
471.906	409.98
472.271	417.64
472.636	450.83
473.001	425.3
473.365	438.06
473.73	443.17
474.094	453.38
474.459	407.42
474.823	471.26
475.188	422.74
475.552	527.43
475.917	399.76
476.281	432.96
476.645	392.1
477.009	440.62
477.373	389.55
477.737	371.68
478.101	374.23
478.465	409.98
478.829	397.21
479.193	422.74
479.557	404.87
479.921	461.04
480.284	427.85
480.648	351.25
481.012	379.34
481.375	394.66
481.739	458.49
482.102	432.96
482.466	394.66
482.829	407.42
483.193	404.87
483.556	397.21
483.919	353.8
484.282	404.87
484.645	402.32
485.009	435.51
485.372	417.64
485.735	476.36
486.098	420.19
486.46	435.51
486.823	369.12
487.186	392.1
487.549	440.62
487.912	453.38
488.274	389.55
488.637	504.45
488.999	466.15
489.362	417.64
489.724	440.62
490.087	376.78
490.449	404.87
490.811	425.3
491.174	412.53
491.536	387
491.898	427.85
492.26	415.08
492.622	430.4
492.984	374.23
493.346	438.06
493.708	422.74
494.07	471.26
494.432	417.64
494.794	450.83
495.155	397.21
495.517	389.55
495.879	417.64
496.24	407.42
496.602	356.36
496.963	443.17
497.325	432.96
497.686	427.85
498.048	397.21
498.409	417.64
498.77	420.19
499.131	440.62
499.492	427.85
499.854	356.36
500.215	402.32
500.576	422.74
500.937	438.06
501.298	478.92
501.658	448.28
502.019	348.7
502.38	415.08
502.741	489.13
503.101	422.74
503.462	381.89
503.823	402.32
504.183	374.23
504.543	473.81
504.904	440.62
505.264	389.55
505.625	415.08
505.985	369.12
506.345	379.34
506.705	473.81
507.065	432.96
507.426	435.51
507.786	422.74
508.146	458.49
508.505	409.98
508.865	333.38
509.225	369.12
509.585	440.62
509.945	484.02
510.304	407.42
510.664	425.3
511.024	458.49
511.383	432.96
511.743	399.76
512.102	432.96
512.462	425.3
512.821	335.93
513.18	430.4
513.539	402.32
513.899	425.3
514.258	404.87
514.617	392.1
514.976	397.21
515.335	440.62
515.694	445.72
516.053	450.83
516.412	379.34
516.771	432.96
517.129	422.74
517.488	435.51
517.847	361.46
518.205	412.53
518.564	501.9
518.922	430.4
519.281	379.34
519.639	369.12
519.998	440.62
520.356	330.82
520.714	432.96
521.073	458.49
521.431	422.74
521.789	448.28
522.147	389.55
522.505	425.3
522.863	427.85
523.221	369.12
523.579	412.53
523.937	392.1
524.295	404.87
524.652	432.96
525.01	427.85
525.368	471.26
525.725	404.87
526.083	415.08
526.44	409.98
526.798	376.78
527.155	417.64
527.513	404.87
527.87	425.3
528.227	397.21
528.584	417.64
528.942	371.68
529.299	384.44
529.656	420.19
530.013	371.68
530.37	484.02
530.727	404.87
531.083	394.66
531.44	463.6
531.797	450.83
532.154	409.98
532.511	404.87
532.867	440.62
533.224	450.83
533.58	351.25
533.937	417.64
534.293	343.59
534.65	448.28
535.006	366.57
535.362	399.76
535.718	376.78
536.075	404.87
536.431	397.21
536.787	381.89
537.143	417.64
537.499	351.25
537.855	394.66
538.211	402.32
538.567	389.55
538.923	381.89
539.278	445.72
539.634	389.55
539.99	399.76
540.345	453.38
540.701	404.87
541.056	415.08
541.412	392.1
541.767	443.17
542.123	399.76
542.478	379.34
542.833	394.66
543.188	379.34
543.544	404.87
543.899	366.57
544.254	392.1
544.609	420.19
544.964	438.06
545.319	389.55
545.674	402.32
546.029	481.47
546.383	489.13
546.738	422.74
547.093	412.53
547.447	404.87
547.802	427.85
548.157	402.32
548.511	450.83
548.866	430.4
549.22	476.36
549.574	443.17
549.929	450.83
550.283	407.42
550.637	412.53
550.991	425.3
551.345	430.4
551.699	448.28
552.053	407.42
552.407	389.55
552.761	445.72
553.115	376.78
553.469	458.49
553.823	473.81
554.176	473.81
554.53	415.08
554.884	325.72
555.237	642.33
555.591	450.83
555.944	435.51
556.298	409.98
556.651	443.17
557.005	402.32
557.358	397.21
557.711	404.87
558.064	417.64
558.417	445.72
558.771	522.33
559.124	484.02
559.477	461.04
559.83	448.28
560.182	415.08
560.535	438.06
560.888	445.72
561.241	453.38
561.594	443.17
561.946	461.04
562.299	407.42
562.651	450.83
563.004	420.19
563.356	358.91
563.709	417.64
564.061	463.6
564.413	438.06
564.766	494.24
565.118	494.24
565.47	453.38
565.822	450.83
566.174	376.78
566.526	409.98
566.878	481.47
567.23	430.4
567.582	463.6
567.934	443.17
568.286	463.6
568.638	448.28
568.989	422.74
569.341	409.98
569.693	430.4
570.044	471.26
570.396	468.7
570.747	425.3
571.098	402.32
571.45	412.53
571.801	438.06
572.152	412.53
572.504	420.19
572.855	394.66
573.206	409.98
573.557	417.64
573.908	369.12
574.259	417.64
574.61	435.51
574.961	422.74
575.311	407.42
575.662	427.85
576.013	387
576.364	430.4
576.714	415.08
577.065	448.28
577.415	463.6
577.766	376.78
578.116	361.46
578.467	399.76
578.817	407.42
579.167	440.62
579.518	438.06
579.868	404.87
580.218	417.64
580.568	427.85
580.918	387
581.268	443.17
581.618	430.4
581.968	422.74
582.318	448.28
582.668	448.28
583.017	415.08
583.367	458.49
583.717	399.76
584.066	432.96
584.416	427.85
584.765	435.51
585.115	438.06
585.464	417.64
585.814	420.19
586.163	427.85
586.512	455.94
586.862	448.28
587.211	381.89
587.56	407.42
587.909	351.25
588.258	445.72
588.607	397.21
588.956	461.04
589.305	443.17
589.654	461.04
590.002	430.4
590.351	371.68
590.7	422.74
591.048	445.72
591.397	443.17
591.746	494.24
592.094	466.15
592.443	450.83
592.791	430.4
593.139	343.59
593.488	420.19
593.836	404.87
594.184	407.42
594.532	381.89
594.88	481.47
595.228	468.7
595.576	430.4
595.924	432.96
596.272	394.66
596.62	397.21
596.968	402.32
597.316	381.89
597.664	384.44
598.011	455.94
598.359	417.64
598.706	379.34
599.054	415.08
599.402	435.51
599.749	343.59
600.096	427.85
600.444	387
600.791	435.51
601.138	374.23
601.485	409.98
601.833	478.92
602.18	438.06
602.527	379.34
602.874	404.87
603.221	438.06
603.568	417.64
603.914	417.64
604.261	412.53
604.608	394.66
604.955	392.1
605.301	356.36
605.648	381.89
605.995	389.55
606.341	379.34
606.688	445.72
607.034	417.64
607.38	409.98
607.727	376.78
608.073	397.21
608.419	394.66
608.765	387
609.112	351.25
609.458	448.28
609.804	387
610.15	415.08
610.496	427.85
610.842	404.87
611.187	371.68
611.533	397.21
611.879	461.04
612.225	448.28
612.57	440.62
612.916	420.19
613.261	422.74
613.607	427.85
613.952	402.32
614.298	371.68
614.643	402.32
614.989	445.72
615.334	438.06
615.679	404.87
616.024	420.19
616.369	394.66
616.714	420.19
617.059	458.49
617.404	455.94
617.749	432.96
618.094	425.3
618.439	417.64
618.784	422.74
619.129	455.94
619.473	389.55
619.818	491.68
620.163	432.96
620.507	425.3
620.852	379.34
621.196	412.53
621.54	438.06
621.885	364.02
622.229	430.4
622.573	443.17
622.918	461.04
623.262	412.53
623.606	409.98
623.95	427.85
624.294	389.55
624.638	402.32
624.982	364.02
625.326	387
625.67	397.21
626.013	387
626.357	425.3
626.701	425.3
627.044	392.1
627.388	427.85
627.731	463.6
628.075	420.19
628.418	394.66
628.762	374.23
629.105	387
629.448	440.62
629.792	356.36
630.135	440.62
630.478	399.76
630.821	417.64
631.164	468.7
631.507	402.32
631.85	417.64
632.193	448.28
632.536	397.21
632.879	422.74
633.221	409.98
633.564	356.36
633.907	427.85
634.249	417.64
634.592	440.62
634.935	397.21
635.277	422.74
635.619	397.21
635.962	427.85
636.304	300.18
636.646	392.1
636.989	389.55
637.331	407.42
637.673	422.74
638.015	435.51
638.357	404.87
638.699	422.74
639.041	407.42
639.383	476.36
639.725	455.94
640.067	409.98
640.408	461.04
640.75	432.96
641.092	384.44
641.433	399.76
641.775	402.32
642.116	361.46
642.458	425.3
642.799	420.19
643.141	392.1
643.482	312.95
643.823	425.3
644.164	338.48
644.506	453.38
644.847	420.19
645.188	415.08
645.529	409.98
645.87	417.64
646.211	394.66
646.552	417.64
646.893	415.08
647.233	392.1
647.574	412.53
647.915	461.04
648.255	432.96
648.596	420.19
648.937	415.08
649.277	394.66
649.618	422.74
649.958	409.98
650.298	417.64
650.639	527.43
650.979	384.44
651.319	409.98
651.659	417.64
651.999	361.46
652.339	348.7
652.679	420.19
653.019	407.42
653.359	371.68
653.699	425.3
654.039	412.53
654.379	335.93
654.719	371.68
655.058	369.12
655.398	379.34
655.737	476.36
656.077	397.21
656.416	430.4
656.756	392.1
657.095	417.64
657.435	430.4
657.774	376.78
658.113	392.1
658.452	399.76
658.792	432.96
659.131	427.85
659.47	351.25
659.809	384.44
660.148	432.96
660.487	440.62
660.826	407.42
661.164	358.91
661.503	440.62
661.842	471.26
662.181	453.38
662.519	397.21
662.858	392.1
663.196	392.1
663.535	361.46
663.873	435.51
664.212	361.46
664.55	455.94
664.888	394.66
665.226	440.62
665.565	379.34
665.903	568.29
666.241	379.34
666.579	461.04
666.917	427.85
667.255	422.74
667.593	440.62
667.931	387
668.268	438.06
668.606	427.85
668.944	374.23
669.282	412.53
669.619	407.42
669.957	422.74
670.294	407.42
670.632	445.72
670.969	420.19
671.307	443.17
671.644	435.51
671.981	392.1
672.318	404.87
672.656	387
672.993	461.04
673.33	466.15
673.667	374.23
674.004	384.44
674.341	417.64
674.678	407.42
675.015	404.87
675.351	425.3
675.688	420.19
676.025	443.17
676.362	438.06
676.698	440.62
677.035	466.15
677.371	371.68
677.708	430.4
678.044	376.78
678.38	376.78
678.717	409.98
679.053	435.51
679.389	458.49
679.725	361.46
680.062	366.57
680.398	387
680.734	323.16
681.07	407.42
681.406	369.12
681.742	427.85
682.077	427.85
682.413	455.94
682.749	397.21
683.085	412.53
683.42	381.89
683.756	346.14
684.091	384.44
684.427	412.53
684.762	471.26
685.098	425.3
685.433	427.85
685.768	420.19
686.104	455.94
686.439	397.21
686.774	435.51
687.109	397.21
687.444	427.85
687.779	455.94
688.114	371.68
688.449	435.51
688.784	381.89
689.119	325.72
689.454	394.66
689.789	409.98
690.123	404.87
690.458	399.76
690.792	422.74
691.127	435.51
691.461	330.82
691.796	364.02
692.13	422.74
692.465	415.08
692.799	379.34
693.133	425.3
693.467	435.51
693.802	476.36
694.136	420.19
694.47	438.06
694.804	394.66
695.138	404.87
695.472	420.19
695.806	417.64
696.139	392.1
696.473	440.62
696.807	425.3
697.141	438.06
697.474	427.85
697.808	450.83
698.141	427.85
698.475	435.51
698.808	407.42
699.142	524.88
699.475	392.1
699.808	484.02
700.142	440.62
700.475	392.1
700.808	445.72
701.141	399.76
701.474	389.55
701.807	407.42
702.14	455.94
702.473	450.83
702.806	432.96
703.139	448.28
703.472	473.81
703.804	353.8
704.137	407.42
704.47	369.12
704.802	361.46
705.135	348.7
705.467	364.02
705.8	407.42
706.132	412.53
706.464	399.76
706.797	422.74
707.129	379.34
707.461	356.36
707.793	425.3
708.125	381.89
708.457	415.08
708.789	397.21
709.121	438.06
709.453	369.12
709.785	435.51
710.117	420.19
710.449	448.28
710.781	489.13
711.112	443.17
711.444	394.66
711.775	397.21
712.107	371.68
712.438	361.46
712.77	471.26
713.101	450.83
713.433	448.28
713.764	389.55
714.095	358.91
714.426	438.06
714.757	432.96
715.089	351.25
715.42	376.78
715.751	417.64
716.082	387
716.412	369.12
716.743	379.34
717.074	438.06
717.405	392.1
717.736	402.32
718.066	427.85
718.397	417.64
718.727	397.21
719.058	404.87
719.388	374.23
719.719	422.74
720.049	443.17
720.38	417.64
720.71	389.55
721.04	455.94
721.37	445.72
721.7	394.66
722.031	356.36
722.361	407.42
722.691	404.87
723.021	338.48
723.35	420.19
723.68	392.1
724.01	443.17
724.34	353.8
724.67	397.21
724.999	397.21
725.329	435.51
725.658	461.04
725.988	369.12
726.317	397.21
726.647	387
726.976	338.48
727.306	422.74
727.635	376.78
727.964	376.78
728.293	412.53
728.622	438.06
728.952	481.47
729.281	448.28
729.61	397.21
729.939	353.8
730.267	412.53
730.596	432.96
730.925	361.46
731.254	387
731.583	379.34
731.911	348.7
732.24	399.76
732.568	415.08
732.897	443.17
733.225	443.17
733.554	448.28
733.882	422.74
734.21	455.94
734.539	440.62
734.867	435.51
735.195	402.32
735.523	394.66
735.851	394.66
736.179	412.53
736.507	420.19
736.835	435.51
737.163	481.47
737.491	409.98
737.819	399.76
738.147	402.32
738.474	430.4
738.802	417.64
739.13	417.64
739.457	463.6
739.785	409.98
740.112	397.21
740.44	376.78
740.767	366.57
741.094	394.66
741.422	463.6
741.749	361.46
742.076	402.32
742.403	412.53
742.73	389.55
743.057	394.66
743.384	384.44
743.711	440.62
744.038	435.51
744.365	509.56
744.692	476.36
745.018	399.76
745.345	397.21
745.672	353.8
745.998	371.68
746.325	420.19
746.651	407.42
746.978	402.32
747.304	435.51
747.631	389.55
747.957	402.32
748.283	335.93
748.61	369.12
748.936	450.83
749.262	443.17
749.588	415.08
749.914	417.64
750.24	412.53
750.566	443.17
750.892	445.72
751.218	394.66
751.543	366.57
751.869	461.04
752.195	430.4
752.521	466.15
752.846	394.66
753.172	387
753.497	432.96
753.823	438.06
754.148	455.94
754.473	328.27
754.799	412.53
755.124	415.08
755.449	417.64
755.774	415.08
756.1	356.36
756.425	409.98
756.75	369.12
757.075	432.96
757.4	537.65
757.724	504.45
758.049	387
758.374	392.1
758.699	379.34
759.024	440.62
759.348	440.62
759.673	468.7
759.997	399.76
760.322	402.32
760.646	432.96
760.971	427.85
761.295	417.64
761.619	489.13
761.944	440.62
762.268	517.22
762.592	545.31
762.916	606.59
763.24	570.84
763.564	586.16
763.888	665.31
764.212	695.96
764.536	828.73
764.86	815.96
765.184	818.52
765.508	800.64
765.831	918.1
766.155	1107.05
766.478	938.53
766.802	902.78
767.126	884.91
767.449	826.18
767.772	879.8
768.096	749.58
768.419	757.24
768.742	655.1
769.066	555.52
769.389	621.91
769.712	634.67
770.035	693.4
770.358	805.75
770.681	976.83
771.004	1173.44
771.327	1280.68
771.65	1643.26
771.972	1791.35
772.295	2161.59
772.618	2409.27
772.941	2784.62
773.263	3001.66
773.586	3708.94
773.908	3872.36
774.231	3997.47
774.553	4051.09
774.875	4206.85
775.198	4365.16
775.52	4028.11
775.842	3765.12
776.164	3315.72
776.487	3221.25
776.809	3285.08
777.131	3116.56
777.453	2835.69
777.775	2677.38
778.096	2406.72
778.418	2074.78
778.74	1735.18
779.062	1380.26
779.384	1229.61
779.705	1109.6
780.027	1015.13
780.348	1061.09
780.67	1086.62
780.991	1308.77
781.313	1676.45
781.634	2125.85
781.955	2506.3
782.277	3142.09
782.598	3548.08
782.919	4074.07
783.24	4344.73
783.561	5113.3
783.882	5440.13
784.203	5731.22
784.524	5938.04
784.845	5945.7
785.166	6395.09
785.487	7140.68
785.807	7204.52
786.128	7048.76
786.449	7178.98
786.769	6893
787.09	6739.8
787.41	6977.26
787.731	7102.38
788.051	6944.07
788.372	6918.54
788.692	6341.47
789.012	5800.16
789.332	4863.07
789.653	4503.04
789.973	4260.47
790.293	3476.58
790.613	2445.02
790.933	2082.44
791.253	1806.67
791.573	1444.09
791.893	1104.5
792.212	956.4
792.532	969.17
792.852	1040.66
793.171	1262.81
793.491	1546.23
793.811	2054.35
794.13	2536.94
794.45	2914.84
794.769	3555.74
795.088	4132.8
795.408	4799.23
795.727	6037.62
796.046	7298.99
796.365	8598.66
796.684	8688.03
797.004	8736.54
797.323	9058.27
797.642	10378.36
797.96	9890.67
798.279	9714.49
798.598	9484.68
798.917	9420.85
799.236	9252.32
799.554	9030.18
799.873	8236.08
800.192	7748.39
800.51	7406.23
800.829	6867.47
801.147	6295.51
801.466	5348.21
801.784	5082.66
802.102	4385.59
