Data from 2025-12-03_xpw_interference_micrometer_631_FLMS141361__24__574.txt Node

Date: Wed Dec 03 15:54:06 MST 2025
User: james
Spectrometer: FLMS14136
Trigger mode: 0
Integration Time (sec): 1.000000E-1
Scans to average: 1
Electric dark correction enabled: true
Nonlinearity correction enabled: false
Boxcar width: 0
XAxis mode: Wavelengths
Number of Pixels in Spectrum: 2048
>>>>>Begin Spectral Data<<<<<
339.315	-97.35
339.697	-97.35
340.079	-97.35
340.461	-76.92
340.843	9.89
341.225	-122.88
341.607	-66.71
341.989	-59.05
342.371	-92.24
342.752	-13.09
343.134	-79.47
343.516	-82.03
343.897	-71.81
344.279	-79.47
344.661	-13.09
345.042	35.43
345.423	99.26
345.805	109.48
346.186	117.14
346.567	170.76
346.949	147.78
347.33	155.44
347.711	196.29
348.092	260.13
348.473	272.89
348.854	280.55
349.235	326.51
349.616	290.77
349.997	300.98
350.378	293.32
350.758	280.55
351.139	283.11
351.52	300.98
351.9	403.11
352.281	461.84
352.661	352.05
353.042	369.92
353.422	408.22
353.803	438.86
354.183	382.69
354.563	433.76
354.943	433.76
355.324	385.24
355.704	380.13
356.084	438.86
356.464	403.11
356.844	489.93
357.224	380.13
357.603	367.37
357.983	364.81
358.363	495.04
358.743	431.2
359.122	382.69
359.502	446.52
359.882	395.45
360.261	433.76
360.641	367.37
361.02	372.47
361.399	369.92
361.779	375.03
362.158	428.65
362.537	369.92
362.916	398.01
363.296	346.94
363.675	405.67
364.054	369.92
364.433	387.79
364.812	252.47
365.19	354.6
365.569	334.17
365.948	428.65
366.327	318.85
366.705	400.56
367.084	313.75
367.463	364.81
367.841	375.03
368.22	346.94
368.598	382.69
368.977	318.85
369.355	375.03
369.733	410.77
370.111	380.13
370.49	377.58
370.868	392.9
371.246	380.13
371.624	382.69
372.002	387.79
372.38	375.03
372.758	352.05
373.136	341.83
373.513	346.94
373.891	369.92
374.269	339.28
374.646	367.37
375.024	346.94
375.402	359.71
375.779	367.37
376.157	428.65
376.534	349.49
376.911	385.24
377.289	367.37
377.666	369.92
378.043	420.99
378.42	413.33
378.797	359.71
379.175	318.85
379.552	392.9
379.929	398.01
380.305	377.58
380.682	418.43
381.059	382.69
381.436	398.01
381.813	329.07
382.189	441.42
382.566	288.21
382.943	403.11
383.319	323.96
383.696	362.26
384.072	392.9
384.448	413.33
384.825	280.55
385.201	359.71
385.577	362.26
385.953	352.05
386.329	285.66
386.706	398.01
387.082	423.54
387.458	341.83
387.834	372.47
388.209	375.03
388.585	344.39
388.961	418.43
389.337	357.15
389.713	443.97
390.088	375.03
390.464	390.35
390.839	466.95
391.215	390.35
391.59	398.01
391.966	390.35
392.341	403.11
392.716	385.24
393.092	403.11
393.467	318.85
393.842	392.9
394.217	403.11
394.592	426.09
394.967	326.51
395.342	403.11
395.717	408.22
396.092	346.94
396.467	405.67
396.841	344.39
397.216	367.37
397.591	359.71
397.965	344.39
398.34	380.13
398.714	385.24
399.089	395.45
399.463	398.01
399.838	385.24
400.212	387.79
400.586	369.92
400.961	380.13
401.335	431.2
401.709	431.2
402.083	334.17
402.457	372.47
402.831	408.22
403.205	387.79
403.579	392.9
403.953	441.42
404.326	392.9
404.7	323.96
405.074	308.64
405.447	341.83
405.821	469.5
406.195	443.97
406.568	446.52
406.942	479.72
407.315	352.05
407.688	426.09
408.062	413.33
408.435	400.56
408.808	446.52
409.181	459.29
409.554	466.95
409.927	372.47
410.3	449.08
410.673	431.2
411.046	395.45
411.419	451.63
411.792	392.9
412.165	375.03
412.537	367.37
412.91	426.09
413.283	392.9
413.655	403.11
414.028	420.99
414.4	400.56
414.773	354.6
415.145	433.76
415.517	413.33
415.889	433.76
416.262	367.37
416.634	400.56
417.006	413.33
417.378	408.22
417.75	418.43
418.122	385.24
418.494	433.76
418.866	387.79
419.238	375.03
419.609	364.81
419.981	461.84
420.353	403.11
420.725	354.6
421.096	395.45
421.468	313.75
421.839	428.65
422.211	438.86
422.582	451.63
422.953	426.09
423.325	431.2
423.696	390.35
424.067	405.67
424.438	398.01
424.809	369.92
425.18	372.47
425.551	392.9
425.922	405.67
426.293	477.16
426.664	408.22
427.035	474.61
427.406	464.4
427.776	436.31
428.147	405.67
428.518	395.45
428.888	372.47
429.259	418.43
429.629	415.88
429.999	482.27
430.37	410.77
430.74	387.79
431.11	441.42
431.481	395.45
431.851	352.05
432.221	474.61
432.591	446.52
432.961	433.76
433.331	436.31
433.701	438.86
434.071	428.65
434.441	405.67
434.81	387.79
435.18	405.67
435.55	415.88
435.919	482.27
436.289	375.03
436.658	385.24
437.028	395.45
437.397	390.35
437.767	413.33
438.136	441.42
438.505	436.31
438.875	390.35
439.244	382.69
439.613	428.65
439.982	357.15
440.351	400.56
440.72	382.69
441.089	392.9
441.458	415.88
441.827	441.42
442.196	408.22
442.564	525.68
442.933	423.54
443.302	390.35
443.67	454.18
444.039	426.09
444.407	372.47
444.776	382.69
445.144	377.58
445.513	438.86
445.881	385.24
446.249	418.43
446.617	459.29
446.986	492.48
447.354	390.35
447.722	380.13
448.09	395.45
448.458	431.2
448.826	449.08
449.194	449.08
449.561	459.29
449.929	359.71
450.297	357.15
450.665	395.45
451.032	410.77
451.4	456.74
451.767	505.25
452.135	436.31
452.502	441.42
452.87	454.18
453.237	441.42
453.604	428.65
453.971	436.31
454.339	443.97
454.706	433.76
455.073	449.08
455.44	446.52
455.807	426.09
456.174	408.22
456.541	392.9
456.908	426.09
457.274	451.63
457.641	426.09
458.008	466.95
458.374	413.33
458.741	451.63
459.108	392.9
459.474	359.71
459.841	405.67
460.207	387.79
460.573	367.37
460.94	403.11
461.306	418.43
461.672	456.74
462.038	415.88
462.404	441.42
462.771	398.01
463.137	390.35
463.503	436.31
463.868	395.45
464.234	382.69
464.6	405.67
464.966	392.9
465.332	395.45
465.697	436.31
466.063	433.76
466.429	420.99
466.794	449.08
467.16	405.67
467.525	390.35
467.89	357.15
468.256	408.22
468.621	456.74
468.986	507.8
469.351	433.76
469.717	451.63
470.082	334.17
470.447	446.52
470.812	431.2
471.177	459.29
471.542	428.65
471.906	461.84
472.271	400.56
472.636	464.4
473.001	456.74
473.365	364.81
473.73	443.97
474.094	382.69
474.459	489.93
474.823	502.7
475.188	466.95
475.552	392.9
475.917	454.18
476.281	369.92
476.645	387.79
477.009	390.35
477.373	428.65
477.737	438.86
478.101	403.11
478.465	415.88
478.829	382.69
479.193	431.2
479.557	390.35
479.921	454.18
480.284	415.88
480.648	398.01
481.012	428.65
481.375	398.01
481.739	392.9
482.102	364.81
482.466	369.92
482.829	502.7
483.193	518.02
483.556	428.65
483.919	482.27
484.282	459.29
484.645	408.22
485.009	359.71
485.372	446.52
485.735	464.4
486.098	400.56
486.46	390.35
486.823	418.43
487.186	380.13
487.549	408.22
487.912	443.97
488.274	357.15
488.637	395.45
488.999	428.65
489.362	400.56
489.724	428.65
490.087	400.56
490.449	344.39
490.811	420.99
491.174	454.18
491.536	375.03
491.898	382.69
492.26	431.2
492.622	403.11
492.984	464.4
493.346	400.56
493.708	387.79
494.07	495.04
494.432	438.86
494.794	449.08
495.155	464.4
495.517	415.88
495.879	398.01
496.24	436.31
496.602	369.92
496.963	418.43
497.325	375.03
497.686	410.77
498.048	436.31
498.409	408.22
498.77	456.74
499.131	441.42
499.492	413.33
499.854	451.63
500.215	451.63
500.576	415.88
500.937	372.47
501.298	464.4
501.658	408.22
502.019	413.33
502.38	446.52
502.741	423.54
503.101	454.18
503.462	420.99
503.823	423.54
504.183	426.09
504.543	459.29
504.904	464.4
505.264	382.69
505.625	433.76
505.985	441.42
506.345	400.56
506.705	469.5
507.065	449.08
507.426	346.94
507.786	408.22
508.146	443.97
508.505	446.52
508.865	390.35
509.225	390.35
509.585	502.7
509.945	443.97
510.304	487.38
510.664	387.79
511.024	382.69
511.383	428.65
511.743	352.05
512.102	395.45
512.462	385.24
512.821	331.62
513.18	395.45
513.539	428.65
513.899	400.56
514.258	329.07
514.617	418.43
514.976	375.03
515.335	364.81
515.694	443.97
516.053	428.65
516.412	461.84
516.771	487.38
517.129	472.06
517.488	438.86
517.847	451.63
518.205	418.43
518.564	426.09
518.922	352.05
519.281	451.63
519.639	418.43
519.998	477.16
520.356	410.77
520.714	423.54
521.073	495.04
521.431	410.77
521.789	420.99
522.147	479.72
522.505	464.4
522.863	408.22
523.221	449.08
523.579	408.22
523.937	461.84
524.295	418.43
524.652	405.67
525.01	497.59
525.368	436.31
525.725	469.5
526.083	395.45
526.44	451.63
526.798	400.56
527.155	477.16
527.513	420.99
527.87	446.52
528.227	382.69
528.584	418.43
528.942	456.74
529.299	484.82
529.656	482.27
530.013	398.01
530.37	431.2
530.727	436.31
531.083	484.82
531.44	438.86
531.797	456.74
532.154	433.76
532.511	410.77
532.867	398.01
533.224	400.56
533.58	400.56
533.937	423.54
534.293	438.86
534.65	405.67
535.006	454.18
535.362	413.33
535.718	418.43
536.075	415.88
536.431	405.67
536.787	454.18
537.143	474.61
537.499	426.09
537.855	420.99
538.211	431.2
538.567	479.72
538.923	479.72
539.278	385.24
539.634	423.54
539.99	443.97
540.345	375.03
540.701	461.84
541.056	482.27
541.412	413.33
541.767	346.94
542.123	436.31
542.478	530.78
542.833	443.97
543.188	438.86
543.544	431.2
543.899	405.67
544.254	436.31
544.609	408.22
544.964	436.31
545.319	403.11
545.674	420.99
546.029	441.42
546.383	441.42
546.738	395.45
547.093	357.15
547.447	459.29
547.802	346.94
548.157	321.41
548.511	380.13
548.866	400.56
549.22	436.31
549.574	487.38
549.929	408.22
550.283	398.01
550.637	398.01
550.991	400.56
551.345	415.88
551.699	477.16
552.053	431.2
552.407	446.52
552.761	454.18
553.115	385.24
553.469	477.16
553.823	500.14
554.176	472.06
554.53	449.08
554.884	395.45
555.237	599.72
555.591	502.7
555.944	479.72
556.298	415.88
556.651	487.38
557.005	426.09
557.358	418.43
557.711	426.09
558.064	492.48
558.417	400.56
558.771	518.02
559.124	523.12
559.477	502.7
559.83	382.69
560.182	413.33
560.535	426.09
560.888	408.22
561.241	413.33
561.594	418.43
561.946	398.01
562.299	420.99
562.651	390.35
563.004	408.22
563.356	456.74
563.709	431.2
564.061	392.9
564.413	449.08
564.766	420.99
565.118	420.99
565.47	474.61
565.822	428.65
566.174	436.31
566.526	413.33
566.878	495.04
567.23	423.54
567.582	436.31
567.934	410.77
568.286	489.93
568.638	418.43
568.989	382.69
569.341	390.35
569.693	382.69
570.044	451.63
570.396	487.38
570.747	403.11
571.098	428.65
571.45	443.97
571.801	408.22
572.152	380.13
572.504	423.54
572.855	410.77
573.206	449.08
573.557	507.8
573.908	428.65
574.259	403.11
574.61	418.43
574.961	385.24
575.311	446.52
575.662	461.84
576.013	479.72
576.364	482.27
576.714	400.56
577.065	364.81
577.415	408.22
577.766	420.99
578.116	377.58
578.467	403.11
578.817	405.67
579.167	354.6
579.518	357.15
579.868	426.09
580.218	382.69
580.568	415.88
580.918	375.03
581.268	466.95
581.618	446.52
581.968	438.86
582.318	410.77
582.668	369.92
583.017	354.6
583.367	415.88
583.717	472.06
584.066	377.58
584.416	423.54
584.765	431.2
585.115	426.09
585.464	392.9
585.814	410.77
586.163	459.29
586.512	449.08
586.862	502.7
587.211	428.65
587.56	392.9
587.909	426.09
588.258	390.35
588.607	413.33
588.956	456.74
589.305	474.61
589.654	400.56
590.002	428.65
590.351	489.93
590.7	400.56
591.048	469.5
591.397	413.33
591.746	431.2
592.094	334.17
592.443	392.9
592.791	390.35
593.139	403.11
593.488	392.9
593.836	441.42
594.184	489.93
594.532	423.54
594.88	484.82
595.228	398.01
595.576	367.37
595.924	446.52
596.272	413.33
596.62	403.11
596.968	390.35
597.316	420.99
597.664	410.77
598.011	418.43
598.359	433.76
598.706	464.4
599.054	408.22
599.402	495.04
599.749	492.48
600.096	454.18
600.444	484.82
600.791	375.03
601.138	403.11
601.485	464.4
601.833	449.08
602.18	362.26
602.527	420.99
602.874	423.54
603.221	459.29
603.568	395.45
603.914	510.36
604.261	459.29
604.608	479.72
604.955	400.56
605.301	431.2
605.648	415.88
605.995	400.56
606.341	420.99
606.688	484.82
607.034	423.54
607.38	410.77
607.727	387.79
608.073	423.54
608.419	449.08
608.765	423.54
609.112	392.9
609.458	410.77
609.804	413.33
610.15	431.2
610.496	428.65
610.842	489.93
611.187	449.08
611.533	387.79
611.879	443.97
612.225	390.35
612.57	395.45
612.916	395.45
613.261	431.2
613.607	443.97
613.952	392.9
614.298	436.31
614.643	410.77
614.989	372.47
615.334	418.43
615.679	433.76
616.024	436.31
616.369	449.08
616.714	443.97
617.059	385.24
617.404	382.69
617.749	359.71
618.094	395.45
618.439	418.43
618.784	364.81
619.129	403.11
619.473	459.29
619.818	385.24
620.163	400.56
620.507	426.09
620.852	423.54
621.196	334.17
621.54	477.16
621.885	479.72
622.229	441.42
622.573	443.97
622.918	461.84
623.262	441.42
623.606	415.88
623.95	443.97
624.294	443.97
624.638	403.11
624.982	459.29
625.326	441.42
625.67	433.76
626.013	387.79
626.357	428.65
626.701	436.31
627.044	433.76
627.388	433.76
627.731	420.99
628.075	400.56
628.418	415.88
628.762	418.43
629.105	382.69
629.448	479.72
629.792	469.5
630.135	436.31
630.478	415.88
630.821	382.69
631.164	354.6
631.507	390.35
631.85	400.56
632.193	375.03
632.536	377.58
632.879	410.77
633.221	403.11
633.564	423.54
633.907	446.52
634.249	436.31
634.592	336.73
634.935	387.79
635.277	398.01
635.619	308.64
635.962	466.95
636.304	385.24
636.646	420.99
636.989	410.77
637.331	433.76
637.673	466.95
638.015	420.99
638.357	377.58
638.699	392.9
639.041	418.43
639.383	431.2
639.725	392.9
640.067	375.03
640.408	382.69
640.75	456.74
641.092	367.37
641.433	387.79
641.775	395.45
642.116	326.51
642.458	451.63
642.799	410.77
643.141	456.74
643.482	451.63
643.823	461.84
644.164	505.25
644.506	449.08
644.847	426.09
645.188	408.22
645.529	413.33
645.87	408.22
646.211	415.88
646.552	385.24
646.893	334.17
647.233	403.11
647.574	359.71
647.915	390.35
648.255	375.03
648.596	451.63
648.937	428.65
649.277	403.11
649.618	392.9
649.958	456.74
650.298	377.58
650.639	431.2
650.979	433.76
651.319	443.97
651.659	415.88
651.999	456.74
652.339	418.43
652.679	469.5
653.019	408.22
653.359	451.63
653.699	420.99
654.039	436.31
654.379	359.71
654.719	426.09
655.058	387.79
655.398	418.43
655.737	405.67
656.077	423.54
656.416	456.74
656.756	395.45
657.095	472.06
657.435	390.35
657.774	387.79
658.113	390.35
658.452	426.09
658.792	398.01
659.131	459.29
659.47	395.45
659.809	367.37
660.148	420.99
660.487	461.84
660.826	436.31
661.164	426.09
661.503	380.13
661.842	433.76
662.181	408.22
662.519	420.99
662.858	395.45
663.196	423.54
663.535	367.37
663.873	380.13
664.212	403.11
664.55	400.56
664.888	438.86
665.226	390.35
665.565	433.76
665.903	571.64
666.241	443.97
666.579	395.45
666.917	382.69
667.255	392.9
667.593	395.45
667.931	449.08
668.268	400.56
668.606	459.29
668.944	403.11
669.282	436.31
669.619	359.71
669.957	372.47
670.294	487.38
670.632	449.08
670.969	487.38
671.307	449.08
671.644	403.11
671.981	385.24
672.318	456.74
672.656	420.99
672.993	380.13
673.33	413.33
673.667	329.07
674.004	466.95
674.341	387.79
674.678	433.76
675.015	372.47
675.351	377.58
675.688	420.99
676.025	410.77
676.362	398.01
676.698	428.65
677.035	446.52
677.371	433.76
677.708	423.54
678.044	364.81
678.38	395.45
678.717	380.13
679.053	367.37
679.389	382.69
679.725	390.35
680.062	451.63
680.398	418.43
680.734	426.09
681.07	311.19
681.406	346.94
681.742	438.86
682.077	400.56
682.413	405.67
682.749	413.33
683.085	359.71
683.42	390.35
683.756	443.97
684.091	446.52
684.427	408.22
684.762	387.79
685.098	387.79
685.433	372.47
685.768	385.24
686.104	420.99
686.439	349.49
686.774	364.81
687.109	362.26
687.444	426.09
687.779	398.01
688.114	459.29
688.449	441.42
688.784	413.33
689.119	339.28
689.454	441.42
689.789	410.77
690.123	418.43
690.458	403.11
690.792	418.43
691.127	474.61
691.461	398.01
691.796	395.45
692.13	449.08
692.465	441.42
692.799	428.65
693.133	472.06
693.467	395.45
693.802	380.13
694.136	433.76
694.47	369.92
694.804	428.65
695.138	441.42
695.472	387.79
695.806	387.79
696.139	449.08
696.473	415.88
696.807	341.83
697.141	420.99
697.474	466.95
697.808	380.13
698.141	477.16
698.475	398.01
698.808	418.43
699.142	349.49
699.475	398.01
699.808	487.38
700.142	380.13
700.475	385.24
700.808	438.86
701.141	426.09
701.474	472.06
701.807	398.01
702.14	426.09
702.473	441.42
702.806	426.09
703.139	433.76
703.472	477.16
703.804	410.77
704.137	418.43
704.47	385.24
704.802	392.9
705.135	380.13
705.467	449.08
705.8	420.99
706.132	375.03
706.464	428.65
706.797	443.97
707.129	441.42
707.461	362.26
707.793	369.92
708.125	410.77
708.457	418.43
708.789	418.43
709.121	443.97
709.453	464.4
709.785	413.33
710.117	492.48
710.449	364.81
710.781	428.65
711.112	459.29
711.444	510.36
711.775	372.47
712.107	359.71
712.438	436.31
712.77	410.77
713.101	420.99
713.433	438.86
713.764	423.54
714.095	390.35
714.426	387.79
714.757	418.43
715.089	380.13
715.42	443.97
715.751	377.58
716.082	415.88
716.412	431.2
716.743	387.79
717.074	418.43
717.405	451.63
717.736	405.67
718.066	418.43
718.397	375.03
718.727	329.07
719.058	428.65
719.388	415.88
719.719	400.56
720.049	441.42
720.38	433.76
720.71	420.99
721.04	420.99
721.37	413.33
721.7	382.69
722.031	428.65
722.361	413.33
722.691	367.37
723.021	423.54
723.35	377.58
723.68	380.13
724.01	362.26
724.34	451.63
724.67	464.4
724.999	431.2
725.329	372.47
725.658	377.58
725.988	418.43
726.317	464.4
726.647	423.54
726.976	464.4
727.306	415.88
727.635	436.31
727.964	474.61
728.293	454.18
728.622	403.11
728.952	359.71
729.281	375.03
729.61	413.33
729.939	469.5
730.267	398.01
730.596	449.08
730.925	415.88
731.254	392.9
731.583	395.45
731.911	410.77
732.24	410.77
732.568	400.56
732.897	438.86
733.225	364.81
733.554	403.11
733.882	418.43
734.21	469.5
734.539	415.88
734.867	415.88
735.195	382.69
735.523	385.24
735.851	385.24
736.179	410.77
736.507	415.88
736.835	392.9
737.163	415.88
737.491	400.56
737.819	336.73
738.147	359.71
738.474	418.43
738.802	400.56
739.13	398.01
739.457	410.77
739.785	418.43
740.112	354.6
740.44	346.94
740.767	349.49
741.094	392.9
741.422	380.13
741.749	436.31
742.076	431.2
742.403	428.65
742.73	464.4
743.057	423.54
743.384	380.13
743.711	454.18
744.038	395.45
744.365	408.22
744.692	438.86
745.018	387.79
745.345	357.15
745.672	364.81
745.998	385.24
746.325	426.09
746.651	446.52
746.978	446.52
747.304	472.06
747.631	436.31
747.957	395.45
748.283	395.45
748.61	405.67
748.936	377.58
749.262	410.77
749.588	446.52
749.914	426.09
750.24	441.42
750.566	375.03
750.892	433.76
751.218	415.88
751.543	436.31
751.869	408.22
752.195	420.99
752.521	372.47
752.846	492.48
753.172	349.49
753.497	380.13
753.823	433.76
754.148	423.54
754.473	408.22
754.799	403.11
755.124	443.97
755.449	398.01
755.774	403.11
756.1	390.35
756.425	408.22
756.75	454.18
757.075	390.35
757.4	546.1
757.724	382.69
758.049	385.24
758.374	387.79
758.699	443.97
759.024	387.79
759.348	377.58
759.673	415.88
759.997	415.88
760.322	484.82
760.646	431.2
760.971	431.2
761.295	472.06
761.619	456.74
761.944	464.4
762.268	515.46
762.592	495.04
762.916	586.96
763.24	594.62
763.564	566.53
763.888	658.45
764.212	750.37
764.536	735.05
764.86	801.44
765.184	796.33
765.508	786.12
765.831	832.08
766.155	1033.8
766.478	893.36
766.802	834.64
767.126	880.6
767.449	826.98
767.772	837.19
768.096	786.12
768.419	747.82
768.742	663.56
769.066	584.4
769.389	635.47
769.712	579.3
770.035	638.03
770.358	788.67
770.681	821.87
771.004	1097.63
771.327	1197.22
771.65	1286.58
771.972	1465.32
772.295	1868.75
772.618	2088.34
772.941	2456.03
773.263	2622
773.586	3216.94
773.908	3469.72
774.231	3456.95
774.553	3492.7
774.875	3791.45
775.198	4031.46
775.52	3633.14
775.842	3477.38
776.164	3336.95
776.487	3150.55
776.809	2994.79
777.131	3045.86
777.453	2833.93
777.775	2519.86
778.096	2476.46
778.418	2067.92
778.74	1695.12
779.062	1424.47
779.384	1253.39
779.705	1164.02
780.027	1066.99
780.348	1146.15
780.67	1143.59
780.991	1232.96
781.313	1539.37
781.634	1781.94
781.955	2144.52
782.277	2693.49
782.598	3188.85
782.919	3607.6
783.24	4069.77
783.561	4511.5
783.882	4700.45
784.203	5106.44
784.524	5213.68
784.845	5382.2
785.166	5793.3
785.487	6439.3
785.807	6743.15
786.128	6725.28
786.449	6533.78
786.769	6255.46
787.09	6204.39
787.41	6393.34
787.731	6551.65
788.051	6686.98
788.372	6485.26
788.692	6127.79
789.012	5558.38
789.332	4600.87
789.653	4414.47
789.973	4164.24
790.293	3377.8
790.613	2583.7
790.933	2170.05
791.253	1858.54
791.573	1488.3
791.893	1079.76
792.212	895.92
792.532	954.64
792.852	946.98
793.171	1044.01
793.491	1416.81
793.811	1820.24
794.13	2221.12
794.45	2596.47
794.769	3170.98
795.088	3673.99
795.408	4233.18
795.727	5341.35
796.046	6485.26
796.365	7547.47
796.684	7728.76
797.004	7915.15
797.323	8525.41
797.642	9475.27
797.96	9352.7
798.279	8939.06
798.598	8796.07
798.917	8770.53
799.236	8418.17
799.554	8188.36
799.873	7869.19
