Data from 2025-12-03_xpw_interference_micrometer_631_FLMS141361__43__593.txt Node

Date: Wed Dec 03 15:54:08 MST 2025
User: james
Spectrometer: FLMS14136
Trigger mode: 0
Integration Time (sec): 1.000000E-1
Scans to average: 1
Electric dark correction enabled: true
Nonlinearity correction enabled: false
Boxcar width: 0
XAxis mode: Wavelengths
Number of Pixels in Spectrum: 2048
>>>>>Begin Spectral Data<<<<<
339.315	-7.34
339.697	-7.34
340.079	-7.34
340.461	-86.5
340.843	-81.39
341.225	-68.62
341.607	-60.96
341.989	-104.37
342.371	-99.26
342.752	-122.24
343.134	-37.98
343.516	-45.64
343.897	-25.21
344.279	-58.41
344.661	15.64
345.042	48.83
345.423	140.75
345.805	84.58
346.186	156.08
346.567	110.11
346.949	66.71
347.33	102.45
347.711	217.36
348.092	222.46
348.473	199.48
348.854	242.89
349.235	276.08
349.616	314.38
349.997	342.47
350.378	293.96
350.758	306.72
351.139	368.01
351.52	424.18
351.9	304.17
352.281	352.69
352.661	368.01
353.042	357.79
353.422	411.41
353.803	373.11
354.183	426.73
354.563	352.69
354.943	378.22
355.324	365.45
355.704	390.99
356.084	454.82
356.464	421.63
356.844	403.75
357.224	413.97
357.603	416.52
357.983	370.56
358.363	431.84
358.743	406.31
359.122	416.52
359.502	373.11
359.882	350.13
360.261	406.31
360.641	383.33
361.02	393.54
361.399	375.67
361.779	375.67
362.158	311.83
362.537	283.74
362.916	355.24
363.296	373.11
363.675	316.94
364.054	293.96
364.433	301.62
364.812	373.11
365.19	385.88
365.569	357.79
365.948	383.33
366.327	355.24
366.705	436.95
367.084	347.58
367.463	373.11
367.841	375.67
368.22	413.97
368.598	337.37
368.977	419.07
369.355	375.67
369.733	378.22
370.111	390.99
370.49	357.79
370.868	429.29
371.246	388.43
371.624	286.3
372.002	304.17
372.38	398.65
372.758	347.58
373.136	362.9
373.513	378.22
373.891	362.9
374.269	398.65
374.646	368.01
375.024	365.45
375.402	362.9
375.779	370.56
376.157	357.79
376.534	383.33
376.911	383.33
377.289	314.38
377.666	350.13
378.043	327.15
378.42	421.63
378.797	406.31
379.175	347.58
379.552	380.77
379.929	368.01
380.305	385.88
380.682	347.58
381.059	316.94
381.436	472.69
381.813	398.65
382.189	383.33
382.566	352.69
382.943	388.43
383.319	380.77
383.696	332.26
384.072	401.2
384.448	345.03
384.825	357.79
385.201	396.09
385.577	355.24
385.953	406.31
386.329	403.75
386.706	311.83
387.082	311.83
387.458	357.79
387.834	398.65
388.209	416.52
388.585	396.09
388.961	401.2
389.337	337.37
389.713	383.33
390.088	388.43
390.464	393.54
390.839	355.24
391.215	419.07
391.59	334.81
391.966	449.71
392.341	462.48
392.716	393.54
393.092	362.9
393.467	413.97
393.842	408.86
394.217	385.88
394.592	380.77
394.967	360.35
395.342	411.41
395.717	322.04
396.092	373.11
396.467	360.35
396.841	416.52
397.216	380.77
397.591	396.09
397.965	390.99
398.34	390.99
398.714	403.75
399.089	370.56
399.463	419.07
399.838	390.99
400.212	416.52
400.586	401.2
400.961	472.69
401.335	373.11
401.709	345.03
402.083	332.26
402.457	380.77
402.831	385.88
403.205	452.27
403.579	475.25
403.953	345.03
404.326	447.16
404.7	429.29
405.074	390.99
405.447	426.73
405.821	413.97
406.195	413.97
406.568	337.37
406.942	411.41
407.315	470.14
407.688	390.99
408.062	334.81
408.435	342.47
408.808	339.92
409.181	419.07
409.554	390.99
409.927	413.97
410.3	365.45
410.673	436.95
411.046	316.94
411.419	436.95
411.792	457.37
412.165	408.86
412.537	424.18
412.91	393.54
413.283	383.33
413.655	378.22
414.028	393.54
414.4	416.52
414.773	283.74
415.145	365.45
415.517	465.03
415.889	411.41
416.262	383.33
416.634	383.33
417.006	388.43
417.378	426.73
417.75	416.52
418.122	457.37
418.494	416.52
418.866	373.11
419.238	322.04
419.609	378.22
419.981	347.58
420.353	368.01
420.725	360.35
421.096	339.92
421.468	362.9
421.839	393.54
422.211	419.07
422.582	360.35
422.953	385.88
423.325	431.84
423.696	350.13
424.067	434.39
424.438	370.56
424.809	398.65
425.18	360.35
425.551	401.2
425.922	431.84
426.293	457.37
426.664	419.07
427.035	462.48
427.406	380.77
427.776	324.6
428.147	465.03
428.518	434.39
428.888	380.77
429.259	380.77
429.629	393.54
429.999	436.95
430.37	411.41
430.74	426.73
431.11	411.41
431.481	390.99
431.851	398.65
432.221	442.05
432.591	459.93
432.961	380.77
433.331	375.67
433.701	429.29
434.071	411.41
434.441	444.61
434.81	442.05
435.18	368.01
435.55	383.33
435.919	416.52
436.289	436.95
436.658	375.67
437.028	413.97
437.397	426.73
437.767	408.86
438.136	352.69
438.505	306.72
438.875	401.2
439.244	424.18
439.613	439.5
439.982	436.95
440.351	398.65
440.72	370.56
441.089	421.63
441.458	444.61
441.827	398.65
442.196	429.29
442.564	472.69
442.933	452.27
443.302	493.12
443.67	419.07
444.039	362.9
444.407	488.01
444.776	452.27
445.144	329.7
445.513	368.01
445.881	477.8
446.249	439.5
446.617	324.6
446.986	421.63
447.354	419.07
447.722	521.21
448.09	393.54
448.458	383.33
448.826	411.41
449.194	413.97
449.561	383.33
449.929	350.13
450.297	380.77
450.665	426.73
451.032	462.48
451.4	452.27
451.767	431.84
452.135	365.45
452.502	403.75
452.87	380.77
453.237	345.03
453.604	416.52
453.971	383.33
454.339	442.05
454.706	385.88
455.073	413.97
455.44	419.07
455.807	406.31
456.174	436.95
456.541	454.82
456.908	472.69
457.274	347.58
457.641	347.58
458.008	368.01
458.374	457.37
458.741	411.41
459.108	357.79
459.474	316.94
459.841	383.33
460.207	434.39
460.573	365.45
460.94	419.07
461.306	419.07
461.672	401.2
462.038	457.37
462.404	383.33
462.771	419.07
463.137	388.43
463.503	452.27
463.868	439.5
464.234	421.63
464.6	393.54
464.966	424.18
465.332	436.95
465.697	413.97
466.063	370.56
466.429	447.16
466.794	360.35
467.16	388.43
467.525	457.37
467.89	375.67
468.256	413.97
468.621	416.52
468.986	403.75
469.351	465.03
469.717	444.61
470.082	385.88
470.447	383.33
470.812	411.41
471.177	426.73
471.542	416.52
471.906	398.65
472.271	442.05
472.636	345.03
473.001	434.39
473.365	424.18
473.73	378.22
474.094	416.52
474.459	388.43
474.823	314.38
475.188	421.63
475.552	378.22
475.917	373.11
476.281	362.9
476.645	419.07
477.009	431.84
477.373	470.14
477.737	452.27
478.101	493.12
478.465	398.65
478.829	436.95
479.193	419.07
479.557	401.2
479.921	421.63
480.284	413.97
480.648	408.86
481.012	393.54
481.375	477.8
481.739	355.24
482.102	411.41
482.466	383.33
482.829	436.95
483.193	424.18
483.556	388.43
483.919	390.99
484.282	436.95
484.645	419.07
485.009	406.31
485.372	393.54
485.735	421.63
486.098	357.79
486.46	388.43
486.823	352.69
487.186	431.84
487.549	442.05
487.912	362.9
488.274	383.33
488.637	390.99
488.999	406.31
489.362	401.2
489.724	539.08
490.087	477.8
490.449	411.41
490.811	347.58
491.174	416.52
491.536	444.61
491.898	475.25
492.26	380.77
492.622	419.07
492.984	465.03
493.346	442.05
493.708	421.63
494.07	375.67
494.432	383.33
494.794	416.52
495.155	401.2
495.517	380.77
495.879	378.22
496.24	314.38
496.602	419.07
496.963	380.77
497.325	426.73
497.686	495.67
498.048	480.35
498.409	388.43
498.77	355.24
499.131	408.86
499.492	447.16
499.854	454.82
500.215	434.39
500.576	424.18
500.937	419.07
501.298	408.86
501.658	401.2
502.019	431.84
502.38	375.67
502.741	434.39
503.101	352.69
503.462	365.45
503.823	447.16
504.183	434.39
504.543	452.27
504.904	452.27
505.264	459.93
505.625	454.82
505.985	380.77
506.345	365.45
506.705	401.2
507.065	368.01
507.426	447.16
507.786	380.77
508.146	413.97
508.505	370.56
508.865	434.39
509.225	403.75
509.585	447.16
509.945	390.99
510.304	345.03
510.664	365.45
511.024	385.88
511.383	398.65
511.743	401.2
512.102	378.22
512.462	444.61
512.821	465.03
513.18	434.39
513.539	385.88
513.899	357.79
514.258	406.31
514.617	416.52
514.976	431.84
515.335	459.93
515.694	429.29
516.053	342.47
516.412	444.61
516.771	447.16
517.129	419.07
517.488	383.33
517.847	375.67
518.205	431.84
518.564	449.71
518.922	383.33
519.281	426.73
519.639	413.97
519.998	334.81
520.356	444.61
520.714	416.52
521.073	373.11
521.431	431.84
521.789	403.75
522.147	380.77
522.505	449.71
522.863	360.35
523.221	406.31
523.579	406.31
523.937	396.09
524.295	485.46
524.652	426.73
525.01	403.75
525.368	398.65
525.725	510.99
526.083	411.41
526.44	393.54
526.798	431.84
527.155	424.18
527.513	444.61
527.87	380.77
528.227	411.41
528.584	503.33
528.942	482.91
529.299	447.16
529.656	401.2
530.013	416.52
530.37	339.92
530.727	375.67
531.083	444.61
531.44	396.09
531.797	465.03
532.154	482.91
532.511	429.29
532.867	431.84
533.224	465.03
533.58	457.37
533.937	467.59
534.293	403.75
534.65	380.77
535.006	477.8
535.362	459.93
535.718	337.37
536.075	416.52
536.431	457.37
536.787	459.93
537.143	465.03
537.499	480.35
537.855	485.46
538.211	413.97
538.567	403.75
538.923	452.27
539.278	444.61
539.634	370.56
539.99	385.88
540.345	385.88
540.701	436.95
541.056	385.88
541.412	396.09
541.767	322.04
542.123	357.79
542.478	342.47
542.833	419.07
543.188	413.97
543.544	493.12
543.899	439.5
544.254	416.52
544.609	378.22
544.964	319.49
545.319	416.52
545.674	444.61
546.029	459.93
546.383	413.97
546.738	345.03
547.093	408.86
547.447	416.52
547.802	362.9
548.157	360.35
548.511	332.26
548.866	408.86
549.22	459.93
549.574	339.92
549.929	436.95
550.283	380.77
550.637	383.33
550.991	454.82
551.345	447.16
551.699	429.29
552.053	462.48
552.407	401.2
552.761	462.48
553.115	439.5
553.469	362.9
553.823	411.41
554.176	411.41
554.53	411.41
554.884	459.93
555.237	656.54
555.591	493.12
555.944	482.91
556.298	472.69
556.651	475.25
557.005	370.56
557.358	365.45
557.711	426.73
558.064	360.35
558.417	385.88
558.771	503.33
559.124	465.03
559.477	475.25
559.83	365.45
560.182	465.03
560.535	421.63
560.888	380.77
561.241	436.95
561.594	419.07
561.946	370.56
562.299	365.45
562.651	442.05
563.004	388.43
563.356	439.5
563.709	431.84
564.061	388.43
564.413	355.24
564.766	439.5
565.118	424.18
565.47	452.27
565.822	388.43
566.174	439.5
566.526	403.75
566.878	508.44
567.23	421.63
567.582	393.54
567.934	408.86
568.286	375.67
568.638	434.39
568.989	431.84
569.341	431.84
569.693	449.71
570.044	368.01
570.396	370.56
570.747	401.2
571.098	406.31
571.45	429.29
571.801	408.86
572.152	396.09
572.504	452.27
572.855	454.82
573.206	413.97
573.557	368.01
573.908	403.75
574.259	365.45
574.61	375.67
574.961	431.84
575.311	500.78
575.662	457.37
576.013	403.75
576.364	429.29
576.714	421.63
577.065	434.39
577.415	413.97
577.766	421.63
578.116	378.22
578.467	411.41
578.817	406.31
579.167	442.05
579.518	431.84
579.868	419.07
580.218	401.2
580.568	454.82
580.918	421.63
581.268	390.99
581.618	490.57
581.968	442.05
582.318	396.09
582.668	406.31
583.017	416.52
583.367	429.29
583.717	385.88
584.066	408.86
584.416	362.9
584.765	419.07
585.115	373.11
585.464	459.93
585.814	454.82
586.163	488.01
586.512	352.69
586.862	411.41
587.211	419.07
587.56	396.09
587.909	357.79
588.258	416.52
588.607	401.2
588.956	449.71
589.305	373.11
589.654	439.5
590.002	362.9
590.351	406.31
590.7	393.54
591.048	355.24
591.397	408.86
591.746	488.01
592.094	403.75
592.443	396.09
592.791	383.33
593.139	454.82
593.488	434.39
593.836	370.56
594.184	424.18
594.532	365.45
594.88	406.31
595.228	431.84
595.576	401.2
595.924	477.8
596.272	373.11
596.62	368.01
596.968	421.63
597.316	370.56
597.664	393.54
598.011	431.84
598.359	373.11
598.706	411.41
599.054	375.67
599.402	380.77
599.749	411.41
600.096	416.52
600.444	411.41
600.791	398.65
601.138	431.84
601.485	406.31
601.833	347.58
602.18	411.41
602.527	413.97
602.874	406.31
603.221	393.54
603.568	398.65
603.914	426.73
604.261	370.56
604.608	424.18
604.955	416.52
605.301	424.18
605.648	408.86
605.995	416.52
606.341	396.09
606.688	444.61
607.034	385.88
607.38	449.71
607.727	408.86
608.073	408.86
608.419	462.48
608.765	444.61
609.112	465.03
609.458	439.5
609.804	398.65
610.15	370.56
610.496	396.09
610.842	436.95
611.187	403.75
611.533	408.86
611.879	375.67
612.225	393.54
612.57	347.58
612.916	396.09
613.261	434.39
613.607	439.5
613.952	442.05
614.298	434.39
614.643	439.5
614.989	375.67
615.334	403.75
615.679	426.73
616.024	431.84
616.369	424.18
616.714	403.75
617.059	401.2
617.404	362.9
617.749	396.09
618.094	304.17
618.439	355.24
618.784	477.8
619.129	396.09
619.473	378.22
619.818	419.07
620.163	419.07
620.507	439.5
620.852	357.79
621.196	490.57
621.54	383.33
621.885	408.86
622.229	429.29
622.573	403.75
622.918	398.65
623.262	365.45
623.606	393.54
623.95	449.71
624.294	431.84
624.638	429.29
624.982	429.29
625.326	442.05
625.67	413.97
626.013	390.99
626.357	347.58
626.701	449.71
627.044	426.73
627.388	426.73
627.731	436.95
628.075	388.43
628.418	398.65
628.762	449.71
629.105	434.39
629.448	439.5
629.792	419.07
630.135	408.86
630.478	419.07
630.821	406.31
631.164	357.79
631.507	419.07
631.85	393.54
632.193	424.18
632.536	408.86
632.879	378.22
633.221	403.75
633.564	411.41
633.907	493.12
634.249	413.97
634.592	485.46
634.935	406.31
635.277	426.73
635.619	406.31
635.962	426.73
636.304	416.52
636.646	393.54
636.989	408.86
637.331	388.43
637.673	342.47
638.015	429.29
638.357	396.09
638.699	449.71
639.041	408.86
639.383	370.56
639.725	403.75
640.067	439.5
640.408	444.61
640.75	368.01
641.092	431.84
641.433	390.99
641.775	439.5
642.116	396.09
642.458	403.75
642.799	421.63
643.141	370.56
643.482	470.14
643.823	439.5
644.164	442.05
644.506	447.16
644.847	436.95
645.188	429.29
645.529	429.29
645.87	416.52
646.211	362.9
646.552	449.71
646.893	403.75
647.233	485.46
647.574	316.94
647.915	375.67
648.255	352.69
648.596	350.13
648.937	416.52
649.277	419.07
649.618	434.39
649.958	396.09
650.298	442.05
650.639	383.33
650.979	413.97
651.319	360.35
651.659	398.65
651.999	375.67
652.339	406.31
652.679	411.41
653.019	488.01
653.359	480.35
653.699	413.97
654.039	449.71
654.379	360.35
654.719	368.01
655.058	439.5
655.398	390.99
655.737	449.71
656.077	452.27
656.416	510.99
656.756	454.82
657.095	416.52
657.435	429.29
657.774	390.99
658.113	357.79
658.452	380.77
658.792	459.93
659.131	383.33
659.47	431.84
659.809	383.33
660.148	421.63
660.487	327.15
660.826	304.17
661.164	385.88
661.503	385.88
661.842	329.7
662.181	424.18
662.519	439.5
662.858	408.86
663.196	388.43
663.535	380.77
663.873	350.13
664.212	434.39
664.55	434.39
664.888	388.43
665.226	436.95
665.565	396.09
665.903	646.32
666.241	421.63
666.579	413.97
666.917	378.22
667.255	485.46
667.593	447.16
667.931	421.63
668.268	401.2
668.606	485.46
668.944	436.95
669.282	362.9
669.619	390.99
669.957	396.09
670.294	411.41
670.632	362.9
670.969	472.69
671.307	442.05
671.644	444.61
671.981	385.88
672.318	431.84
672.656	452.27
672.993	360.35
673.33	421.63
673.667	403.75
674.004	421.63
674.341	370.56
674.678	385.88
675.015	380.77
675.351	360.35
675.688	396.09
676.025	370.56
676.362	424.18
676.698	426.73
677.035	375.67
677.371	398.65
677.708	406.31
678.044	406.31
678.38	413.97
678.717	429.29
679.053	419.07
679.389	342.47
679.725	388.43
680.062	416.52
680.398	383.33
680.734	419.07
681.07	396.09
681.406	398.65
681.742	357.79
682.077	390.99
682.413	378.22
682.749	398.65
683.085	398.65
683.42	459.93
683.756	447.16
684.091	398.65
684.427	413.97
684.762	475.25
685.098	368.01
685.433	378.22
685.768	413.97
686.104	385.88
686.439	396.09
686.774	347.58
687.109	419.07
687.444	385.88
687.779	337.37
688.114	419.07
688.449	419.07
688.784	383.33
689.119	368.01
689.454	383.33
689.789	408.86
690.123	480.35
690.458	411.41
690.792	378.22
691.127	426.73
691.461	419.07
691.796	373.11
692.13	442.05
692.465	449.71
692.799	413.97
693.133	459.93
693.467	426.73
693.802	365.45
694.136	383.33
694.47	426.73
694.804	408.86
695.138	449.71
695.472	449.71
695.806	406.31
696.139	424.18
696.473	480.35
696.807	424.18
697.141	413.97
697.474	429.29
697.808	396.09
698.141	347.58
698.475	396.09
698.808	472.69
699.142	362.9
699.475	362.9
699.808	337.37
700.142	429.29
700.475	339.92
700.808	375.67
701.141	380.77
701.474	383.33
701.807	368.01
702.14	385.88
702.473	393.54
702.806	416.52
703.139	355.24
703.472	434.39
703.804	470.14
704.137	462.48
704.47	408.86
704.802	408.86
705.135	442.05
705.467	454.82
705.8	447.16
706.132	465.03
706.464	383.33
706.797	370.56
707.129	401.2
707.461	362.9
707.793	426.73
708.125	477.8
708.457	360.35
708.789	396.09
709.121	385.88
709.453	465.03
709.785	459.93
710.117	406.31
710.449	429.29
710.781	368.01
711.112	355.24
711.444	393.54
711.775	403.75
712.107	368.01
712.438	459.93
712.77	393.54
713.101	436.95
713.433	385.88
713.764	368.01
714.095	454.82
714.426	447.16
714.757	429.29
715.089	393.54
715.42	352.69
715.751	375.67
716.082	398.65
716.412	388.43
716.743	406.31
717.074	447.16
717.405	408.86
717.736	434.39
718.066	388.43
718.397	408.86
718.727	362.9
719.058	362.9
719.388	385.88
719.719	434.39
720.049	429.29
720.38	365.45
720.71	385.88
721.04	424.18
721.37	370.56
721.7	368.01
722.031	398.65
722.361	368.01
722.691	380.77
723.021	406.31
723.35	342.47
723.68	434.39
724.01	378.22
724.34	436.95
724.67	459.93
724.999	390.99
725.329	385.88
725.658	429.29
725.988	388.43
726.317	444.61
726.647	416.52
726.976	398.65
727.306	352.69
727.635	408.86
727.964	431.84
728.293	393.54
728.622	393.54
728.952	447.16
729.281	352.69
729.61	370.56
729.939	411.41
730.267	396.09
730.596	444.61
730.925	436.95
731.254	375.67
731.583	442.05
731.911	362.9
732.24	401.2
732.568	439.5
732.897	357.79
733.225	390.99
733.554	360.35
733.882	426.73
734.21	357.79
734.539	378.22
734.867	345.03
735.195	390.99
735.523	388.43
735.851	393.54
736.179	393.54
736.507	378.22
736.835	426.73
737.163	403.75
737.491	401.2
737.819	416.52
738.147	413.97
738.474	408.86
738.802	416.52
739.13	493.12
739.457	434.39
739.785	411.41
740.112	434.39
740.44	388.43
740.767	421.63
741.094	365.45
741.422	329.7
741.749	380.77
742.076	357.79
742.403	452.27
742.73	388.43
743.057	380.77
743.384	385.88
743.711	388.43
744.038	421.63
744.365	521.21
744.692	411.41
745.018	470.14
745.345	378.22
745.672	421.63
745.998	429.29
746.325	396.09
746.651	393.54
746.978	393.54
747.304	385.88
747.631	362.9
747.957	378.22
748.283	431.84
748.61	370.56
748.936	408.86
749.262	345.03
749.588	368.01
749.914	360.35
750.24	462.48
750.566	362.9
750.892	449.71
751.218	357.79
751.543	396.09
751.869	401.2
752.195	401.2
752.521	368.01
752.846	408.86
753.172	419.07
753.497	375.67
753.823	436.95
754.148	434.39
754.473	398.65
754.799	449.71
755.124	383.33
755.449	393.54
755.774	345.03
756.1	449.71
756.425	362.9
756.75	390.99
757.075	411.41
757.4	485.46
757.724	413.97
758.049	472.69
758.374	421.63
758.699	380.77
759.024	370.56
759.348	401.2
759.673	416.52
759.997	401.2
760.322	380.77
760.646	385.88
760.971	426.73
761.295	444.61
761.619	467.59
761.944	447.16
762.268	449.71
762.592	444.61
762.916	528.87
763.24	536.53
763.564	643.77
763.888	730.59
764.212	748.46
764.536	694.84
764.86	753.57
765.184	745.91
765.508	835.27
765.831	814.85
766.155	1093.16
766.478	909.32
766.802	883.79
767.126	776.55
767.449	827.61
767.772	807.19
768.096	802.08
768.419	661.64
768.742	633.56
769.066	643.77
769.389	669.3
769.712	605.47
770.035	745.91
770.358	832.72
770.681	985.92
771.004	1187.64
771.327	1335.74
771.65	1552.77
771.972	1585.97
772.295	2157.92
772.618	2592
772.941	2870.32
773.263	3013.31
773.586	3480.57
773.908	3894.22
774.231	3993.8
774.553	3830.39
774.875	4049.98
775.198	4254.25
775.52	4052.53
775.842	3697.61
776.164	3335.03
776.487	3209.92
776.809	3046.5
777.131	3064.37
777.453	2655.83
777.775	2489.86
778.096	2249.85
778.418	1974.08
778.74	1639.59
779.062	1328.08
779.384	1149.34
779.705	1090.61
780.027	1157
780.348	1218.28
780.67	1287.22
780.991	1524.69
781.313	1920.46
781.634	2346.87
781.955	2796.27
782.277	3437.17
782.598	4032.1
782.919	4295.1
783.24	4688.32
783.561	5316.45
783.882	5722.44
784.203	6062.04
784.524	5977.78
784.845	6174.39
785.166	6590.59
785.487	7234.04
785.807	7530.23
786.128	7254.47
786.449	7126.8
786.769	6682.51
787.09	6631.44
787.41	6820.39
787.731	6677.4
788.051	6547.18
788.372	6437.39
788.692	6044.16
789.012	5439.01
789.332	4366.6
789.653	4208.29
789.973	3955.5
790.293	3192.04
790.613	2321.34
790.933	2009.83
791.253	1660.01
791.573	1315.31
791.893	1111.04
792.212	978.26
792.532	1011.46
792.852	1162.11
793.171	1368.93
793.491	1915.35
793.811	2288.15
794.13	2717.11
794.45	3319.71
794.769	3764
795.088	4507.03
795.408	4989.62
795.727	6455.26
796.046	7532.78
796.365	8740.53
796.684	9006.08
797.004	8944.8
797.323	9539.74
797.642	10604.5
797.96	10280.22
798.279	9478.46
798.598	9463.14
798.917	9478.46
799.236	9164.39
799.554	8648.61
