Data from 2025-12-03_xpw_interference_micrometer_631_FLMS141361__51__601.txt Node

Date: Wed Dec 03 15:54:09 MST 2025
User: james
Spectrometer: FLMS14136
Trigger mode: 0
Integration Time (sec): 1.000000E-1
Scans to average: 1
Electric dark correction enabled: true
Nonlinearity correction enabled: false
Boxcar width: 0
XAxis mode: Wavelengths
Number of Pixels in Spectrum: 2048
>>>>>Begin Spectral Data<<<<<
339.315	-74.85
339.697	-74.85
340.079	-74.85
340.461	-151.45
340.843	-87.61
341.225	-90.17
341.607	-113.15
341.989	-108.04
342.371	-154
342.752	-59.53
343.134	-77.4
343.516	-5.9
343.897	-13.56
344.279	14.52
344.661	45.16
345.042	57.93
345.423	42.61
345.805	93.68
346.186	57.93
346.567	149.85
346.949	160.06
347.33	177.94
347.711	213.69
348.092	216.24
348.473	180.49
348.854	226.45
349.235	216.24
349.616	331.14
349.997	320.93
350.378	231.56
350.758	310.71
351.139	300.5
351.52	292.84
351.9	318.37
352.281	338.8
352.661	364.34
353.042	374.55
353.422	333.69
353.803	428.17
354.183	387.32
354.563	384.76
354.943	451.15
355.324	440.94
355.704	412.85
356.084	387.32
356.464	410.3
356.844	402.64
357.224	372
357.603	394.98
357.983	372
358.363	438.38
358.743	338.8
359.122	415.4
359.502	394.98
359.882	415.4
360.261	417.96
360.641	407.74
361.02	343.91
361.399	359.23
361.779	430.72
362.158	356.67
362.537	377.1
362.916	292.84
363.296	372
363.675	382.21
364.054	351.57
364.433	310.71
364.812	313.27
365.19	374.55
365.569	328.59
365.948	318.37
366.327	323.48
366.705	349.01
367.084	318.37
367.463	423.06
367.841	407.74
368.22	349.01
368.598	326.03
368.977	326.03
369.355	364.34
369.733	331.14
370.111	382.21
370.49	285.18
370.868	392.42
371.246	369.44
371.624	410.3
372.002	400.08
372.38	392.42
372.758	354.12
373.136	392.42
373.513	361.78
373.891	356.67
374.269	287.73
374.646	364.34
375.024	323.48
375.402	333.69
375.779	392.42
376.157	341.35
376.534	313.27
376.911	318.37
377.289	364.34
377.666	308.16
378.043	369.44
378.42	328.59
378.797	366.89
379.175	343.91
379.552	346.46
379.929	443.49
380.305	458.81
380.682	377.1
381.059	389.87
381.436	377.1
381.813	303.05
382.189	244.33
382.566	315.82
382.943	320.93
383.319	356.67
383.696	338.8
384.072	392.42
384.448	433.28
384.825	384.76
385.201	346.46
385.577	351.57
385.953	338.8
386.329	374.55
386.706	359.23
387.082	402.64
387.458	349.01
387.834	402.64
388.209	359.23
388.585	377.1
388.961	323.48
389.337	346.46
389.713	343.91
390.088	326.03
390.464	382.21
390.839	374.55
391.215	331.14
391.59	333.69
391.966	382.21
392.341	354.12
392.716	349.01
393.092	389.87
393.467	379.66
393.842	333.69
394.217	389.87
394.592	387.32
394.967	407.74
395.342	346.46
395.717	328.59
396.092	407.74
396.467	387.32
396.841	392.42
397.216	290.29
397.591	361.78
397.965	336.25
398.34	346.46
398.714	389.87
399.089	364.34
399.463	338.8
399.838	453.7
400.212	361.78
400.586	361.78
400.961	369.44
401.335	336.25
401.709	369.44
402.083	297.95
402.457	435.83
402.831	351.57
403.205	356.67
403.579	351.57
403.953	351.57
404.326	456.26
404.7	425.62
405.074	387.32
405.447	389.87
405.821	400.08
406.195	420.51
406.568	349.01
406.942	417.96
407.315	356.67
407.688	382.21
408.062	356.67
408.435	392.42
408.808	377.1
409.181	387.32
409.554	359.23
409.927	397.53
410.3	394.98
410.673	377.1
411.046	356.67
411.419	423.06
411.792	474.13
412.165	384.76
412.537	428.17
412.91	392.42
413.283	440.94
413.655	359.23
414.028	369.44
414.4	392.42
414.773	374.55
415.145	423.06
415.517	372
415.889	417.96
416.262	394.98
416.634	318.37
417.006	359.23
417.378	384.76
417.75	438.38
418.122	364.34
418.494	356.67
418.866	392.42
419.238	405.19
419.609	402.64
419.981	369.44
420.353	326.03
420.725	369.44
421.096	405.19
421.468	349.01
421.839	433.28
422.211	387.32
422.582	438.38
422.953	410.3
423.325	377.1
423.696	394.98
424.067	346.46
424.438	392.42
424.809	356.67
425.18	372
425.551	364.34
425.922	382.21
426.293	389.87
426.664	356.67
427.035	420.51
427.406	466.47
427.776	420.51
428.147	428.17
428.518	356.67
428.888	417.96
429.259	451.15
429.629	433.28
429.999	366.89
430.37	377.1
430.74	351.57
431.11	417.96
431.481	354.12
431.851	438.38
432.221	382.21
432.591	430.72
432.961	407.74
433.331	389.87
433.701	402.64
434.071	359.23
434.441	356.67
434.81	407.74
435.18	428.17
435.55	440.94
435.919	382.21
436.289	402.64
436.658	387.32
437.028	402.64
437.397	423.06
437.767	461.36
438.136	425.62
438.505	361.78
438.875	333.69
439.244	354.12
439.613	428.17
439.982	379.66
440.351	420.51
440.72	410.3
441.089	364.34
441.458	417.96
441.827	366.89
442.196	372
442.564	402.64
442.933	410.3
443.302	382.21
443.67	402.64
444.039	359.23
444.407	369.44
444.776	484.34
445.144	425.62
445.513	384.76
445.881	423.06
446.249	382.21
446.617	354.12
446.986	410.3
447.354	435.83
447.722	359.23
448.09	379.66
448.458	400.08
448.826	351.57
449.194	440.94
449.561	392.42
449.929	351.57
450.297	372
450.665	420.51
451.032	361.78
451.4	374.55
451.767	435.83
452.135	394.98
452.502	377.1
452.87	435.83
453.237	369.44
453.604	410.3
453.971	364.34
454.339	423.06
454.706	405.19
455.073	366.89
455.44	331.14
455.807	410.3
456.174	425.62
456.541	338.8
456.908	417.96
457.274	333.69
457.641	417.96
458.008	405.19
458.374	407.74
458.741	407.74
459.108	394.98
459.474	463.92
459.841	410.3
460.207	361.78
460.573	366.89
460.94	425.62
461.306	379.66
461.672	382.21
462.038	435.83
462.404	407.74
462.771	410.3
463.137	397.53
463.503	456.26
463.868	420.51
464.234	428.17
464.6	377.1
464.966	372
465.332	405.19
465.697	433.28
466.063	417.96
466.429	428.17
466.794	476.68
467.16	507.32
467.525	379.66
467.89	412.85
468.256	402.64
468.621	451.15
468.986	379.66
469.351	407.74
469.717	389.87
470.082	394.98
470.447	463.92
470.812	448.6
471.177	417.96
471.542	366.89
471.906	394.98
472.271	394.98
472.636	387.32
473.001	366.89
473.365	377.1
473.73	389.87
474.094	389.87
474.459	397.53
474.823	484.34
475.188	417.96
475.552	382.21
475.917	361.78
476.281	402.64
476.645	394.98
477.009	356.67
477.373	400.08
477.737	374.55
478.101	410.3
478.465	451.15
478.829	433.28
479.193	366.89
479.557	349.01
479.921	397.53
480.284	438.38
480.648	425.62
481.012	315.82
481.375	346.46
481.739	372
482.102	361.78
482.466	394.98
482.829	448.6
483.193	372
483.556	359.23
483.919	364.34
484.282	389.87
484.645	392.42
485.009	379.66
485.372	366.89
485.735	384.76
486.098	382.21
486.46	374.55
486.823	402.64
487.186	382.21
487.549	415.4
487.912	410.3
488.274	354.12
488.637	318.37
488.999	394.98
489.362	425.62
489.724	382.21
490.087	389.87
490.449	448.6
490.811	400.08
491.174	456.26
491.536	389.87
491.898	397.53
492.26	397.53
492.622	356.67
492.984	400.08
493.346	382.21
493.708	423.06
494.07	315.82
494.432	387.32
494.794	392.42
495.155	364.34
495.517	456.26
495.879	305.61
496.24	382.21
496.602	440.94
496.963	369.44
497.325	374.55
497.686	366.89
498.048	349.01
498.409	377.1
498.77	438.38
499.131	410.3
499.492	402.64
499.854	382.21
500.215	428.17
500.576	392.42
500.937	443.49
501.298	410.3
501.658	420.51
502.019	402.64
502.38	379.66
502.741	435.83
503.101	397.53
503.462	336.25
503.823	400.08
504.183	433.28
504.543	379.66
504.904	341.35
505.264	392.42
505.625	351.57
505.985	374.55
506.345	417.96
506.705	476.68
507.065	384.76
507.426	420.51
507.786	430.72
508.146	433.28
508.505	384.76
508.865	425.62
509.225	382.21
509.585	479.24
509.945	435.83
510.304	446.04
510.664	389.87
511.024	440.94
511.383	341.35
511.743	389.87
512.102	389.87
512.462	453.7
512.821	387.32
513.18	466.47
513.539	489.45
513.899	412.85
514.258	410.3
514.617	382.21
514.976	333.69
515.335	361.78
515.694	410.3
516.053	372
516.412	338.8
516.771	400.08
517.129	405.19
517.488	407.74
517.847	364.34
518.205	392.42
518.564	372
518.922	420.51
519.281	443.49
519.639	415.4
519.998	384.76
520.356	364.34
520.714	412.85
521.073	379.66
521.431	430.72
521.789	492
522.147	430.72
522.505	430.72
522.863	453.7
523.221	397.53
523.579	315.82
523.937	433.28
524.295	417.96
524.652	415.4
525.01	382.21
525.368	372
525.725	389.87
526.083	412.85
526.44	440.94
526.798	379.66
527.155	405.19
527.513	433.28
527.87	471.58
528.227	372
528.584	392.42
528.942	440.94
529.299	440.94
529.656	438.38
530.013	394.98
530.37	394.98
530.727	397.53
531.083	433.28
531.44	433.28
531.797	394.98
532.154	364.34
532.511	438.38
532.867	405.19
533.224	349.01
533.58	369.44
533.937	405.19
534.293	387.32
534.65	405.19
535.006	382.21
535.362	428.17
535.718	425.62
536.075	433.28
536.431	466.47
536.787	384.76
537.143	438.38
537.499	389.87
537.855	451.15
538.211	440.94
538.567	405.19
538.923	463.92
539.278	484.34
539.634	458.81
539.99	392.42
540.345	349.01
540.701	374.55
541.056	440.94
541.412	402.64
541.767	394.98
542.123	463.92
542.478	430.72
542.833	423.06
543.188	415.4
543.544	466.47
543.899	374.55
544.254	407.74
544.609	374.55
544.964	410.3
545.319	410.3
545.674	410.3
546.029	484.34
546.383	389.87
546.738	489.45
547.093	397.53
547.447	397.53
547.802	384.76
548.157	458.81
548.511	438.38
548.866	417.96
549.22	377.1
549.574	435.83
549.929	417.96
550.283	397.53
550.637	351.57
550.991	331.14
551.345	420.51
551.699	412.85
552.053	407.74
552.407	384.76
552.761	400.08
553.115	453.7
553.469	410.3
553.823	417.96
554.176	435.83
554.53	402.64
554.884	400.08
555.237	668.19
555.591	469.02
555.944	446.04
556.298	415.4
556.651	438.38
557.005	343.91
557.358	397.53
557.711	364.34
558.064	405.19
558.417	402.64
558.771	471.58
559.124	463.92
559.477	405.19
559.83	400.08
560.182	379.66
560.535	448.6
560.888	379.66
561.241	379.66
561.594	382.21
561.946	351.57
562.299	417.96
562.651	433.28
563.004	433.28
563.356	440.94
563.709	461.36
564.061	412.85
564.413	405.19
564.766	394.98
565.118	407.74
565.47	377.1
565.822	405.19
566.174	410.3
566.526	430.72
566.878	382.21
567.23	412.85
567.582	435.83
567.934	448.6
568.286	448.6
568.638	384.76
568.989	466.47
569.341	379.66
569.693	356.67
570.044	351.57
570.396	313.27
570.747	446.04
571.098	361.78
571.45	377.1
571.801	415.4
572.152	430.72
572.504	389.87
572.855	328.59
573.206	448.6
573.557	446.04
573.908	423.06
574.259	402.64
574.61	392.42
574.961	377.1
575.311	328.59
575.662	338.8
576.013	430.72
576.364	425.62
576.714	356.67
577.065	423.06
577.415	417.96
577.766	402.64
578.116	400.08
578.467	346.46
578.817	456.26
579.167	407.74
579.518	384.76
579.868	397.53
580.218	351.57
580.568	410.3
580.918	423.06
581.268	369.44
581.618	377.1
581.968	410.3
582.318	433.28
582.668	379.66
583.017	397.53
583.367	428.17
583.717	443.49
584.066	451.15
584.416	433.28
584.765	397.53
585.115	387.32
585.464	369.44
585.814	366.89
586.163	354.12
586.512	433.28
586.862	423.06
587.211	397.53
587.56	397.53
587.909	389.87
588.258	379.66
588.607	410.3
588.956	407.74
589.305	453.7
589.654	469.02
590.002	377.1
590.351	402.64
590.7	402.64
591.048	318.37
591.397	387.32
591.746	423.06
592.094	338.8
592.443	451.15
592.791	402.64
593.139	428.17
593.488	435.83
593.836	397.53
594.184	366.89
594.532	451.15
594.88	448.6
595.228	400.08
595.576	326.03
595.924	382.21
596.272	351.57
596.62	392.42
596.968	387.32
597.316	382.21
597.664	364.34
598.011	415.4
598.359	430.72
598.706	382.21
599.054	410.3
599.402	394.98
599.749	446.04
600.096	402.64
600.444	405.19
600.791	392.42
601.138	430.72
601.485	359.23
601.833	456.26
602.18	410.3
602.527	425.62
602.874	402.64
603.221	423.06
603.568	420.51
603.914	377.1
604.261	359.23
604.608	440.94
604.955	425.62
605.301	412.85
605.648	366.89
605.995	417.96
606.341	412.85
606.688	410.3
607.034	420.51
607.38	412.85
607.727	438.38
608.073	476.68
608.419	443.49
608.765	377.1
609.112	369.44
609.458	412.85
609.804	435.83
610.15	410.3
610.496	351.57
610.842	407.74
611.187	308.16
611.533	369.44
611.879	438.38
612.225	425.62
612.57	407.74
612.916	356.67
613.261	433.28
613.607	407.74
613.952	415.4
614.298	402.64
614.643	443.49
614.989	374.55
615.334	412.85
615.679	420.51
616.024	333.69
616.369	405.19
616.714	359.23
617.059	323.48
617.404	305.61
617.749	374.55
618.094	343.91
618.439	305.61
618.784	405.19
619.129	387.32
619.473	405.19
619.818	400.08
620.163	382.21
620.507	405.19
620.852	402.64
621.196	456.26
621.54	417.96
621.885	476.68
622.229	400.08
622.573	415.4
622.918	446.04
623.262	448.6
623.606	354.12
623.95	331.14
624.294	374.55
624.638	384.76
624.982	377.1
625.326	389.87
625.67	425.62
626.013	446.04
626.357	364.34
626.701	377.1
627.044	458.81
627.388	410.3
627.731	420.51
628.075	476.68
628.418	499.66
628.762	392.42
629.105	428.17
629.448	443.49
629.792	440.94
630.135	387.32
630.478	374.55
630.821	351.57
631.164	354.12
631.507	453.7
631.85	428.17
632.193	343.91
632.536	400.08
632.879	338.8
633.221	435.83
633.564	366.89
633.907	349.01
634.249	397.53
634.592	377.1
634.935	420.51
635.277	300.5
635.619	315.82
635.962	423.06
636.304	377.1
636.646	387.32
636.989	338.8
637.331	346.46
637.673	405.19
638.015	433.28
638.357	417.96
638.699	387.32
639.041	453.7
639.383	349.01
639.725	323.48
640.067	407.74
640.408	484.34
640.75	405.19
641.092	443.49
641.433	374.55
641.775	377.1
642.116	354.12
642.458	405.19
642.799	369.44
643.141	446.04
643.482	356.67
643.823	430.72
644.164	384.76
644.506	458.81
644.847	394.98
645.188	438.38
645.529	366.89
645.87	415.4
646.211	377.1
646.552	456.26
646.893	402.64
647.233	377.1
647.574	369.44
647.915	366.89
648.255	374.55
648.596	410.3
648.937	402.64
649.277	407.74
649.618	361.78
649.958	394.98
650.298	361.78
650.639	394.98
650.979	479.24
651.319	415.4
651.659	343.91
651.999	384.76
652.339	451.15
652.679	336.25
653.019	343.91
653.359	394.98
653.699	374.55
654.039	417.96
654.379	361.78
654.719	394.98
655.058	420.51
655.398	481.79
655.737	458.81
656.077	466.47
656.416	369.44
656.756	397.53
657.095	397.53
657.435	382.21
657.774	379.66
658.113	402.64
658.452	377.1
658.792	433.28
659.131	394.98
659.47	417.96
659.809	410.3
660.148	397.53
660.487	446.04
660.826	369.44
661.164	356.67
661.503	407.74
661.842	443.49
662.181	425.62
662.519	402.64
662.858	397.53
663.196	336.25
663.535	369.44
663.873	446.04
664.212	364.34
664.55	407.74
664.888	469.02
665.226	382.21
665.565	359.23
665.903	594.14
666.241	417.96
666.579	402.64
666.917	394.98
667.255	346.46
667.593	356.67
667.931	407.74
668.268	466.47
668.606	354.12
668.944	387.32
669.282	438.38
669.619	417.96
669.957	420.51
670.294	410.3
670.632	366.89
670.969	305.61
671.307	356.67
671.644	428.17
671.981	402.64
672.318	407.74
672.656	412.85
672.993	433.28
673.33	402.64
673.667	400.08
674.004	377.1
674.341	410.3
674.678	384.76
675.015	492
675.351	407.74
675.688	356.67
676.025	366.89
676.362	374.55
676.698	377.1
677.035	387.32
677.371	382.21
677.708	402.64
678.044	497.11
678.38	402.64
678.717	402.64
679.053	394.98
679.389	389.87
679.725	354.12
680.062	379.66
680.398	364.34
680.734	410.3
681.07	428.17
681.406	400.08
681.742	387.32
682.077	389.87
682.413	372
682.749	382.21
683.085	397.53
683.42	392.42
683.756	397.53
684.091	333.69
684.427	384.76
684.762	484.34
685.098	420.51
685.433	417.96
685.768	364.34
686.104	415.4
686.439	384.76
686.774	387.32
687.109	402.64
687.444	349.01
687.779	369.44
688.114	359.23
688.449	331.14
688.784	420.51
689.119	433.28
689.454	392.42
689.789	397.53
690.123	379.66
690.458	412.85
690.792	384.76
691.127	430.72
691.461	377.1
691.796	372
692.13	369.44
692.465	400.08
692.799	397.53
693.133	402.64
693.467	369.44
693.802	366.89
694.136	428.17
694.47	382.21
694.804	430.72
695.138	382.21
695.472	417.96
695.806	397.53
696.139	425.62
696.473	387.32
696.807	405.19
697.141	372
697.474	366.89
697.808	333.69
698.141	407.74
698.475	415.4
698.808	359.23
699.142	433.28
699.475	425.62
699.808	412.85
700.142	410.3
700.475	438.38
700.808	384.76
701.141	354.12
701.474	389.87
701.807	407.74
702.14	351.57
702.473	389.87
702.806	471.58
703.139	402.64
703.472	474.13
703.804	384.76
704.137	417.96
704.47	433.28
704.802	415.4
705.135	435.83
705.467	420.51
705.8	448.6
706.132	420.51
706.464	400.08
706.797	333.69
707.129	346.46
707.461	387.32
707.793	407.74
708.125	331.14
708.457	420.51
708.789	453.7
709.121	387.32
709.453	443.49
709.785	374.55
710.117	351.57
710.449	323.48
710.781	428.17
711.112	451.15
711.444	451.15
711.775	415.4
712.107	394.98
712.438	315.82
712.77	346.46
713.101	417.96
713.433	379.66
713.764	446.04
714.095	407.74
714.426	382.21
714.757	372
715.089	428.17
715.42	379.66
715.751	453.7
716.082	420.51
716.412	420.51
716.743	366.89
717.074	351.57
717.405	308.16
717.736	392.42
718.066	387.32
718.397	377.1
718.727	420.51
719.058	377.1
719.388	349.01
719.719	361.78
720.049	438.38
720.38	356.67
720.71	392.42
721.04	417.96
721.37	425.62
721.7	397.53
722.031	412.85
722.361	415.4
722.691	407.74
723.021	415.4
723.35	392.42
723.68	394.98
724.01	400.08
724.34	407.74
724.67	394.98
724.999	359.23
725.329	400.08
725.658	372
725.988	366.89
726.317	394.98
726.647	392.42
726.976	377.1
727.306	364.34
727.635	402.64
727.964	384.76
728.293	394.98
728.622	397.53
728.952	359.23
729.281	420.51
729.61	374.55
729.939	333.69
730.267	402.64
730.596	484.34
730.925	438.38
731.254	328.59
731.583	461.36
731.911	333.69
732.24	405.19
732.568	412.85
732.897	372
733.225	361.78
733.554	349.01
733.882	354.12
734.21	354.12
734.539	415.4
734.867	425.62
735.195	366.89
735.523	394.98
735.851	430.72
736.179	349.01
736.507	379.66
736.835	336.25
737.163	389.87
737.491	417.96
737.819	361.78
738.147	366.89
738.474	285.18
738.802	428.17
739.13	387.32
739.457	440.94
739.785	438.38
740.112	351.57
740.44	402.64
740.767	417.96
741.094	423.06
741.422	392.42
741.749	400.08
742.076	435.83
742.403	377.1
742.73	405.19
743.057	338.8
743.384	402.64
743.711	400.08
744.038	351.57
744.365	486.9
744.692	443.49
745.018	400.08
745.345	392.42
745.672	364.34
745.998	430.72
746.325	343.91
746.651	402.64
746.978	374.55
747.304	410.3
747.631	366.89
747.957	384.76
748.283	425.62
748.61	384.76
748.936	361.78
749.262	382.21
749.588	379.66
749.914	338.8
750.24	471.58
750.566	440.94
750.892	359.23
751.218	366.89
751.543	331.14
751.869	397.53
752.195	428.17
752.521	392.42
752.846	382.21
753.172	405.19
753.497	382.21
753.823	392.42
754.148	338.8
754.473	359.23
754.799	410.3
755.124	364.34
755.449	410.3
755.774	346.46
756.1	361.78
756.425	433.28
756.75	430.72
757.075	438.38
757.4	530.3
757.724	425.62
758.049	394.98
758.374	310.71
758.699	397.53
759.024	453.7
759.348	354.12
759.673	425.62
759.997	430.72
760.322	387.32
760.646	333.69
760.971	435.83
761.295	379.66
761.619	407.74
761.944	479.24
762.268	451.15
762.592	486.9
762.916	535.41
763.24	596.69
763.564	581.37
763.888	678.4
764.212	706.49
764.536	767.77
764.86	777.98
765.184	816.28
765.508	829.05
765.831	887.78
766.155	1138.01
766.478	841.82
766.802	826.5
767.126	806.07
767.449	846.92
767.772	844.37
768.096	675.85
768.419	668.19
768.742	652.87
769.066	571.16
769.389	548.18
769.712	540.52
770.035	675.85
770.358	765.22
770.681	1153.33
771.004	1263.12
771.327	1408.67
771.65	1546.55
771.972	1776.35
772.295	2159.36
772.618	2550.03
772.941	2864.09
773.263	3178.16
773.586	3655.64
773.908	3898.21
774.231	4056.52
774.553	3985.03
774.875	4278.66
775.198	4426.76
775.52	3985.03
775.842	3757.77
776.164	3374.77
776.487	3160.28
776.809	3040.28
777.131	3109.22
777.453	2797.7
777.775	2478.53
778.096	2258.94
778.418	1988.28
778.74	1605.28
779.062	1306.53
779.384	1166.1
779.705	1056.3
780.027	1094.6
780.348	1153.33
780.67	1316.75
780.991	1475.05
781.313	1906.58
781.634	2322.78
781.955	2797.7
782.277	3379.87
782.598	3857.36
782.919	4388.46
783.24	4715.29
783.561	5453.22
783.882	5780.05
784.203	6114.54
784.524	6170.72
784.845	6083.9
785.166	6443.93
785.487	7209.94
785.807	7365.7
786.128	7174.19
786.449	7008.22
786.769	6740.12
787.09	6765.65
787.41	6837.15
787.731	6803.95
788.051	6689.05
788.372	6290.73
788.692	6037.94
789.012	5547.69
789.332	4554.43
789.653	4099.93
789.973	3798.63
790.293	3175.6
790.613	2276.82
790.933	1960.2
791.253	1528.68
791.573	1311.64
791.893	1071.62
792.212	867.35
792.532	903.1
792.852	1135.46
793.171	1472.5
793.491	1832.53
793.811	2302.35
794.13	2744.08
794.45	3175.6
794.769	3803.74
795.088	4505.91
795.408	5016.59
795.727	6308.6
796.046	7592.95
796.365	8984.54
796.684	9130.08
797.004	9012.63
797.323	9464.57
797.642	10419.54
797.96	10220.37
798.279	9702.04
798.598	9653.52
798.917	9444.15
799.236	8925.81
799.554	8657.71
799.873	7929.99
800.192	7715.51
800.51	7289.1
800.829	6760.55
801.147	5986.87
801.466	5077.87
801.784	4899.13
