Data from 2025-12-03_xpw_interference_micrometer_631_FLMS141361__2__552.txt Node

Date: Wed Dec 03 15:54:04 MST 2025
User: james
Spectrometer: FLMS14136
Trigger mode: 0
Integration Time (sec): 1.000000E-1
Scans to average: 1
Electric dark correction enabled: true
Nonlinearity correction enabled: false
Boxcar width: 0
XAxis mode: Wavelengths
Number of Pixels in Spectrum: 2048
>>>>>Begin Spectral Data<<<<<
339.315	-57.93
339.697	-57.93
340.079	-57.93
340.461	-83.46
340.843	-109
341.225	-137.08
341.607	-98.78
341.989	-75.8
342.371	-68.14
342.752	-65.59
343.134	-63.04
343.516	-101.34
343.897	-93.68
344.279	-45.16
344.661	79.95
345.042	64.63
345.423	87.61
345.805	110.59
346.186	105.49
346.567	141.23
346.949	159.11
347.33	238.26
347.711	233.16
348.092	210.17
348.473	248.48
348.854	248.48
349.235	266.35
349.616	360.82
349.997	258.69
350.378	307.2
350.758	327.63
351.139	348.06
351.52	353.16
351.9	383.8
352.281	373.59
352.661	322.52
353.042	327.63
353.422	309.76
353.803	376.14
354.183	355.72
354.563	406.79
354.943	383.8
355.324	485.94
355.704	427.21
356.084	365.93
356.464	396.57
356.844	417
357.224	411.89
357.603	432.32
357.983	457.85
358.363	365.93
358.743	417
359.122	404.23
359.502	394.02
359.882	432.32
360.261	371.04
360.641	432.32
361.02	386.36
361.399	401.68
361.779	368.48
362.158	373.59
362.537	348.06
362.916	381.25
363.296	445.09
363.675	373.59
364.054	437.43
364.433	383.8
364.812	414.45
365.19	355.72
365.569	340.4
365.948	360.82
366.327	345.5
366.705	381.25
367.084	340.4
367.463	404.23
367.841	353.16
368.22	391.46
368.598	368.48
368.977	368.48
369.355	411.89
369.733	376.14
370.111	353.16
370.49	353.16
370.868	414.45
371.246	342.95
371.624	376.14
372.002	391.46
372.38	350.61
372.758	325.08
373.136	355.72
373.513	396.57
373.891	409.34
374.269	378.7
374.646	437.43
375.024	447.64
375.402	355.72
375.779	383.8
376.157	470.62
376.534	325.08
376.911	371.04
377.289	371.04
377.666	396.57
378.043	368.48
378.42	401.68
378.797	368.48
379.175	414.45
379.552	386.36
379.929	394.02
380.305	358.27
380.682	409.34
381.059	325.08
381.436	371.04
381.813	330.18
382.189	358.27
382.566	429.77
382.943	365.93
383.319	399.12
383.696	327.63
384.072	394.02
384.448	450.19
384.825	386.36
385.201	388.91
385.577	332.74
385.953	396.57
386.329	322.52
386.706	417
387.082	450.19
387.458	422.11
387.834	473.17
388.209	401.68
388.585	360.82
388.961	470.62
389.337	445.09
389.713	445.09
390.088	353.16
390.464	327.63
390.839	383.8
391.215	422.11
391.59	325.08
391.966	417
392.341	404.23
392.716	406.79
393.092	429.77
393.467	371.04
393.842	391.46
394.217	365.93
394.592	340.4
394.967	414.45
395.342	388.91
395.717	378.7
396.092	371.04
396.467	353.16
396.841	355.72
397.216	353.16
397.591	337.84
397.965	348.06
398.34	401.68
398.714	422.11
399.089	417
399.463	378.7
399.838	378.7
400.212	404.23
400.586	409.34
400.961	376.14
401.335	409.34
401.709	399.12
402.083	442.53
402.457	399.12
402.831	437.43
403.205	450.19
403.579	409.34
403.953	404.23
404.326	368.48
404.7	340.4
405.074	419.55
405.447	460.41
405.821	350.61
406.195	368.48
406.568	378.7
406.942	445.09
407.315	419.55
407.688	342.95
408.062	434.87
408.435	434.87
408.808	386.36
409.181	419.55
409.554	514.03
409.927	396.57
410.3	391.46
410.673	345.5
411.046	419.55
411.419	424.66
411.792	376.14
412.165	434.87
412.537	417
412.91	363.38
413.283	411.89
413.655	386.36
414.028	457.85
414.4	386.36
414.773	417
415.145	409.34
415.517	345.5
415.889	473.17
416.262	406.79
416.634	401.68
417.006	404.23
417.378	411.89
417.75	480.83
418.122	396.57
418.494	383.8
418.866	462.96
419.238	409.34
419.609	419.55
419.981	417
420.353	401.68
420.725	414.45
421.096	455.3
421.468	388.91
421.839	406.79
422.211	383.8
422.582	401.68
422.953	376.14
423.325	378.7
423.696	427.21
424.067	422.11
424.438	378.7
424.809	462.96
425.18	429.77
425.551	432.32
425.922	424.66
426.293	434.87
426.664	409.34
427.035	485.94
427.406	388.91
427.776	411.89
428.147	432.32
428.518	414.45
428.888	473.17
429.259	445.09
429.629	404.23
429.999	414.45
430.37	437.43
430.74	342.95
431.11	386.36
431.481	462.96
431.851	432.32
432.221	473.17
432.591	427.21
432.961	422.11
433.331	434.87
433.701	506.37
434.071	378.7
434.441	432.32
434.81	434.87
435.18	406.79
435.55	411.89
435.919	445.09
436.289	409.34
436.658	422.11
437.028	406.79
437.397	409.34
437.767	417
438.136	378.7
438.505	434.87
438.875	355.72
439.244	434.87
439.613	401.68
439.982	399.12
440.351	350.61
440.72	411.89
441.089	365.93
441.458	399.12
441.827	434.87
442.196	414.45
442.564	491.05
442.933	406.79
443.302	399.12
443.67	406.79
444.039	437.43
444.407	439.98
444.776	427.21
445.144	455.3
445.513	396.57
445.881	452.75
446.249	368.48
446.617	401.68
446.986	417
447.354	422.11
447.722	409.34
448.09	439.98
448.458	399.12
448.826	457.85
449.194	409.34
449.561	424.66
449.929	470.62
450.297	404.23
450.665	396.57
451.032	394.02
451.4	442.53
451.767	419.55
452.135	427.21
452.502	376.14
452.87	406.79
453.237	434.87
453.604	450.19
453.971	442.53
454.339	391.46
454.706	371.04
455.073	391.46
455.44	424.66
455.807	394.02
456.174	470.62
456.541	445.09
456.908	399.12
457.274	406.79
457.641	483.39
458.008	419.55
458.374	432.32
458.741	445.09
459.108	452.75
459.474	439.98
459.841	368.48
460.207	465.51
460.573	473.17
460.94	460.41
461.306	485.94
461.672	419.55
462.038	442.53
462.404	439.98
462.771	475.73
463.137	437.43
463.503	399.12
463.868	460.41
464.234	424.66
464.6	447.64
464.966	452.75
465.332	491.05
465.697	419.55
466.063	417
466.429	401.68
466.794	337.84
467.16	455.3
467.525	465.51
467.89	462.96
468.256	419.55
468.621	434.87
468.986	406.79
469.351	406.79
469.717	404.23
470.082	394.02
470.447	371.04
470.812	411.89
471.177	442.53
471.542	447.64
471.906	432.32
472.271	485.94
472.636	480.83
473.001	404.23
473.365	422.11
473.73	429.77
474.094	462.96
474.459	485.94
474.823	427.21
475.188	383.8
475.552	378.7
475.917	363.38
476.281	411.89
476.645	365.93
477.009	371.04
477.373	388.91
477.737	427.21
478.101	434.87
478.465	452.75
478.829	470.62
479.193	470.62
479.557	462.96
479.921	488.49
480.284	450.19
480.648	409.34
481.012	429.77
481.375	399.12
481.739	386.36
482.102	429.77
482.466	368.48
482.829	460.41
483.193	419.55
483.556	340.4
483.919	404.23
484.282	419.55
484.645	439.98
485.009	470.62
485.372	394.02
485.735	457.85
486.098	368.48
486.46	404.23
486.823	450.19
487.186	371.04
487.549	386.36
487.912	450.19
488.274	437.43
488.637	424.66
488.999	399.12
489.362	447.64
489.724	409.34
490.087	437.43
490.449	386.36
490.811	409.34
491.174	457.85
491.536	414.45
491.898	422.11
492.26	406.79
492.622	445.09
492.984	442.53
493.346	401.68
493.708	399.12
494.07	468.07
494.432	417
494.794	429.77
495.155	332.74
495.517	373.59
495.879	396.57
496.24	432.32
496.602	455.3
496.963	427.21
497.325	457.85
497.686	483.39
498.048	409.34
498.409	437.43
498.77	468.07
499.131	478.28
499.492	414.45
499.854	455.3
500.215	437.43
500.576	447.64
500.937	468.07
501.298	411.89
501.658	483.39
502.019	432.32
502.38	401.68
502.741	457.85
503.101	373.59
503.462	363.38
503.823	409.34
504.183	460.41
504.543	396.57
504.904	406.79
505.264	442.53
505.625	480.83
505.985	419.55
506.345	437.43
506.705	483.39
507.065	419.55
507.426	332.74
507.786	424.66
508.146	437.43
508.505	496.15
508.865	455.3
509.225	462.96
509.585	473.17
509.945	432.32
510.304	478.28
510.664	442.53
511.024	470.62
511.383	399.12
511.743	419.55
512.102	473.17
512.462	455.3
512.821	439.98
513.18	485.94
513.539	409.34
513.899	388.91
514.258	381.25
514.617	353.16
514.976	417
515.335	414.45
515.694	450.19
516.053	470.62
516.412	427.21
516.771	437.43
517.129	371.04
517.488	409.34
517.847	337.84
518.205	299.54
518.564	376.14
518.922	363.38
519.281	368.48
519.639	424.66
519.998	475.73
520.356	422.11
520.714	437.43
521.073	450.19
521.431	432.32
521.789	437.43
522.147	439.98
522.505	452.75
522.863	429.77
523.221	470.62
523.579	483.39
523.937	480.83
524.295	485.94
524.652	450.19
525.01	414.45
525.368	439.98
525.725	460.41
526.083	488.49
526.44	460.41
526.798	432.32
527.155	394.02
527.513	414.45
527.87	447.64
528.227	465.51
528.584	496.15
528.942	452.75
529.299	437.43
529.656	396.57
530.013	437.43
530.37	468.07
530.727	429.77
531.083	437.43
531.44	447.64
531.797	427.21
532.154	442.53
532.511	465.51
532.867	462.96
533.224	452.75
533.58	376.14
533.937	434.87
534.293	488.49
534.65	455.3
535.006	455.3
535.362	452.75
535.718	422.11
536.075	437.43
536.431	417
536.787	391.46
537.143	434.87
537.499	445.09
537.855	462.96
538.211	427.21
538.567	460.41
538.923	478.28
539.278	427.21
539.634	501.26
539.99	411.89
540.345	434.87
540.701	483.39
541.056	406.79
541.412	404.23
541.767	378.7
542.123	391.46
542.478	455.3
542.833	488.49
543.188	432.32
543.544	501.26
543.899	455.3
544.254	411.89
544.609	478.28
544.964	445.09
545.319	475.73
545.674	417
546.029	445.09
546.383	483.39
546.738	493.6
547.093	427.21
547.447	406.79
547.802	462.96
548.157	475.73
548.511	445.09
548.866	432.32
549.22	437.43
549.574	465.51
549.929	442.53
550.283	437.43
550.637	419.55
550.991	406.79
551.345	452.75
551.699	506.37
552.053	386.36
552.407	368.48
552.761	457.85
553.115	419.55
553.469	447.64
553.823	498.71
554.176	439.98
554.53	432.32
554.884	383.8
555.237	595.74
555.591	468.07
555.944	465.51
556.298	445.09
556.651	468.07
557.005	414.45
557.358	406.79
557.711	417
558.064	478.28
558.417	422.11
558.771	493.6
559.124	432.32
559.477	503.81
559.83	488.49
560.182	445.09
560.535	394.02
560.888	409.34
561.241	429.77
561.594	376.14
561.946	386.36
562.299	401.68
562.651	404.23
563.004	424.66
563.356	473.17
563.709	457.85
564.061	439.98
564.413	386.36
564.766	417
565.118	445.09
565.47	376.14
565.822	434.87
566.174	432.32
566.526	483.39
566.878	401.68
567.23	447.64
567.582	422.11
567.934	399.12
568.286	480.83
568.638	480.83
568.989	442.53
569.341	465.51
569.693	378.7
570.044	434.87
570.396	383.8
570.747	373.59
571.098	478.28
571.45	485.94
571.801	473.17
572.152	483.39
572.504	437.43
572.855	411.89
573.206	508.92
573.557	434.87
573.908	439.98
574.259	422.11
574.61	429.77
574.961	442.53
575.311	498.71
575.662	455.3
576.013	409.34
576.364	445.09
576.714	475.73
577.065	432.32
577.415	427.21
577.766	470.62
578.116	417
578.467	432.32
578.817	434.87
579.167	386.36
579.518	439.98
579.868	452.75
580.218	434.87
580.568	417
580.918	401.68
581.268	465.51
581.618	455.3
581.968	411.89
582.318	381.25
582.668	383.8
583.017	401.68
583.367	503.81
583.717	485.94
584.066	485.94
584.416	437.43
584.765	394.02
585.115	394.02
585.464	401.68
585.814	432.32
586.163	452.75
586.512	391.46
586.862	457.85
587.211	424.66
587.56	480.83
587.909	475.73
588.258	419.55
588.607	406.79
588.956	427.21
589.305	414.45
589.654	396.57
590.002	419.55
590.351	468.07
590.7	417
591.048	355.72
591.397	386.36
591.746	419.55
592.094	442.53
592.443	335.29
592.791	386.36
593.139	391.46
593.488	399.12
593.836	399.12
594.184	478.28
594.532	432.32
594.88	429.77
595.228	404.23
595.576	414.45
595.924	452.75
596.272	460.41
596.62	455.3
596.968	422.11
597.316	447.64
597.664	460.41
598.011	394.02
598.359	365.93
598.706	460.41
599.054	457.85
599.402	501.26
599.749	422.11
600.096	457.85
600.444	480.83
600.791	396.57
601.138	429.77
601.485	429.77
601.833	422.11
602.18	363.38
602.527	355.72
602.874	363.38
603.221	450.19
603.568	496.15
603.914	391.46
604.261	345.5
604.608	386.36
604.955	348.06
605.301	401.68
605.648	409.34
605.995	386.36
606.341	437.43
606.688	383.8
607.034	409.34
607.38	475.73
607.727	345.5
608.073	386.36
608.419	442.53
608.765	480.83
609.112	396.57
609.458	391.46
609.804	350.61
610.15	439.98
610.496	450.19
610.842	473.17
611.187	404.23
611.533	399.12
611.879	460.41
612.225	414.45
612.57	424.66
612.916	411.89
613.261	439.98
613.607	399.12
613.952	411.89
614.298	422.11
614.643	439.98
614.989	383.8
615.334	434.87
615.679	450.19
616.024	439.98
616.369	409.34
616.714	488.49
617.059	457.85
617.404	424.66
617.749	450.19
618.094	434.87
618.439	396.57
618.784	401.68
619.129	396.57
619.473	434.87
619.818	406.79
620.163	432.32
620.507	445.09
620.852	422.11
621.196	350.61
621.54	437.43
621.885	353.16
622.229	468.07
622.573	491.05
622.918	399.12
623.262	427.21
623.606	391.46
623.95	483.39
624.294	399.12
624.638	480.83
624.982	360.82
625.326	419.55
625.67	414.45
626.013	332.74
626.357	445.09
626.701	383.8
627.044	475.73
627.388	401.68
627.731	493.6
628.075	427.21
628.418	432.32
628.762	417
629.105	424.66
629.448	388.91
629.792	391.46
630.135	450.19
630.478	381.25
630.821	345.5
631.164	383.8
631.507	363.38
631.85	419.55
632.193	394.02
632.536	468.07
632.879	386.36
633.221	432.32
633.564	460.41
633.907	381.25
634.249	386.36
634.592	365.93
634.935	460.41
635.277	399.12
635.619	404.23
635.962	406.79
636.304	452.75
636.646	485.94
636.989	445.09
637.331	422.11
637.673	422.11
638.015	445.09
638.357	391.46
638.699	483.39
639.041	491.05
639.383	491.05
639.725	406.79
640.067	373.59
640.408	419.55
640.75	419.55
641.092	460.41
641.433	391.46
641.775	401.68
642.116	409.34
642.458	485.94
642.799	470.62
643.141	414.45
643.482	450.19
643.823	445.09
644.164	427.21
644.506	455.3
644.847	417
645.188	409.34
645.529	498.71
645.87	468.07
646.211	498.71
646.552	432.32
646.893	404.23
647.233	422.11
647.574	411.89
647.915	437.43
648.255	368.48
648.596	411.89
648.937	465.51
649.277	414.45
649.618	437.43
649.958	511.47
650.298	424.66
650.639	401.68
650.979	452.75
651.319	442.53
651.659	383.8
651.999	442.53
652.339	455.3
652.679	480.83
653.019	455.3
653.359	417
653.699	358.27
654.039	432.32
654.379	445.09
654.719	391.46
655.058	457.85
655.398	506.37
655.737	485.94
656.077	417
656.416	342.95
656.756	360.82
657.095	432.32
657.435	483.39
657.774	365.93
658.113	360.82
658.452	404.23
658.792	439.98
659.131	419.55
659.47	498.71
659.809	470.62
660.148	422.11
660.487	399.12
660.826	434.87
661.164	447.64
661.503	491.05
661.842	414.45
662.181	414.45
662.519	330.18
662.858	406.79
663.196	460.41
663.535	417
663.873	457.85
664.212	409.34
664.55	452.75
664.888	419.55
665.226	401.68
665.565	376.14
665.903	603.4
666.241	450.19
666.579	424.66
666.917	373.59
667.255	457.85
667.593	394.02
667.931	439.98
668.268	411.89
668.606	350.61
668.944	396.57
669.282	478.28
669.619	445.09
669.957	485.94
670.294	414.45
670.632	442.53
670.969	381.25
671.307	406.79
671.644	437.43
671.981	422.11
672.318	491.05
672.656	404.23
672.993	422.11
673.33	427.21
673.667	373.59
674.004	434.87
674.341	452.75
674.678	511.47
675.015	468.07
675.351	483.39
675.688	371.04
676.025	419.55
676.362	470.62
676.698	422.11
677.035	450.19
677.371	455.3
677.708	465.51
678.044	439.98
678.38	460.41
678.717	394.02
679.053	350.61
679.389	386.36
679.725	460.41
680.062	445.09
680.398	488.49
680.734	511.47
681.07	427.21
681.406	409.34
681.742	483.39
682.077	422.11
682.413	465.51
682.749	417
683.085	394.02
683.42	327.63
683.756	363.38
684.091	396.57
684.427	365.93
684.762	401.68
685.098	399.12
685.433	406.79
685.768	411.89
686.104	447.64
686.439	434.87
686.774	429.77
687.109	381.25
687.444	388.91
687.779	478.28
688.114	468.07
688.449	434.87
688.784	450.19
689.119	404.23
689.454	401.68
689.789	422.11
690.123	462.96
690.458	439.98
690.792	371.04
691.127	475.73
691.461	455.3
691.796	409.34
692.13	399.12
692.465	439.98
692.799	478.28
693.133	508.92
693.467	429.77
693.802	445.09
694.136	455.3
694.47	422.11
694.804	473.17
695.138	358.27
695.472	350.61
695.806	371.04
696.139	409.34
696.473	465.51
696.807	409.34
697.141	414.45
697.474	358.27
697.808	404.23
698.141	437.43
698.475	450.19
698.808	391.46
699.142	363.38
699.475	452.75
699.808	483.39
700.142	470.62
700.475	460.41
700.808	437.43
701.141	394.02
701.474	445.09
701.807	363.38
702.14	348.06
702.473	442.53
702.806	427.21
703.139	417
703.472	427.21
703.804	388.91
704.137	445.09
704.47	422.11
704.802	391.46
705.135	432.32
705.467	434.87
705.8	468.07
706.132	327.63
706.464	434.87
706.797	394.02
707.129	325.08
707.461	411.89
707.793	394.02
708.125	422.11
708.457	371.04
708.789	371.04
709.121	424.66
709.453	411.89
709.785	429.77
710.117	506.37
710.449	409.34
710.781	442.53
711.112	429.77
711.444	434.87
711.775	391.46
712.107	445.09
712.438	388.91
712.77	460.41
713.101	483.39
713.433	424.66
713.764	447.64
714.095	465.51
714.426	378.7
714.757	409.34
715.089	457.85
715.42	381.25
715.751	376.14
716.082	388.91
716.412	450.19
716.743	396.57
717.074	424.66
717.405	417
717.736	424.66
718.066	414.45
718.397	473.17
718.727	432.32
719.058	457.85
719.388	381.25
719.719	432.32
720.049	394.02
720.38	388.91
720.71	432.32
721.04	470.62
721.37	429.77
721.7	462.96
722.031	399.12
722.361	404.23
722.691	424.66
723.021	399.12
723.35	439.98
723.68	465.51
724.01	457.85
724.34	381.25
724.67	409.34
724.999	424.66
725.329	488.49
725.658	442.53
725.988	450.19
726.317	465.51
726.647	365.93
726.976	386.36
727.306	383.8
727.635	414.45
727.964	406.79
728.293	381.25
728.622	437.43
728.952	396.57
729.281	447.64
729.61	473.17
729.939	491.05
730.267	406.79
730.596	483.39
730.925	478.28
731.254	419.55
731.583	383.8
731.911	422.11
732.24	353.16
732.568	350.61
732.897	414.45
733.225	473.17
733.554	455.3
733.882	462.96
734.21	429.77
734.539	386.36
734.867	394.02
735.195	396.57
735.523	480.83
735.851	414.45
736.179	437.43
736.507	350.61
736.835	391.46
737.163	419.55
737.491	457.85
737.819	406.79
738.147	409.34
738.474	378.7
738.802	409.34
739.13	360.82
739.457	432.32
739.785	409.34
740.112	337.84
740.44	429.77
740.767	419.55
741.094	419.55
741.422	342.95
741.749	424.66
742.076	399.12
742.403	470.62
742.73	429.77
743.057	396.57
743.384	447.64
743.711	394.02
744.038	460.41
744.365	429.77
744.692	381.25
745.018	391.46
745.345	417
745.672	388.91
745.998	419.55
746.325	394.02
746.651	496.15
746.978	447.64
747.304	465.51
747.631	414.45
747.957	447.64
748.283	437.43
748.61	391.46
748.936	442.53
749.262	406.79
749.588	391.46
749.914	401.68
750.24	378.7
750.566	450.19
750.892	401.68
751.218	358.27
751.543	460.41
751.869	399.12
752.195	455.3
752.521	429.77
752.846	424.66
753.172	485.94
753.497	445.09
753.823	391.46
754.148	399.12
754.473	488.49
754.799	427.21
755.124	365.93
755.449	424.66
755.774	491.05
756.1	442.53
756.425	498.71
756.75	437.43
757.075	437.43
757.4	572.75
757.724	434.87
758.049	447.64
758.374	386.36
758.699	406.79
759.024	394.02
759.348	452.75
759.673	457.85
759.997	432.32
760.322	447.64
760.646	452.75
760.971	439.98
761.295	411.89
761.619	537.01
761.944	452.75
762.268	470.62
762.592	516.58
762.916	572.75
763.24	524.24
763.564	608.5
763.888	623.82
764.212	677.44
764.536	715.74
764.86	843.41
765.184	845.97
765.508	817.88
765.831	853.63
766.155	1027.26
766.478	983.85
766.802	886.82
767.126	858.73
767.449	810.22
767.772	861.29
768.096	751.49
768.419	677.44
768.742	582.97
769.066	618.72
769.389	537.01
769.712	570.2
770.035	639.14
770.358	700.42
770.681	856.18
771.004	968.53
771.327	1121.73
771.65	1290.25
771.972	1433.24
772.295	1852
772.618	2153.3
772.941	2388.21
773.263	2600.14
773.586	3080.17
773.908	3376.36
774.231	3557.65
774.553	3470.84
774.875	3853.85
775.198	3843.63
775.52	3603.61
775.842	3447.86
776.164	3195.07
776.487	3115.92
776.809	2983.14
777.131	2960.16
777.453	2704.83
777.775	2551.62
778.096	2426.51
778.418	2038.39
778.74	1739.65
779.062	1382.18
779.384	1300.47
779.705	1147.26
780.027	1126.84
780.348	1063
780.67	986.4
780.991	1211.1
781.313	1369.41
781.634	1783.06
781.955	2043.5
782.277	2551.62
782.598	2970.38
782.919	3340.62
783.24	3812.99
783.561	4218.98
783.882	4660.71
784.203	4859.88
784.524	5168.84
784.845	5076.91
785.166	5459.92
785.487	6103.37
785.807	6550.21
786.128	6455.74
786.449	6333.18
786.769	5993.58
787.09	6075.28
787.41	6297.43
787.731	6322.96
788.051	6343.39
788.372	6177.42
788.692	5871.01
789.012	5396.09
789.332	4739.87
789.653	4234.3
789.973	4155.14
790.293	3516.8
790.613	2646.1
790.933	2181.38
791.253	1913.28
791.573	1499.63
791.893	1129.39
792.212	1006.83
792.532	871.5
792.852	935.33
793.171	1096.2
793.491	1331.11
793.811	1719.22
794.13	2053.71
794.45	2526.09
794.769	2870.79
795.088	3626.59
795.408	4091.31
795.727	5056.49
796.046	6174.87
796.365	7180.9
796.684	7441.34
797.004	7581.78
797.323	7982.66
797.642	9175.09
797.96	8942.73
798.279	8710.37
798.598	8600.58
798.917	8689.94
799.236	8335.02
799.554	8092.45
799.873	7678.81
800.192	7323.89
800.51	7076.21
800.829	6537.45
801.147	6185.08
