Data from 2025-12-03_xpw_interference_micrometer_631_FLMS141361__97__647.txt Node

Date: Wed Dec 03 15:54:14 MST 2025
User: james
Spectrometer: FLMS14136
Trigger mode: 0
Integration Time (sec): 1.000000E-1
Scans to average: 1
Electric dark correction enabled: true
Nonlinearity correction enabled: false
Boxcar width: 0
XAxis mode: Wavelengths
Number of Pixels in Spectrum: 2048
>>>>>Begin Spectral Data<<<<<
339.315	-22.66
339.697	-22.66
340.079	-22.66
340.461	-150.33
340.843	-104.37
341.225	-142.67
341.607	-109.48
341.989	-157.99
342.371	-109.48
342.752	-96.71
343.134	-63.52
343.516	-37.98
343.897	-30.32
344.279	28.41
344.661	82.03
345.042	46.28
345.423	64.15
345.805	89.69
346.186	102.45
346.567	171.4
346.949	163.74
347.33	181.61
347.711	184.16
348.092	176.5
348.473	250.55
348.854	212.25
349.235	179.06
349.616	314.38
349.997	288.85
350.378	316.94
350.758	316.94
351.139	322.04
351.52	337.37
351.9	288.85
352.281	365.45
352.661	319.49
353.042	388.43
353.422	385.88
353.803	426.73
354.183	434.39
354.563	385.88
354.943	324.6
355.324	403.75
355.704	362.9
356.084	342.47
356.464	368.01
356.844	419.07
357.224	403.75
357.603	373.11
357.983	398.65
358.363	375.67
358.743	355.24
359.122	352.69
359.502	403.75
359.882	370.56
360.261	347.58
360.641	337.37
361.02	337.37
361.399	357.79
361.779	390.99
362.158	406.31
362.537	345.03
362.916	339.92
363.296	309.28
363.675	299.06
364.054	347.58
364.433	378.22
364.812	365.45
365.19	324.6
365.569	258.21
365.948	283.74
366.327	329.7
366.705	286.3
367.084	286.3
367.463	293.96
367.841	306.72
368.22	283.74
368.598	345.03
368.977	304.17
369.355	378.22
369.733	319.49
370.111	347.58
370.49	342.47
370.868	311.83
371.246	350.13
371.624	396.09
372.002	345.03
372.38	286.3
372.758	296.51
373.136	263.32
373.513	311.83
373.891	337.37
374.269	299.06
374.646	324.6
375.024	327.15
375.402	332.26
375.779	385.88
376.157	390.99
376.534	352.69
376.911	350.13
377.289	322.04
377.666	311.83
378.043	385.88
378.42	383.33
378.797	345.03
379.175	352.69
379.552	378.22
379.929	347.58
380.305	347.58
380.682	368.01
381.059	301.62
381.436	329.7
381.813	304.17
382.189	411.41
382.566	334.81
382.943	398.65
383.319	360.35
383.696	383.33
384.072	350.13
384.448	378.22
384.825	390.99
385.201	345.03
385.577	352.69
385.953	339.92
386.329	314.38
386.706	309.28
387.082	327.15
387.458	347.58
387.834	345.03
388.209	332.26
388.585	345.03
388.961	319.49
389.337	396.09
389.713	357.79
390.088	311.83
390.464	332.26
390.839	334.81
391.215	434.39
391.59	360.35
391.966	419.07
392.341	378.22
392.716	316.94
393.092	281.19
393.467	334.81
393.842	426.73
394.217	390.99
394.592	309.28
394.967	342.47
395.342	327.15
395.717	322.04
396.092	334.81
396.467	355.24
396.841	270.98
397.216	345.03
397.591	265.87
397.965	332.26
398.34	383.33
398.714	327.15
399.089	393.54
399.463	380.77
399.838	444.61
400.212	311.83
400.586	385.88
400.961	388.43
401.335	324.6
401.709	352.69
402.083	352.69
402.457	393.54
402.831	375.67
403.205	368.01
403.579	378.22
403.953	373.11
404.326	306.72
404.7	373.11
405.074	288.85
405.447	350.13
405.821	403.75
406.195	360.35
406.568	378.22
406.942	421.63
407.315	390.99
407.688	475.25
408.062	314.38
408.435	401.2
408.808	375.67
409.181	406.31
409.554	337.37
409.927	388.43
410.3	334.81
410.673	316.94
411.046	357.79
411.419	365.45
411.792	304.17
412.165	306.72
412.537	350.13
412.91	385.88
413.283	434.39
413.655	388.43
414.028	350.13
414.4	390.99
414.773	357.79
415.145	383.33
415.517	390.99
415.889	355.24
416.262	396.09
416.634	421.63
417.006	429.29
417.378	370.56
417.75	347.58
418.122	383.33
418.494	411.41
418.866	370.56
419.238	390.99
419.609	411.41
419.981	373.11
420.353	421.63
420.725	396.09
421.096	390.99
421.468	436.95
421.839	337.37
422.211	355.24
422.582	393.54
422.953	390.99
423.325	383.33
423.696	339.92
424.067	332.26
424.438	408.86
424.809	370.56
425.18	393.54
425.551	375.67
425.922	378.22
426.293	396.09
426.664	360.35
427.035	388.43
427.406	403.75
427.776	411.41
428.147	413.97
428.518	339.92
428.888	385.88
429.259	393.54
429.629	375.67
429.999	373.11
430.37	426.73
430.74	449.71
431.11	408.86
431.481	327.15
431.851	495.67
432.221	505.89
432.591	396.09
432.961	370.56
433.331	360.35
433.701	342.47
434.071	459.93
434.441	429.29
434.81	436.95
435.18	401.2
435.55	316.94
435.919	350.13
436.289	375.67
436.658	373.11
437.028	385.88
437.397	370.56
437.767	365.45
438.136	398.65
438.505	408.86
438.875	373.11
439.244	324.6
439.613	383.33
439.982	385.88
440.351	324.6
440.72	342.47
441.089	373.11
441.458	362.9
441.827	388.43
442.196	398.65
442.564	541.64
442.933	419.07
443.302	470.14
443.67	411.41
444.039	406.31
444.407	457.37
444.776	385.88
445.144	406.31
445.513	406.31
445.881	398.65
446.249	413.97
446.617	419.07
446.986	439.5
447.354	434.39
447.722	416.52
448.09	337.37
448.458	370.56
448.826	421.63
449.194	429.29
449.561	439.5
449.929	396.09
450.297	447.16
450.665	355.24
451.032	390.99
451.4	360.35
451.767	347.58
452.135	362.9
452.502	413.97
452.87	355.24
453.237	431.84
453.604	401.2
453.971	393.54
454.339	439.5
454.706	434.39
455.073	380.77
455.44	401.2
455.807	413.97
456.174	370.56
456.541	444.61
456.908	375.67
457.274	390.99
457.641	419.07
458.008	396.09
458.374	413.97
458.741	373.11
459.108	436.95
459.474	396.09
459.841	434.39
460.207	352.69
460.573	393.54
460.94	413.97
461.306	393.54
461.672	424.18
462.038	388.43
462.404	419.07
462.771	434.39
463.137	465.03
463.503	419.07
463.868	411.41
464.234	401.2
464.6	434.39
464.966	449.71
465.332	452.27
465.697	447.16
466.063	319.49
466.429	434.39
466.794	436.95
467.16	380.77
467.525	398.65
467.89	390.99
468.256	388.43
468.621	347.58
468.986	401.2
469.351	401.2
469.717	401.2
470.082	385.88
470.447	406.31
470.812	380.77
471.177	436.95
471.542	442.05
471.906	352.69
472.271	403.75
472.636	375.67
473.001	408.86
473.365	380.77
473.73	357.79
474.094	337.37
474.459	373.11
474.823	329.7
475.188	390.99
475.552	375.67
475.917	355.24
476.281	429.29
476.645	380.77
477.009	350.13
477.373	337.37
477.737	357.79
478.101	375.67
478.465	304.17
478.829	319.49
479.193	370.56
479.557	375.67
479.921	393.54
480.284	337.37
480.648	365.45
481.012	406.31
481.375	403.75
481.739	352.69
482.102	442.05
482.466	403.75
482.829	398.65
483.193	378.22
483.556	378.22
483.919	457.37
484.282	419.07
484.645	345.03
485.009	375.67
485.372	329.7
485.735	327.15
486.098	365.45
486.46	424.18
486.823	429.29
487.186	355.24
487.549	339.92
487.912	434.39
488.274	398.65
488.637	421.63
488.999	408.86
489.362	396.09
489.724	398.65
490.087	396.09
490.449	411.41
490.811	467.59
491.174	419.07
491.536	396.09
491.898	373.11
492.26	380.77
492.622	403.75
492.984	401.2
493.346	439.5
493.708	465.03
494.07	360.35
494.432	403.75
494.794	472.69
495.155	390.99
495.517	444.61
495.879	375.67
496.24	413.97
496.602	442.05
496.963	385.88
497.325	434.39
497.686	398.65
498.048	352.69
498.409	334.81
498.77	403.75
499.131	383.33
499.492	416.52
499.854	408.86
500.215	357.79
500.576	388.43
500.937	332.26
501.298	398.65
501.658	350.13
502.019	421.63
502.38	375.67
502.741	373.11
503.101	431.84
503.462	360.35
503.823	396.09
504.183	434.39
504.543	342.47
504.904	390.99
505.264	431.84
505.625	398.65
505.985	357.79
506.345	429.29
506.705	345.03
507.065	380.77
507.426	411.41
507.786	416.52
508.146	345.03
508.505	332.26
508.865	314.38
509.225	421.63
509.585	459.93
509.945	383.33
510.304	362.9
510.664	342.47
511.024	401.2
511.383	355.24
511.743	408.86
512.102	393.54
512.462	434.39
512.821	334.81
513.18	342.47
513.539	426.73
513.899	459.93
514.258	378.22
514.617	403.75
514.976	408.86
515.335	439.5
515.694	329.7
516.053	426.73
516.412	352.69
516.771	452.27
517.129	375.67
517.488	365.45
517.847	378.22
518.205	403.75
518.564	406.31
518.922	403.75
519.281	398.65
519.639	406.31
519.998	424.18
520.356	388.43
520.714	434.39
521.073	442.05
521.431	459.93
521.789	434.39
522.147	355.24
522.505	398.65
522.863	401.2
523.221	442.05
523.579	373.11
523.937	383.33
524.295	416.52
524.652	411.41
525.01	390.99
525.368	398.65
525.725	357.79
526.083	378.22
526.44	411.41
526.798	498.23
527.155	406.31
527.513	421.63
527.87	472.69
528.227	431.84
528.584	388.43
528.942	383.33
529.299	421.63
529.656	401.2
530.013	436.95
530.37	431.84
530.727	393.54
531.083	447.16
531.44	406.31
531.797	373.11
532.154	416.52
532.511	413.97
532.867	383.33
533.224	444.61
533.58	429.29
533.937	347.58
534.293	337.37
534.65	403.75
535.006	403.75
535.362	401.2
535.718	375.67
536.075	365.45
536.431	429.29
536.787	332.26
537.143	390.99
537.499	439.5
537.855	357.79
538.211	401.2
538.567	424.18
538.923	493.12
539.278	436.95
539.634	411.41
539.99	390.99
540.345	470.14
540.701	360.35
541.056	408.86
541.412	345.03
541.767	324.6
542.123	426.73
542.478	385.88
542.833	355.24
543.188	368.01
543.544	408.86
543.899	368.01
544.254	398.65
544.609	388.43
544.964	314.38
545.319	380.77
545.674	355.24
546.029	421.63
546.383	375.67
546.738	408.86
547.093	345.03
547.447	373.11
547.802	431.84
548.157	485.46
548.511	421.63
548.866	378.22
549.22	352.69
549.574	314.38
549.929	383.33
550.283	380.77
550.637	390.99
550.991	444.61
551.345	424.18
551.699	352.69
552.053	360.35
552.407	411.41
552.761	454.82
553.115	429.29
553.469	383.33
553.823	324.6
554.176	375.67
554.53	465.03
554.884	416.52
555.237	735.69
555.591	388.43
555.944	378.22
556.298	454.82
556.651	388.43
557.005	380.77
557.358	416.52
557.711	406.31
558.064	434.39
558.417	416.52
558.771	493.12
559.124	362.9
559.477	413.97
559.83	373.11
560.182	373.11
560.535	411.41
560.888	429.29
561.241	393.54
561.594	388.43
561.946	403.75
562.299	431.84
562.651	431.84
563.004	403.75
563.356	406.31
563.709	413.97
564.061	385.88
564.413	350.13
564.766	419.07
565.118	398.65
565.47	393.54
565.822	352.69
566.174	462.48
566.526	375.67
566.878	431.84
567.23	316.94
567.582	373.11
567.934	390.99
568.286	444.61
568.638	365.45
568.989	452.27
569.341	388.43
569.693	375.67
570.044	373.11
570.396	398.65
570.747	452.27
571.098	436.95
571.45	393.54
571.801	419.07
572.152	375.67
572.504	426.73
572.855	352.69
573.206	383.33
573.557	324.6
573.908	388.43
574.259	429.29
574.61	413.97
574.961	347.58
575.311	439.5
575.662	401.2
576.013	375.67
576.364	357.79
576.714	442.05
577.065	416.52
577.415	442.05
577.766	352.69
578.116	380.77
578.467	406.31
578.817	419.07
579.167	457.37
579.518	357.79
579.868	309.28
580.218	378.22
580.568	375.67
580.918	419.07
581.268	431.84
581.618	416.52
581.968	426.73
582.318	347.58
582.668	299.06
583.017	350.13
583.367	393.54
583.717	393.54
584.066	421.63
584.416	370.56
584.765	442.05
585.115	388.43
585.464	373.11
585.814	385.88
586.163	334.81
586.512	365.45
586.862	406.31
587.211	322.04
587.56	347.58
587.909	383.33
588.258	383.33
588.607	408.86
588.956	439.5
589.305	411.41
589.654	434.39
590.002	419.07
590.351	396.09
590.7	406.31
591.048	324.6
591.397	413.97
591.746	350.13
592.094	434.39
592.443	373.11
592.791	347.58
593.139	393.54
593.488	416.52
593.836	403.75
594.184	347.58
594.532	411.41
594.88	408.86
595.228	403.75
595.576	337.37
595.924	380.77
596.272	370.56
596.62	355.24
596.968	362.9
597.316	396.09
597.664	370.56
598.011	375.67
598.359	378.22
598.706	413.97
599.054	378.22
599.402	406.31
599.749	398.65
600.096	380.77
600.444	378.22
600.791	401.2
601.138	357.79
601.485	416.52
601.833	447.16
602.18	304.17
602.527	467.59
602.874	375.67
603.221	347.58
603.568	398.65
603.914	373.11
604.261	393.54
604.608	403.75
604.955	396.09
605.301	396.09
605.648	398.65
605.995	362.9
606.341	403.75
606.688	465.03
607.034	413.97
607.38	426.73
607.727	398.65
608.073	373.11
608.419	357.79
608.765	378.22
609.112	362.9
609.458	385.88
609.804	485.46
610.15	462.48
610.496	431.84
610.842	393.54
611.187	424.18
611.533	357.79
611.879	375.67
612.225	365.45
612.57	408.86
612.916	327.15
613.261	365.45
613.607	357.79
613.952	398.65
614.298	396.09
614.643	360.35
614.989	368.01
615.334	406.31
615.679	339.92
616.024	403.75
616.369	401.2
616.714	329.7
617.059	403.75
617.404	467.59
617.749	403.75
618.094	375.67
618.439	401.2
618.784	373.11
619.129	347.58
619.473	388.43
619.818	378.22
620.163	421.63
620.507	424.18
620.852	411.41
621.196	401.2
621.54	401.2
621.885	452.27
622.229	378.22
622.573	390.99
622.918	390.99
623.262	370.56
623.606	385.88
623.95	416.52
624.294	380.77
624.638	482.91
624.982	334.81
625.326	393.54
625.67	408.86
626.013	355.24
626.357	401.2
626.701	332.26
627.044	378.22
627.388	375.67
627.731	388.43
628.075	436.95
628.418	408.86
628.762	401.2
629.105	393.54
629.448	390.99
629.792	408.86
630.135	380.77
630.478	350.13
630.821	398.65
631.164	396.09
631.507	355.24
631.85	390.99
632.193	406.31
632.536	350.13
632.879	465.03
633.221	388.43
633.564	370.56
633.907	311.83
634.249	365.45
634.592	403.75
634.935	375.67
635.277	355.24
635.619	383.33
635.962	424.18
636.304	388.43
636.646	439.5
636.989	459.93
637.331	368.01
637.673	393.54
638.015	339.92
638.357	360.35
638.699	375.67
639.041	385.88
639.383	429.29
639.725	360.35
640.067	406.31
640.408	413.97
640.75	475.25
641.092	411.41
641.433	309.28
641.775	362.9
642.116	352.69
642.458	388.43
642.799	401.2
643.141	452.27
643.482	419.07
643.823	393.54
644.164	426.73
644.506	518.65
644.847	431.84
645.188	365.45
645.529	388.43
645.87	398.65
646.211	378.22
646.552	498.23
646.893	439.5
647.233	365.45
647.574	390.99
647.915	385.88
648.255	373.11
648.596	396.09
648.937	444.61
649.277	339.92
649.618	454.82
649.958	459.93
650.298	403.75
650.639	383.33
650.979	370.56
651.319	403.75
651.659	406.31
651.999	413.97
652.339	454.82
652.679	360.35
653.019	383.33
653.359	378.22
653.699	383.33
654.039	301.62
654.379	390.99
654.719	383.33
655.058	385.88
655.398	342.47
655.737	470.14
656.077	396.09
656.416	408.86
656.756	373.11
657.095	357.79
657.435	406.31
657.774	434.39
658.113	339.92
658.452	388.43
658.792	411.41
659.131	368.01
659.47	342.47
659.809	370.56
660.148	436.95
660.487	411.41
660.826	436.95
661.164	352.69
661.503	339.92
661.842	388.43
662.181	319.49
662.519	357.79
662.858	332.26
663.196	324.6
663.535	370.56
663.873	436.95
664.212	406.31
664.55	403.75
664.888	373.11
665.226	421.63
665.565	337.37
665.903	597.81
666.241	383.33
666.579	398.65
666.917	365.45
667.255	390.99
667.593	373.11
667.931	403.75
668.268	406.31
668.606	388.43
668.944	339.92
669.282	373.11
669.619	413.97
669.957	378.22
670.294	426.73
670.632	416.52
670.969	419.07
671.307	388.43
671.644	370.56
671.981	383.33
672.318	388.43
672.656	396.09
672.993	304.17
673.33	370.56
673.667	332.26
674.004	360.35
674.341	327.15
674.678	413.97
675.015	396.09
675.351	357.79
675.688	416.52
676.025	365.45
676.362	373.11
676.698	347.58
677.035	406.31
677.371	398.65
677.708	357.79
678.044	408.86
678.38	442.05
678.717	383.33
679.053	406.31
679.389	385.88
679.725	401.2
680.062	396.09
680.398	357.79
680.734	398.65
681.07	368.01
681.406	365.45
681.742	419.07
682.077	329.7
682.413	345.03
682.749	329.7
683.085	429.29
683.42	350.13
683.756	355.24
684.091	373.11
684.427	380.77
684.762	355.24
685.098	401.2
685.433	373.11
685.768	398.65
686.104	406.31
686.439	434.39
686.774	447.16
687.109	393.54
687.444	370.56
687.779	454.82
688.114	388.43
688.449	383.33
688.784	383.33
689.119	380.77
689.454	408.86
689.789	411.41
690.123	398.65
690.458	368.01
690.792	396.09
691.127	375.67
691.461	314.38
691.796	401.2
692.13	350.13
692.465	424.18
692.799	383.33
693.133	352.69
693.467	304.17
693.802	350.13
694.136	434.39
694.47	378.22
694.804	352.69
695.138	378.22
695.472	365.45
695.806	465.03
696.139	442.05
696.473	398.65
696.807	416.52
697.141	444.61
697.474	429.29
697.808	431.84
698.141	355.24
698.475	362.9
698.808	373.11
699.142	406.31
699.475	436.95
699.808	429.29
700.142	393.54
700.475	393.54
700.808	357.79
701.141	424.18
701.474	431.84
701.807	383.33
702.14	362.9
702.473	385.88
702.806	393.54
703.139	370.56
703.472	439.5
703.804	342.47
704.137	378.22
704.47	352.69
704.802	390.99
705.135	355.24
705.467	378.22
705.8	334.81
706.132	383.33
706.464	350.13
706.797	378.22
707.129	426.73
707.461	429.29
707.793	429.29
708.125	401.2
708.457	390.99
708.789	362.9
709.121	385.88
709.453	452.27
709.785	426.73
710.117	350.13
710.449	342.47
710.781	373.11
711.112	370.56
711.444	408.86
711.775	426.73
712.107	373.11
712.438	403.75
712.77	345.03
713.101	385.88
713.433	388.43
713.764	347.58
714.095	413.97
714.426	347.58
714.757	388.43
715.089	411.41
715.42	416.52
715.751	388.43
716.082	355.24
716.412	365.45
716.743	442.05
717.074	419.07
717.405	375.67
717.736	352.69
718.066	398.65
718.397	421.63
718.727	385.88
719.058	408.86
719.388	393.54
719.719	375.67
720.049	380.77
720.38	449.71
720.71	385.88
721.04	352.69
721.37	419.07
721.7	380.77
722.031	442.05
722.361	342.47
722.691	362.9
723.021	482.91
723.35	396.09
723.68	411.41
724.01	398.65
724.34	342.47
724.67	370.56
724.999	393.54
725.329	431.84
725.658	426.73
725.988	419.07
726.317	431.84
726.647	373.11
726.976	350.13
727.306	327.15
727.635	385.88
727.964	339.92
728.293	403.75
728.622	370.56
728.952	355.24
729.281	413.97
729.61	385.88
729.939	373.11
730.267	380.77
730.596	337.37
730.925	424.18
731.254	378.22
731.583	378.22
731.911	380.77
732.24	365.45
732.568	362.9
732.897	345.03
733.225	426.73
733.554	380.77
733.882	408.86
734.21	429.29
734.539	378.22
734.867	347.58
735.195	339.92
735.523	436.95
735.851	426.73
736.179	426.73
736.507	339.92
736.835	345.03
737.163	429.29
737.491	362.9
737.819	403.75
738.147	431.84
738.474	337.37
738.802	431.84
739.13	383.33
739.457	332.26
739.785	385.88
740.112	447.16
740.44	421.63
740.767	342.47
741.094	332.26
741.422	393.54
741.749	388.43
742.076	380.77
742.403	419.07
742.73	373.11
743.057	413.97
743.384	406.31
743.711	365.45
744.038	309.28
744.365	403.75
744.692	424.18
745.018	378.22
745.345	368.01
745.672	385.88
745.998	373.11
746.325	505.89
746.651	375.67
746.978	324.6
747.304	347.58
747.631	342.47
747.957	378.22
748.283	408.86
748.61	342.47
748.936	355.24
749.262	403.75
749.588	334.81
749.914	426.73
750.24	383.33
750.566	342.47
750.892	378.22
751.218	424.18
751.543	388.43
751.869	480.35
752.195	337.37
752.521	385.88
752.846	347.58
753.172	375.67
753.497	385.88
753.823	421.63
754.148	357.79
754.473	355.24
754.799	449.71
755.124	373.11
755.449	442.05
755.774	390.99
756.1	434.39
756.425	375.67
756.75	388.43
757.075	421.63
757.4	544.19
757.724	398.65
758.049	373.11
758.374	452.27
758.699	447.16
759.024	360.35
759.348	375.67
759.673	332.26
759.997	360.35
760.322	413.97
760.646	370.56
760.971	327.15
761.295	413.97
761.619	431.84
761.944	490.57
762.268	539.08
762.592	477.8
762.916	510.99
763.24	564.62
763.564	579.94
763.888	664.2
764.212	740.8
764.536	794.42
764.86	779.1
765.184	710.16
765.508	850.59
765.831	873.57
766.155	1159.55
766.478	968.05
766.802	817.4
767.126	819.95
767.449	848.04
767.772	832.72
768.096	807.19
768.419	687.18
768.742	656.54
769.066	615.68
769.389	613.13
769.712	559.51
770.035	636.11
770.358	753.57
770.681	850.59
771.004	932.3
771.327	1149.34
771.65	1279.56
771.972	1460.85
772.295	1902.59
772.618	2173.24
772.941	2466.88
773.263	2709.45
773.586	3204.81
773.908	3521.43
774.231	3672.08
774.553	3794.64
774.875	4072.96
775.198	4095.94
775.52	3871.24
775.842	3621.01
776.164	3483.13
776.487	3289.07
776.809	3235.45
777.131	2944.36
777.453	2803.93
777.775	2724.77
778.096	2597.1
778.418	2257.51
778.74	1820.88
779.062	1603.84
779.384	1312.76
779.705	1121.25
780.027	1100.83
780.348	1034.44
780.67	1065.08
780.991	1195.3
781.313	1384.25
781.634	1685.55
781.955	2066
782.277	2612.42
782.598	3061.82
782.919	3360.56
783.24	3904.43
783.561	4384.47
783.882	4708.75
784.203	5178.57
784.524	5319.01
784.845	5405.82
785.166	5845
785.487	6626.34
785.807	6891.89
786.128	6965.93
786.449	6708.04
786.769	6687.62
787.09	6705.49
787.41	6817.84
787.731	6973.59
788.051	7226.38
788.372	7052.75
788.692	6771.88
789.012	6067.15
789.332	5209.21
789.653	4775.14
789.973	4637.25
790.293	3919.75
790.613	2765.63
790.933	2392.83
791.253	2124.73
791.573	1723.85
791.893	1317.86
792.212	980.82
792.532	850.59
792.852	804.63
793.171	980.82
793.491	1289.78
793.811	1677.89
794.13	2091.54
794.45	2441.35
794.769	2995.43
795.088	3424.4
795.408	4067.85
795.727	5163.25
796.046	6462.92
796.365	7627.26
796.684	7668.11
797.004	8010.27
797.323	8421.36
797.642	9692.94
797.96	9284.4
798.279	9177.16
798.598	9041.83
798.917	9284.4
799.236	8960.12
799.554	8566.9
