Data from 2025-12-03_xpw_interference_micrometer_631_FLMS141361__22__572.txt Node

Date: Wed Dec 03 15:54:06 MST 2025
User: james
Spectrometer: FLMS14136
Trigger mode: 0
Integration Time (sec): 1.000000E-1
Scans to average: 1
Electric dark correction enabled: true
Nonlinearity correction enabled: false
Boxcar width: 0
XAxis mode: Wavelengths
Number of Pixels in Spectrum: 2048
>>>>>Begin Spectral Data<<<<<
339.315	-24.1
339.697	-24.1
340.079	-24.1
340.461	-87.93
340.843	-103.25
341.225	-118.57
341.607	-113.47
341.989	-118.57
342.371	-75.17
342.752	-77.72
343.134	-80.27
343.516	-41.97
343.897	-18.99
344.279	39.74
344.661	62.72
345.042	-13.88
345.423	85.7
345.805	52.5
346.186	121.45
346.567	159.75
346.949	136.77
347.33	205.71
347.711	195.49
348.092	213.37
348.473	244.01
348.854	205.71
349.235	272.09
349.616	266.99
349.997	289.97
350.378	289.97
350.758	338.48
351.139	238.9
351.52	333.38
351.9	353.8
352.281	312.95
352.661	399.76
353.042	328.27
353.422	392.1
353.803	443.17
354.183	397.21
354.563	364.02
354.943	348.7
355.324	374.23
355.704	399.76
356.084	371.68
356.464	371.68
356.844	399.76
357.224	448.28
357.603	364.02
357.983	328.27
358.363	364.02
358.743	389.55
359.122	356.36
359.502	417.64
359.882	389.55
360.261	351.25
360.641	379.34
361.02	310.4
361.399	412.53
361.779	358.91
362.158	292.52
362.537	318.06
362.916	409.98
363.296	353.8
363.675	343.59
364.054	392.1
364.433	364.02
364.812	318.06
365.19	335.93
365.569	371.68
365.948	399.76
366.327	366.57
366.705	333.38
367.084	330.82
367.463	399.76
367.841	415.08
368.22	305.29
368.598	320.61
368.977	307.84
369.355	323.16
369.733	346.14
370.111	376.78
370.49	328.27
370.868	374.23
371.246	397.21
371.624	346.14
372.002	412.53
372.38	333.38
372.758	335.93
373.136	381.89
373.513	300.18
373.891	328.27
374.269	356.36
374.646	448.28
375.024	430.4
375.402	302.73
375.779	318.06
376.157	356.36
376.534	289.97
376.911	364.02
377.289	371.68
377.666	333.38
378.043	412.53
378.42	379.34
378.797	392.1
379.175	364.02
379.552	335.93
379.929	389.55
380.305	369.12
380.682	364.02
381.059	356.36
381.436	346.14
381.813	307.84
382.189	318.06
382.566	361.46
382.943	310.4
383.319	315.5
383.696	364.02
384.072	409.98
384.448	399.76
384.825	379.34
385.201	320.61
385.577	402.32
385.953	389.55
386.329	358.91
386.706	404.87
387.082	389.55
387.458	369.12
387.834	379.34
388.209	384.44
388.585	381.89
388.961	343.59
389.337	389.55
389.713	409.98
390.088	381.89
390.464	318.06
390.839	351.25
391.215	343.59
391.59	318.06
391.966	450.83
392.341	384.44
392.716	440.62
393.092	402.32
393.467	415.08
393.842	333.38
394.217	417.64
394.592	374.23
394.967	420.19
395.342	356.36
395.717	387
396.092	402.32
396.467	443.17
396.841	312.95
397.216	351.25
397.591	392.1
397.965	353.8
398.34	318.06
398.714	407.42
399.089	374.23
399.463	348.7
399.838	376.78
400.212	404.87
400.586	427.85
400.961	427.85
401.335	364.02
401.709	366.57
402.083	341.04
402.457	361.46
402.831	397.21
403.205	341.04
403.579	376.78
403.953	394.66
404.326	364.02
404.7	381.89
405.074	272.09
405.447	346.14
405.821	438.06
406.195	478.92
406.568	384.44
406.942	463.6
407.315	305.29
407.688	397.21
408.062	346.14
408.435	366.57
408.808	389.55
409.181	407.42
409.554	387
409.927	407.42
410.3	371.68
410.673	287.41
411.046	346.14
411.419	356.36
411.792	300.18
412.165	374.23
412.537	307.84
412.91	402.32
413.283	407.42
413.655	415.08
414.028	432.96
414.4	333.38
414.773	425.3
415.145	422.74
415.517	376.78
415.889	384.44
416.262	351.25
416.634	315.5
417.006	358.91
417.378	376.78
417.75	387
418.122	358.91
418.494	432.96
418.866	348.7
419.238	397.21
419.609	392.1
419.981	384.44
420.353	364.02
420.725	389.55
421.096	438.06
421.468	394.66
421.839	381.89
422.211	397.21
422.582	384.44
422.953	335.93
423.325	376.78
423.696	404.87
424.067	376.78
424.438	397.21
424.809	346.14
425.18	361.46
425.551	361.46
425.922	427.85
426.293	335.93
426.664	371.68
427.035	420.19
427.406	420.19
427.776	387
428.147	412.53
428.518	343.59
428.888	353.8
429.259	415.08
429.629	458.49
429.999	374.23
430.37	417.64
430.74	356.36
431.11	341.04
431.481	427.85
431.851	407.42
432.221	438.06
432.591	458.49
432.961	384.44
433.331	422.74
433.701	412.53
434.071	387
434.441	381.89
434.81	397.21
435.18	461.04
435.55	420.19
435.919	402.32
436.289	466.15
436.658	402.32
437.028	384.44
437.397	430.4
437.767	445.72
438.136	335.93
438.505	455.94
438.875	417.64
439.244	369.12
439.613	417.64
439.982	427.85
440.351	432.96
440.72	356.36
441.089	353.8
441.458	381.89
441.827	351.25
442.196	435.51
442.564	427.85
442.933	412.53
443.302	379.34
443.67	394.66
444.039	341.04
444.407	381.89
444.776	476.36
445.144	440.62
445.513	412.53
445.881	379.34
446.249	404.87
446.617	412.53
446.986	343.59
447.354	389.55
447.722	435.51
448.09	397.21
448.458	394.66
448.826	417.64
449.194	445.72
449.561	427.85
449.929	412.53
450.297	387
450.665	392.1
451.032	468.7
451.4	412.53
451.767	404.87
452.135	427.85
452.502	384.44
452.87	376.78
453.237	374.23
453.604	387
453.971	443.17
454.339	422.74
454.706	366.57
455.073	453.38
455.44	402.32
455.807	389.55
456.174	415.08
456.541	402.32
456.908	445.72
457.274	374.23
457.641	353.8
458.008	484.02
458.374	425.3
458.741	473.81
459.108	392.1
459.474	361.46
459.841	409.98
460.207	366.57
460.573	440.62
460.94	404.87
461.306	384.44
461.672	445.72
462.038	463.6
462.404	409.98
462.771	387
463.137	448.28
463.503	448.28
463.868	440.62
464.234	369.12
464.6	407.42
464.966	412.53
465.332	448.28
465.697	409.98
466.063	440.62
466.429	417.64
466.794	409.98
467.16	397.21
467.525	409.98
467.89	415.08
468.256	422.74
468.621	425.3
468.986	412.53
469.351	384.44
469.717	463.6
470.082	450.83
470.447	412.53
470.812	425.3
471.177	371.68
471.542	358.91
471.906	358.91
472.271	420.19
472.636	356.36
473.001	445.72
473.365	409.98
473.73	409.98
474.094	374.23
474.459	397.21
474.823	478.92
475.188	420.19
475.552	420.19
475.917	300.18
476.281	371.68
476.645	371.68
477.009	450.83
477.373	409.98
477.737	389.55
478.101	415.08
478.465	389.55
478.829	409.98
479.193	333.38
479.557	394.66
479.921	412.53
480.284	415.08
480.648	430.4
481.012	351.25
481.375	335.93
481.739	450.83
482.102	448.28
482.466	328.27
482.829	430.4
483.193	432.96
483.556	379.34
483.919	402.32
484.282	415.08
484.645	353.8
485.009	435.51
485.372	404.87
485.735	404.87
486.098	412.53
486.46	458.49
486.823	397.21
487.186	335.93
487.549	371.68
487.912	435.51
488.274	376.78
488.637	392.1
488.999	489.13
489.362	435.51
489.724	448.28
490.087	443.17
490.449	471.26
490.811	376.78
491.174	381.89
491.536	417.64
491.898	435.51
492.26	420.19
492.622	432.96
492.984	440.62
493.346	397.21
493.708	397.21
494.07	450.83
494.432	425.3
494.794	455.94
495.155	412.53
495.517	422.74
495.879	425.3
496.24	397.21
496.602	387
496.963	445.72
497.325	364.02
497.686	422.74
498.048	402.32
498.409	392.1
498.77	407.42
499.131	427.85
499.492	328.27
499.854	415.08
500.215	425.3
500.576	402.32
500.937	351.25
501.298	430.4
501.658	402.32
502.019	448.28
502.38	415.08
502.741	404.87
503.101	364.02
503.462	399.76
503.823	366.57
504.183	443.17
504.543	381.89
504.904	427.85
505.264	435.51
505.625	392.1
505.985	409.98
506.345	450.83
506.705	453.38
507.065	412.53
507.426	374.23
507.786	466.15
508.146	445.72
508.505	384.44
508.865	348.7
509.225	371.68
509.585	458.49
509.945	443.17
510.304	473.81
510.664	348.7
511.024	364.02
511.383	371.68
511.743	394.66
512.102	450.83
512.462	384.44
512.821	325.72
513.18	471.26
513.539	448.28
513.899	430.4
514.258	381.89
514.617	376.78
514.976	415.08
515.335	432.96
515.694	409.98
516.053	379.34
516.412	366.57
516.771	432.96
517.129	399.76
517.488	425.3
517.847	364.02
518.205	427.85
518.564	450.83
518.922	450.83
519.281	438.06
519.639	361.46
519.998	371.68
520.356	399.76
520.714	435.51
521.073	356.36
521.431	364.02
521.789	389.55
522.147	364.02
522.505	407.42
522.863	371.68
523.221	417.64
523.579	399.76
523.937	402.32
524.295	432.96
524.652	404.87
525.01	376.78
525.368	476.36
525.725	430.4
526.083	399.76
526.44	432.96
526.798	432.96
527.155	427.85
527.513	435.51
527.87	374.23
528.227	450.83
528.584	420.19
528.942	432.96
529.299	402.32
529.656	443.17
530.013	435.51
530.37	384.44
530.727	476.36
531.083	425.3
531.44	389.55
531.797	427.85
532.154	432.96
532.511	412.53
532.867	463.6
533.224	461.04
533.58	463.6
533.937	399.76
534.293	358.91
534.65	353.8
535.006	430.4
535.362	450.83
535.718	389.55
536.075	348.7
536.431	432.96
536.787	409.98
537.143	394.66
537.499	476.36
537.855	420.19
538.211	409.98
538.567	430.4
538.923	387
539.278	422.74
539.634	384.44
539.99	471.26
540.345	435.51
540.701	422.74
541.056	404.87
541.412	387
541.767	404.87
542.123	387
542.478	369.12
542.833	417.64
543.188	478.92
543.544	432.96
543.899	417.64
544.254	394.66
544.609	427.85
544.964	381.89
545.319	409.98
545.674	346.14
546.029	422.74
546.383	381.89
546.738	420.19
547.093	384.44
547.447	371.68
547.802	379.34
548.157	420.19
548.511	440.62
548.866	341.04
549.22	404.87
549.574	399.76
549.929	353.8
550.283	420.19
550.637	353.8
550.991	407.42
551.345	455.94
551.699	376.78
552.053	374.23
552.407	392.1
552.761	412.53
553.115	402.32
553.469	427.85
553.823	387
554.176	374.23
554.53	450.83
554.884	420.19
555.237	611.69
555.591	427.85
555.944	412.53
556.298	404.87
556.651	455.94
557.005	463.6
557.358	356.36
557.711	358.91
558.064	320.61
558.417	422.74
558.771	527.43
559.124	453.38
559.477	394.66
559.83	353.8
560.182	430.4
560.535	412.53
560.888	348.7
561.241	351.25
561.594	432.96
561.946	430.4
562.299	348.7
562.651	338.48
563.004	455.94
563.356	461.04
563.709	384.44
564.061	425.3
564.413	404.87
564.766	458.49
565.118	374.23
565.47	402.32
565.822	366.57
566.174	361.46
566.526	402.32
566.878	376.78
567.23	379.34
567.582	448.28
567.934	374.23
568.286	389.55
568.638	484.02
568.989	445.72
569.341	438.06
569.693	438.06
570.044	425.3
570.396	374.23
570.747	402.32
571.098	387
571.45	402.32
571.801	417.64
572.152	432.96
572.504	455.94
572.855	427.85
573.206	461.04
573.557	397.21
573.908	491.68
574.259	478.92
574.61	387
574.961	415.08
575.311	422.74
575.662	384.44
576.013	458.49
576.364	453.38
576.714	397.21
577.065	409.98
577.415	473.81
577.766	438.06
578.116	415.08
578.467	381.89
578.817	394.66
579.167	369.12
579.518	371.68
579.868	320.61
580.218	430.4
580.568	346.14
580.918	353.8
581.268	466.15
581.618	440.62
581.968	338.48
582.318	325.72
582.668	341.04
583.017	351.25
583.367	476.36
583.717	445.72
584.066	458.49
584.416	404.87
584.765	409.98
585.115	397.21
585.464	438.06
585.814	412.53
586.163	397.21
586.512	394.66
586.862	412.53
587.211	397.21
587.56	430.4
587.909	417.64
588.258	361.46
588.607	399.76
588.956	371.68
589.305	430.4
589.654	422.74
590.002	415.08
590.351	353.8
590.7	394.66
591.048	404.87
591.397	430.4
591.746	412.53
592.094	407.42
592.443	381.89
592.791	458.49
593.139	476.36
593.488	445.72
593.836	346.14
594.184	455.94
594.532	407.42
594.88	519.77
595.228	443.17
595.576	443.17
595.924	432.96
596.272	458.49
596.62	473.81
596.968	415.08
597.316	445.72
597.664	369.12
598.011	361.46
598.359	389.55
598.706	438.06
599.054	412.53
599.402	420.19
599.749	415.08
600.096	466.15
600.444	432.96
600.791	455.94
601.138	369.12
601.485	438.06
601.833	376.78
602.18	384.44
602.527	417.64
602.874	399.76
603.221	432.96
603.568	422.74
603.914	392.1
604.261	438.06
604.608	430.4
604.955	425.3
605.301	404.87
605.648	409.98
605.995	443.17
606.341	461.04
606.688	376.78
607.034	427.85
607.38	394.66
607.727	420.19
608.073	353.8
608.419	438.06
608.765	392.1
609.112	432.96
609.458	404.87
609.804	402.32
610.15	427.85
610.496	440.62
610.842	389.55
611.187	422.74
611.533	353.8
611.879	371.68
612.225	364.02
612.57	369.12
612.916	435.51
613.261	407.42
613.607	409.98
613.952	453.38
614.298	420.19
614.643	453.38
614.989	381.89
615.334	399.76
615.679	394.66
616.024	425.3
616.369	435.51
616.714	379.34
617.059	445.72
617.404	376.78
617.749	422.74
618.094	412.53
618.439	384.44
618.784	402.32
619.129	351.25
619.473	435.51
619.818	358.91
620.163	443.17
620.507	369.12
620.852	384.44
621.196	438.06
621.54	430.4
621.885	338.48
622.229	364.02
622.573	346.14
622.918	366.57
623.262	389.55
623.606	379.34
623.95	402.32
624.294	402.32
624.638	366.57
624.982	445.72
625.326	445.72
625.67	409.98
626.013	394.66
626.357	397.21
626.701	407.42
627.044	366.57
627.388	364.02
627.731	407.42
628.075	432.96
628.418	473.81
628.762	402.32
629.105	376.78
629.448	443.17
629.792	445.72
630.135	420.19
630.478	389.55
630.821	371.68
631.164	420.19
631.507	341.04
631.85	333.38
632.193	440.62
632.536	338.48
632.879	358.91
633.221	420.19
633.564	438.06
633.907	445.72
634.249	379.34
634.592	455.94
634.935	527.43
635.277	407.42
635.619	412.53
635.962	461.04
636.304	371.68
636.646	392.1
636.989	346.14
637.331	409.98
637.673	399.76
638.015	364.02
638.357	328.27
638.699	417.64
639.041	455.94
639.383	389.55
639.725	335.93
640.067	415.08
640.408	463.6
640.75	427.85
641.092	409.98
641.433	443.17
641.775	407.42
642.116	333.38
642.458	417.64
642.799	358.91
643.141	369.12
643.482	392.1
643.823	402.32
644.164	397.21
644.506	471.26
644.847	384.44
645.188	353.8
645.529	384.44
645.87	438.06
646.211	450.83
646.552	448.28
646.893	478.92
647.233	417.64
647.574	427.85
647.915	364.02
648.255	376.78
648.596	392.1
648.937	387
649.277	387
649.618	320.61
649.958	432.96
650.298	420.19
650.639	371.68
650.979	402.32
651.319	425.3
651.659	399.76
651.999	333.38
652.339	399.76
652.679	415.08
653.019	361.46
653.359	374.23
653.699	412.53
654.039	394.66
654.379	417.64
654.719	399.76
655.058	376.78
655.398	496.79
655.737	407.42
656.077	402.32
656.416	415.08
656.756	417.64
657.095	427.85
657.435	463.6
657.774	440.62
658.113	417.64
658.452	335.93
658.792	361.46
659.131	425.3
659.47	399.76
659.809	422.74
660.148	453.38
660.487	369.12
660.826	341.04
661.164	399.76
661.503	440.62
661.842	364.02
662.181	394.66
662.519	455.94
662.858	404.87
663.196	430.4
663.535	320.61
663.873	417.64
664.212	407.42
664.55	453.38
664.888	450.83
665.226	450.83
665.565	438.06
665.903	606.59
666.241	455.94
666.579	415.08
666.917	420.19
667.255	376.78
667.593	379.34
667.931	387
668.268	397.21
668.606	374.23
668.944	376.78
669.282	379.34
669.619	392.1
669.957	381.89
670.294	407.42
670.632	412.53
670.969	420.19
671.307	425.3
671.644	399.76
671.981	397.21
672.318	338.48
672.656	409.98
672.993	361.46
673.33	404.87
673.667	412.53
674.004	445.72
674.341	425.3
674.678	455.94
675.015	412.53
675.351	440.62
675.688	397.21
676.025	371.68
676.362	397.21
676.698	440.62
677.035	379.34
677.371	381.89
677.708	440.62
678.044	407.42
678.38	394.66
678.717	394.66
679.053	415.08
679.389	430.4
679.725	443.17
680.062	417.64
680.398	412.53
680.734	412.53
681.07	445.72
681.406	420.19
681.742	407.42
682.077	358.91
682.413	409.98
682.749	381.89
683.085	384.44
683.42	366.57
683.756	369.12
684.091	348.7
684.427	425.3
684.762	402.32
685.098	387
685.433	430.4
685.768	369.12
686.104	381.89
686.439	507.01
686.774	453.38
687.109	420.19
687.444	394.66
687.779	364.02
688.114	356.36
688.449	384.44
688.784	404.87
689.119	381.89
689.454	361.46
689.789	427.85
690.123	422.74
690.458	412.53
690.792	379.34
691.127	394.66
691.461	361.46
691.796	353.8
692.13	496.79
692.465	409.98
692.799	392.1
693.133	384.44
693.467	443.17
693.802	402.32
694.136	455.94
694.47	445.72
694.804	427.85
695.138	399.76
695.472	348.7
695.806	417.64
696.139	387
696.473	392.1
696.807	440.62
697.141	353.8
697.474	407.42
697.808	397.21
698.141	318.06
698.475	399.76
698.808	438.06
699.142	392.1
699.475	417.64
699.808	394.66
700.142	399.76
700.475	407.42
700.808	364.02
701.141	325.72
701.474	356.36
701.807	409.98
702.14	432.96
702.473	432.96
702.806	402.32
703.139	397.21
703.472	409.98
703.804	374.23
704.137	430.4
704.47	425.3
704.802	443.17
705.135	358.91
705.467	402.32
705.8	389.55
706.132	417.64
706.464	384.44
706.797	338.48
707.129	425.3
707.461	425.3
707.793	417.64
708.125	356.36
708.457	399.76
708.789	397.21
709.121	361.46
709.453	443.17
709.785	371.68
710.117	425.3
710.449	402.32
710.781	455.94
711.112	379.34
711.444	369.12
711.775	392.1
712.107	379.34
712.438	387
712.77	379.34
713.101	384.44
713.433	409.98
713.764	512.11
714.095	315.5
714.426	364.02
714.757	346.14
715.089	430.4
715.42	425.3
715.751	432.96
716.082	468.7
716.412	453.38
716.743	343.59
717.074	351.25
717.405	399.76
717.736	346.14
718.066	358.91
718.397	371.68
718.727	343.59
719.058	399.76
719.388	489.13
719.719	461.04
720.049	384.44
720.38	371.68
720.71	389.55
721.04	417.64
721.37	384.44
721.7	341.04
722.031	420.19
722.361	399.76
722.691	376.78
723.021	341.04
723.35	409.98
723.68	389.55
724.01	369.12
724.34	392.1
724.67	415.08
724.999	404.87
725.329	384.44
725.658	425.3
725.988	384.44
726.317	387
726.647	361.46
726.976	443.17
727.306	402.32
727.635	422.74
727.964	407.42
728.293	425.3
728.622	358.91
728.952	374.23
729.281	430.4
729.61	402.32
729.939	341.04
730.267	394.66
730.596	376.78
730.925	420.19
731.254	404.87
731.583	333.38
731.911	351.25
732.24	381.89
732.568	379.34
732.897	427.85
733.225	387
733.554	343.59
733.882	430.4
734.21	369.12
734.539	371.68
734.867	366.57
735.195	402.32
735.523	348.7
735.851	333.38
736.179	404.87
736.507	392.1
736.835	374.23
737.163	348.7
737.491	443.17
737.819	432.96
738.147	384.44
738.474	397.21
738.802	455.94
739.13	394.66
739.457	430.4
739.785	381.89
740.112	381.89
740.44	432.96
740.767	361.46
741.094	409.98
741.422	369.12
741.749	471.26
742.076	420.19
742.403	353.8
742.73	455.94
743.057	404.87
743.384	409.98
743.711	404.87
744.038	376.78
744.365	361.46
744.692	417.64
745.018	409.98
745.345	371.68
745.672	392.1
745.998	409.98
746.325	387
746.651	389.55
746.978	379.34
747.304	440.62
747.631	312.95
747.957	366.57
748.283	374.23
748.61	374.23
748.936	374.23
749.262	376.78
749.588	463.6
749.914	351.25
750.24	432.96
750.566	432.96
750.892	346.14
751.218	353.8
751.543	374.23
751.869	394.66
752.195	297.63
752.521	397.21
752.846	402.32
753.172	468.7
753.497	484.02
753.823	394.66
754.148	356.36
754.473	379.34
754.799	412.53
755.124	338.48
755.449	361.46
755.774	315.5
756.1	415.08
756.425	384.44
756.75	389.55
757.075	440.62
757.4	484.02
757.724	478.92
758.049	432.96
758.374	420.19
758.699	409.98
759.024	323.16
759.348	300.18
759.673	435.51
759.997	420.19
760.322	379.34
760.646	371.68
760.971	450.83
761.295	397.21
761.619	435.51
761.944	471.26
762.268	471.26
762.592	466.15
762.916	524.88
763.24	504.45
763.564	644.89
763.888	675.53
764.212	718.94
764.536	685.74
764.86	757.24
765.184	731.7
765.508	844.05
765.831	838.94
766.155	1155.56
766.478	905.33
766.802	861.92
767.126	861.92
767.449	844.05
767.772	818.52
768.096	764.9
768.419	665.31
768.742	655.1
769.066	570.84
769.389	481.47
769.712	560.63
770.035	690.85
770.358	731.7
770.681	821.07
771.004	925.76
771.327	1071.3
771.65	1244.93
771.972	1490.06
772.295	1778.59
772.618	2087.55
772.941	2409.27
773.263	2557.37
773.586	3093.58
773.908	3387.22
774.231	3591.49
774.553	3553.19
774.875	3785.54
775.198	3956.62
775.52	3711.49
775.842	3440.84
776.164	3277.42
776.487	3175.29
776.809	3045.06
777.131	2948.03
777.453	2802.49
777.775	2679.93
778.096	2603.33
778.418	2151.38
778.74	1781.14
779.062	1487.5
779.384	1308.77
779.705	1198.97
780.027	1122.37
780.348	966.61
780.67	984.49
780.991	1170.88
781.313	1278.13
781.634	1704.54
781.955	2041.59
782.277	2452.68
782.598	2873.99
782.919	3346.36
783.24	3834.06
783.561	4314.09
783.882	4679.22
784.203	4929.46
784.524	5131.17
784.845	5195.01
785.166	5736.32
785.487	6272.53
785.807	6637.67
786.128	6624.9
786.449	6499.78
786.769	6280.19
787.09	6247
787.41	6520.21
787.731	6586.6
788.051	6532.98
788.372	6550.85
788.692	6244.45
789.012	5675.04
789.332	4870.73
789.653	4640.92
789.973	4275.79
790.293	3673.19
790.613	2766.74
790.933	2281.6
791.253	2003.28
791.573	1561.55
791.893	1209.18
792.212	1061.09
792.532	803.2
792.852	864.48
793.171	1050.87
793.491	1262.81
793.811	1663.69
794.13	2143.72
794.45	2480.77
794.769	2991.44
795.088	3471.48
795.408	4053.65
795.727	5161.81
796.046	6453.82
796.365	7419
796.684	7740.73
797.004	7771.37
797.323	8259.06
797.642	9206.36
797.96	9091.46
798.279	8665.05
798.598	8813.14
798.917	8905.07
799.236	8621.64
799.554	8320.34
799.873	7876.05
800.192	7352.61
800.51	7117.7
800.829	6747.46
801.147	6218.91
801.466	5297.14
801.784	5187.35
