Data from 2025-12-03_xpw_interference_micrometer_631_FLMS141361__9__559.txt Node

Date: Wed Dec 03 15:54:05 MST 2025
User: james
Spectrometer: FLMS14136
Trigger mode: 0
Integration Time (sec): 1.000000E-1
Scans to average: 1
Electric dark correction enabled: true
Nonlinearity correction enabled: false
Boxcar width: 0
XAxis mode: Wavelengths
Number of Pixels in Spectrum: 2048
>>>>>Begin Spectral Data<<<<<
339.315	-43.41
339.697	-43.41
340.079	-43.41
340.461	-122.56
340.843	-94.47
341.225	-99.58
341.607	-91.92
341.989	-102.14
342.371	-135.33
342.752	-68.94
343.134	-40.85
343.516	-7.66
343.897	-28.09
344.279	-17.87
344.661	40.85
345.042	-7.66
345.423	51.07
345.805	76.6
346.186	132.78
346.567	125.12
346.949	173.63
347.33	206.82
347.711	173.63
348.092	206.82
348.473	194.06
348.854	308.96
349.235	265.55
349.616	217.04
349.997	270.66
350.378	298.75
350.758	296.19
351.139	375.35
351.52	321.73
351.9	337.05
352.281	321.73
352.661	324.28
353.042	344.71
353.422	403.43
353.803	477.48
354.183	398.33
354.563	375.35
354.943	365.13
355.324	388.11
355.704	375.35
356.084	365.13
356.464	354.92
356.844	477.48
357.224	426.41
357.603	314.07
357.983	344.71
358.363	390.67
358.743	375.35
359.122	344.71
359.502	354.92
359.882	380.45
360.261	362.58
360.641	405.99
361.02	385.56
361.399	329.39
361.779	413.65
362.158	372.79
362.537	288.53
362.916	426.41
363.296	342.15
363.675	413.65
364.054	321.73
364.433	372.79
364.812	360.03
365.19	331.94
365.569	372.79
365.948	321.73
366.327	393.22
366.705	388.11
367.084	342.15
367.463	362.58
367.841	326.83
368.22	275.76
368.598	365.13
368.977	362.58
369.355	388.11
369.733	360.03
370.111	385.56
370.49	395.77
370.868	342.15
371.246	354.92
371.624	331.94
372.002	329.39
372.38	375.35
372.758	383.01
373.136	308.96
373.513	321.73
373.891	362.58
374.269	441.73
374.646	403.43
375.024	337.05
375.402	383.01
375.779	372.79
376.157	372.79
376.534	316.62
376.911	375.35
377.289	347.26
377.666	270.66
378.043	367.69
378.42	385.56
378.797	329.39
379.175	308.96
379.552	352.37
379.929	416.2
380.305	400.88
380.682	342.15
381.059	342.15
381.436	331.94
381.813	385.56
382.189	311.51
382.566	331.94
382.943	372.79
383.319	357.47
383.696	380.45
384.072	383.01
384.448	439.18
384.825	388.11
385.201	354.92
385.577	388.11
385.953	398.33
386.329	329.39
386.706	380.45
387.082	370.24
387.458	303.85
387.834	385.56
388.209	367.69
388.585	383.01
388.961	383.01
389.337	365.13
389.713	349.81
390.088	344.71
390.464	321.73
390.839	362.58
391.215	303.85
391.59	306.41
391.966	370.24
392.341	464.71
392.716	362.58
393.092	405.99
393.467	314.07
393.842	372.79
394.217	383.01
394.592	428.97
394.967	405.99
395.342	324.28
395.717	367.69
396.092	367.69
396.467	375.35
396.841	314.07
397.216	314.07
397.591	380.45
397.965	390.67
398.34	385.56
398.714	344.71
399.089	339.6
399.463	331.94
399.838	398.33
400.212	431.52
400.586	365.13
400.961	398.33
401.335	408.54
401.709	354.92
402.083	423.86
402.457	314.07
402.831	319.17
403.205	375.35
403.579	354.92
403.953	362.58
404.326	390.67
404.7	331.94
405.074	329.39
405.447	380.45
405.821	408.54
406.195	408.54
406.568	423.86
406.942	398.33
407.315	434.07
407.688	395.77
408.062	360.03
408.435	403.43
408.808	334.49
409.181	383.01
409.554	395.77
409.927	383.01
410.3	316.62
410.673	339.6
411.046	285.98
411.419	426.41
411.792	331.94
412.165	380.45
412.537	408.54
412.91	385.56
413.283	370.24
413.655	403.43
414.028	418.75
414.4	365.13
414.773	441.73
415.145	321.73
415.517	398.33
415.889	344.71
416.262	334.49
416.634	342.15
417.006	372.79
417.378	411.09
417.75	416.2
418.122	334.49
418.494	367.69
418.866	398.33
419.238	398.33
419.609	349.81
419.981	360.03
420.353	385.56
420.725	390.67
421.096	365.13
421.468	383.01
421.839	459.61
422.211	411.09
422.582	398.33
422.953	349.81
423.325	347.26
423.696	390.67
424.067	388.11
424.438	334.49
424.809	347.26
425.18	354.92
425.551	357.47
425.922	416.2
426.293	405.99
426.664	395.77
427.035	431.52
427.406	400.88
427.776	405.99
428.147	467.27
428.518	298.75
428.888	393.22
429.259	398.33
429.629	395.77
429.999	303.85
430.37	337.05
430.74	459.61
431.11	334.49
431.481	334.49
431.851	416.2
432.221	314.07
432.591	421.31
432.961	354.92
433.331	390.67
433.701	390.67
434.071	390.67
434.441	403.43
434.81	400.88
435.18	408.54
435.55	428.97
435.919	372.79
436.289	388.11
436.658	403.43
437.028	375.35
437.397	421.31
437.767	357.47
438.136	385.56
438.505	352.37
438.875	360.03
439.244	372.79
439.613	400.88
439.982	421.31
440.351	321.73
440.72	388.11
441.089	423.86
441.458	347.26
441.827	423.86
442.196	439.18
442.564	451.95
442.933	383.01
443.302	395.77
443.67	377.9
444.039	441.73
444.407	383.01
444.776	439.18
445.144	385.56
445.513	426.41
445.881	388.11
446.249	372.79
446.617	390.67
446.986	405.99
447.354	405.99
447.722	431.52
448.09	383.01
448.458	434.07
448.826	436.63
449.194	349.81
449.561	357.47
449.929	377.9
450.297	408.54
450.665	385.56
451.032	362.58
451.4	451.95
451.767	405.99
452.135	400.88
452.502	405.99
452.87	393.22
453.237	408.54
453.604	405.99
453.971	444.29
454.339	446.84
454.706	337.05
455.073	390.67
455.44	416.2
455.807	413.65
456.174	385.56
456.541	416.2
456.908	388.11
457.274	319.17
457.641	357.47
458.008	380.45
458.374	436.63
458.741	411.09
459.108	439.18
459.474	405.99
459.841	321.73
460.207	390.67
460.573	469.82
460.94	385.56
461.306	416.2
461.672	413.65
462.038	372.79
462.404	411.09
462.771	431.52
463.137	370.24
463.503	393.22
463.868	367.69
464.234	459.61
464.6	372.79
464.966	408.54
465.332	388.11
465.697	421.31
466.063	426.41
466.429	357.47
466.794	395.77
467.16	395.77
467.525	515.78
467.89	482.59
468.256	405.99
468.621	411.09
468.986	436.63
469.351	347.26
469.717	367.69
470.082	365.13
470.447	357.47
470.812	400.88
471.177	451.95
471.542	339.6
471.906	375.35
472.271	497.91
472.636	352.37
473.001	413.65
473.365	362.58
473.73	421.31
474.094	451.95
474.459	434.07
474.823	357.47
475.188	383.01
475.552	439.18
475.917	388.11
476.281	423.86
476.645	431.52
477.009	500.46
477.373	462.16
477.737	365.13
478.101	515.78
478.465	352.37
478.829	365.13
479.193	408.54
479.557	446.84
479.921	388.11
480.284	418.75
480.648	400.88
481.012	385.56
481.375	395.77
481.739	400.88
482.102	431.52
482.466	383.01
482.829	416.2
483.193	390.67
483.556	439.18
483.919	434.07
484.282	444.29
484.645	344.71
485.009	393.22
485.372	421.31
485.735	388.11
486.098	367.69
486.46	380.45
486.823	372.79
487.186	357.47
487.549	446.84
487.912	370.24
488.274	434.07
488.637	367.69
488.999	360.03
489.362	380.45
489.724	413.65
490.087	439.18
490.449	405.99
490.811	388.11
491.174	393.22
491.536	337.05
491.898	395.77
492.26	400.88
492.622	360.03
492.984	423.86
493.346	400.88
493.708	380.45
494.07	418.75
494.432	423.86
494.794	398.33
495.155	423.86
495.517	428.97
495.879	431.52
496.24	469.82
496.602	431.52
496.963	444.29
497.325	421.31
497.686	439.18
498.048	385.56
498.409	439.18
498.77	449.39
499.131	377.9
499.492	390.67
499.854	380.45
500.215	380.45
500.576	375.35
500.937	405.99
501.298	403.43
501.658	434.07
502.019	357.47
502.38	411.09
502.741	324.28
503.101	388.11
503.462	337.05
503.823	395.77
504.183	388.11
504.543	344.71
504.904	380.45
505.264	405.99
505.625	334.49
505.985	436.63
506.345	426.41
506.705	434.07
507.065	370.24
507.426	416.2
507.786	405.99
508.146	446.84
508.505	377.9
508.865	449.39
509.225	421.31
509.585	487.7
509.945	421.31
510.304	400.88
510.664	416.2
511.024	393.22
511.383	446.84
511.743	372.79
512.102	393.22
512.462	370.24
512.821	367.69
513.18	400.88
513.539	464.71
513.899	398.33
514.258	444.29
514.617	354.92
514.976	367.69
515.335	342.15
515.694	344.71
516.053	500.46
516.412	380.45
516.771	390.67
517.129	377.9
517.488	441.73
517.847	395.77
518.205	352.37
518.564	403.43
518.922	400.88
519.281	388.11
519.639	405.99
519.998	352.37
520.356	367.69
520.714	388.11
521.073	390.67
521.431	421.31
521.789	403.43
522.147	400.88
522.505	436.63
522.863	362.58
523.221	474.93
523.579	413.65
523.937	342.15
524.295	370.24
524.652	398.33
525.01	434.07
525.368	434.07
525.725	449.39
526.083	418.75
526.44	390.67
526.798	398.33
527.155	357.47
527.513	385.56
527.87	400.88
528.227	413.65
528.584	370.24
528.942	411.09
529.299	324.28
529.656	388.11
530.013	413.65
530.37	398.33
530.727	434.07
531.083	349.81
531.44	375.35
531.797	383.01
532.154	421.31
532.511	480.04
532.867	434.07
533.224	472.37
533.58	434.07
533.937	449.39
534.293	482.59
534.65	423.86
535.006	495.36
535.362	408.54
535.718	405.99
536.075	408.54
536.431	388.11
536.787	423.86
537.143	405.99
537.499	354.92
537.855	451.95
538.211	431.52
538.567	398.33
538.923	421.31
539.278	390.67
539.634	434.07
539.99	393.22
540.345	462.16
540.701	372.79
541.056	403.43
541.412	408.54
541.767	449.39
542.123	383.01
542.478	413.65
542.833	428.97
543.188	405.99
543.544	436.63
543.899	428.97
544.254	413.65
544.609	395.77
544.964	370.24
545.319	421.31
545.674	421.31
546.029	326.83
546.383	400.88
546.738	393.22
547.093	413.65
547.447	367.69
547.802	370.24
548.157	423.86
548.511	485.14
548.866	434.07
549.22	416.2
549.574	367.69
549.929	474.93
550.283	418.75
550.637	423.86
550.991	457.05
551.345	385.56
551.699	413.65
552.053	365.13
552.407	413.65
552.761	426.41
553.115	411.09
553.469	428.97
553.823	416.2
554.176	423.86
554.53	390.67
554.884	449.39
555.237	610.26
555.591	370.24
555.944	403.43
556.298	408.54
556.651	451.95
557.005	457.05
557.358	490.25
557.711	413.65
558.064	319.17
558.417	439.18
558.771	477.48
559.124	380.45
559.477	403.43
559.83	403.43
560.182	334.49
560.535	365.13
560.888	285.98
561.241	367.69
561.594	413.65
561.946	400.88
562.299	477.48
562.651	380.45
563.004	416.2
563.356	352.37
563.709	398.33
564.061	431.52
564.413	526
564.766	446.84
565.118	464.71
565.47	441.73
565.822	408.54
566.174	464.71
566.526	375.35
566.878	372.79
567.23	347.26
567.582	405.99
567.934	449.39
568.286	365.13
568.638	418.75
568.989	411.09
569.341	416.2
569.693	375.35
570.044	421.31
570.396	411.09
570.747	408.54
571.098	457.05
571.45	467.27
571.801	490.25
572.152	393.22
572.504	308.96
572.855	390.67
573.206	421.31
573.557	421.31
573.908	434.07
574.259	469.82
574.61	388.11
574.961	449.39
575.311	474.93
575.662	398.33
576.013	400.88
576.364	400.88
576.714	436.63
577.065	413.65
577.415	431.52
577.766	321.73
578.116	377.9
578.467	400.88
578.817	449.39
579.167	428.97
579.518	423.86
579.868	508.12
580.218	377.9
580.568	416.2
580.918	431.52
581.268	423.86
581.618	339.6
581.968	395.77
582.318	405.99
582.668	398.33
583.017	357.47
583.367	454.5
583.717	457.05
584.066	441.73
584.416	411.09
584.765	421.31
585.115	413.65
585.464	457.05
585.814	398.33
586.163	403.43
586.512	469.82
586.862	352.37
587.211	349.81
587.56	411.09
587.909	393.22
588.258	436.63
588.607	367.69
588.956	439.18
589.305	388.11
589.654	398.33
590.002	354.92
590.351	416.2
590.7	503.02
591.048	426.41
591.397	441.73
591.746	385.56
592.094	431.52
592.443	428.97
592.791	431.52
593.139	439.18
593.488	385.56
593.836	352.37
594.184	380.45
594.532	408.54
594.88	451.95
595.228	446.84
595.576	434.07
595.924	388.11
596.272	395.77
596.62	377.9
596.968	380.45
597.316	423.86
597.664	400.88
598.011	411.09
598.359	477.48
598.706	444.29
599.054	377.9
599.402	459.61
599.749	326.83
600.096	405.99
600.444	418.75
600.791	344.71
601.138	360.03
601.485	349.81
601.833	395.77
602.18	360.03
602.527	360.03
602.874	388.11
603.221	449.39
603.568	416.2
603.914	454.5
604.261	388.11
604.608	405.99
604.955	457.05
605.301	395.77
605.648	423.86
605.995	395.77
606.341	462.16
606.688	324.28
607.034	370.24
607.38	398.33
607.727	421.31
608.073	454.5
608.419	390.67
608.765	377.9
609.112	395.77
609.458	393.22
609.804	383.01
610.15	352.37
610.496	370.24
610.842	446.84
611.187	347.26
611.533	418.75
611.879	383.01
612.225	393.22
612.57	426.41
612.916	349.81
613.261	416.2
613.607	383.01
613.952	398.33
614.298	365.13
614.643	469.82
614.989	426.41
615.334	398.33
615.679	441.73
616.024	416.2
616.369	375.35
616.714	395.77
617.059	390.67
617.404	418.75
617.749	446.84
618.094	421.31
618.439	467.27
618.784	428.97
619.129	416.2
619.473	416.2
619.818	398.33
620.163	421.31
620.507	421.31
620.852	385.56
621.196	416.2
621.54	416.2
621.885	423.86
622.229	490.25
622.573	411.09
622.918	411.09
623.262	405.99
623.606	403.43
623.95	390.67
624.294	347.26
624.638	377.9
624.982	380.45
625.326	464.71
625.67	383.01
626.013	380.45
626.357	421.31
626.701	418.75
627.044	383.01
627.388	444.29
627.731	337.05
628.075	418.75
628.418	421.31
628.762	357.47
629.105	398.33
629.448	467.27
629.792	513.23
630.135	439.18
630.478	411.09
630.821	411.09
631.164	400.88
631.507	444.29
631.85	421.31
632.193	408.54
632.536	342.15
632.879	347.26
633.221	459.61
633.564	393.22
633.907	431.52
634.249	459.61
634.592	431.52
634.935	400.88
635.277	444.29
635.619	418.75
635.962	380.45
636.304	423.86
636.646	423.86
636.989	418.75
637.331	375.35
637.673	454.5
638.015	428.97
638.357	393.22
638.699	395.77
639.041	400.88
639.383	393.22
639.725	375.35
640.067	321.73
640.408	457.05
640.75	474.93
641.092	423.86
641.433	416.2
641.775	454.5
642.116	431.52
642.458	403.43
642.799	377.9
643.141	405.99
643.482	403.43
643.823	372.79
644.164	388.11
644.506	508.12
644.847	395.77
645.188	393.22
645.529	515.78
645.87	457.05
646.211	405.99
646.552	375.35
646.893	403.43
647.233	372.79
647.574	360.03
647.915	405.99
648.255	457.05
648.596	444.29
648.937	423.86
649.277	403.43
649.618	411.09
649.958	467.27
650.298	428.97
650.639	388.11
650.979	413.65
651.319	418.75
651.659	411.09
651.999	354.92
652.339	416.2
652.679	408.54
653.019	395.77
653.359	362.58
653.699	314.07
654.039	426.41
654.379	405.99
654.719	405.99
655.058	439.18
655.398	477.48
655.737	518.34
656.077	451.95
656.416	416.2
656.756	405.99
657.095	360.03
657.435	385.56
657.774	428.97
658.113	416.2
658.452	375.35
658.792	454.5
659.131	385.56
659.47	385.56
659.809	441.73
660.148	405.99
660.487	423.86
660.826	416.2
661.164	411.09
661.503	413.65
661.842	436.63
662.181	372.79
662.519	390.67
662.858	403.43
663.196	474.93
663.535	416.2
663.873	383.01
664.212	413.65
664.55	383.01
664.888	474.93
665.226	431.52
665.565	408.54
665.903	607.7
666.241	388.11
666.579	434.07
666.917	362.58
667.255	411.09
667.593	423.86
667.931	487.7
668.268	388.11
668.606	357.47
668.944	362.58
669.282	352.37
669.619	431.52
669.957	451.95
670.294	375.35
670.632	393.22
670.969	490.25
671.307	434.07
671.644	372.79
671.981	344.71
672.318	413.65
672.656	400.88
672.993	367.69
673.33	423.86
673.667	344.71
674.004	398.33
674.341	413.65
674.678	426.41
675.015	383.01
675.351	385.56
675.688	395.77
676.025	398.33
676.362	416.2
676.698	388.11
677.035	467.27
677.371	411.09
677.708	375.35
678.044	421.31
678.38	375.35
678.717	446.84
679.053	352.37
679.389	421.31
679.725	423.86
680.062	451.95
680.398	421.31
680.734	403.43
681.07	388.11
681.406	423.86
681.742	464.71
682.077	331.94
682.413	388.11
682.749	385.56
683.085	454.5
683.42	428.97
683.756	383.01
684.091	339.6
684.427	400.88
684.762	418.75
685.098	380.45
685.433	367.69
685.768	388.11
686.104	362.58
686.439	390.67
686.774	367.69
687.109	436.63
687.444	451.95
687.779	393.22
688.114	474.93
688.449	436.63
688.784	431.52
689.119	403.43
689.454	428.97
689.789	408.54
690.123	385.56
690.458	413.65
690.792	362.58
691.127	426.41
691.461	421.31
691.796	436.63
692.13	439.18
692.465	403.43
692.799	395.77
693.133	383.01
693.467	390.67
693.802	375.35
694.136	342.15
694.47	354.92
694.804	362.58
695.138	357.47
695.472	365.13
695.806	428.97
696.139	441.73
696.473	423.86
696.807	411.09
697.141	416.2
697.474	426.41
697.808	449.39
698.141	388.11
698.475	372.79
698.808	431.52
699.142	426.41
699.475	411.09
699.808	380.45
700.142	372.79
700.475	428.97
700.808	421.31
701.141	352.37
701.474	444.29
701.807	377.9
702.14	416.2
702.473	418.75
702.806	362.58
703.139	337.05
703.472	375.35
703.804	416.2
704.137	344.71
704.47	357.47
704.802	395.77
705.135	405.99
705.467	380.45
705.8	334.49
706.132	303.85
706.464	370.24
706.797	431.52
707.129	454.5
707.461	395.77
707.793	395.77
708.125	393.22
708.457	444.29
708.789	408.54
709.121	426.41
709.453	354.92
709.785	428.97
710.117	439.18
710.449	360.03
710.781	360.03
711.112	375.35
711.444	390.67
711.775	411.09
712.107	423.86
712.438	423.86
712.77	416.2
713.101	454.5
713.433	372.79
713.764	352.37
714.095	459.61
714.426	365.13
714.757	357.47
715.089	428.97
715.42	423.86
715.751	426.41
716.082	339.6
716.412	385.56
716.743	385.56
717.074	413.65
717.405	411.09
717.736	418.75
718.066	375.35
718.397	339.6
718.727	413.65
719.058	423.86
719.388	375.35
719.719	390.67
720.049	408.54
720.38	423.86
720.71	434.07
721.04	446.84
721.37	439.18
721.7	405.99
722.031	326.83
722.361	434.07
722.691	467.27
723.021	349.81
723.35	334.49
723.68	365.13
724.01	352.37
724.34	411.09
724.67	377.9
724.999	421.31
725.329	405.99
725.658	434.07
725.988	367.69
726.317	395.77
726.647	418.75
726.976	360.03
727.306	326.83
727.635	385.56
727.964	400.88
728.293	390.67
728.622	367.69
728.952	405.99
729.281	462.16
729.61	367.69
729.939	413.65
730.267	385.56
730.596	436.63
730.925	362.58
731.254	421.31
731.583	388.11
731.911	360.03
732.24	380.45
732.568	398.33
732.897	377.9
733.225	436.63
733.554	423.86
733.882	418.75
734.21	416.2
734.539	431.52
734.867	390.67
735.195	423.86
735.523	385.56
735.851	380.45
736.179	449.39
736.507	495.36
736.835	403.43
737.163	385.56
737.491	367.69
737.819	472.37
738.147	413.65
738.474	377.9
738.802	370.24
739.13	400.88
739.457	342.15
739.785	393.22
740.112	385.56
740.44	428.97
740.767	459.61
741.094	434.07
741.422	434.07
741.749	390.67
742.076	518.34
742.403	416.2
742.73	408.54
743.057	352.37
743.384	408.54
743.711	426.41
744.038	421.31
744.365	441.73
744.692	367.69
745.018	400.88
745.345	426.41
745.672	362.58
745.998	413.65
746.325	421.31
746.651	480.04
746.978	400.88
747.304	326.83
747.631	357.47
747.957	428.97
748.283	405.99
748.61	439.18
748.936	395.77
749.262	405.99
749.588	344.71
749.914	314.07
750.24	446.84
750.566	380.45
750.892	441.73
751.218	390.67
751.543	385.56
751.869	421.31
752.195	454.5
752.521	377.9
752.846	408.54
753.172	462.16
753.497	428.97
753.823	357.47
754.148	329.39
754.473	416.2
754.799	423.86
755.124	426.41
755.449	360.03
755.774	444.29
756.1	421.31
756.425	372.79
756.75	400.88
757.075	413.65
757.4	556.64
757.724	398.33
758.049	490.25
758.374	449.39
758.699	439.18
759.024	413.65
759.348	319.17
759.673	462.16
759.997	446.84
760.322	390.67
760.646	352.37
760.971	434.07
761.295	383.01
761.619	441.73
761.944	469.82
762.268	520.89
762.592	469.82
762.916	515.78
763.24	531.1
763.564	605.15
763.888	635.79
764.212	666.43
764.536	709.84
764.86	732.82
765.184	735.37
765.508	766.01
765.831	822.19
766.155	1103.06
766.478	916.66
766.802	865.6
767.126	763.46
767.449	791.55
767.772	860.49
768.096	814.53
768.419	707.29
768.742	625.58
769.066	561.74
769.389	500.46
769.712	610.26
770.035	623.02
770.358	771.12
770.681	896.24
771.004	1095.4
771.327	1141.36
771.65	1371.16
771.972	1521.81
772.295	1917.59
772.618	2287.83
772.941	2632.53
773.263	2803.61
773.586	3332.16
773.908	3653.88
774.231	3689.63
774.553	3653.88
774.875	3891.35
775.198	3947.52
775.52	3720.27
775.842	3508.34
776.164	3281.09
776.487	3102.35
776.809	3064.05
777.131	2854.68
777.453	2655.51
777.775	2497.2
778.096	2356.77
778.418	2101.43
778.74	1746.51
779.062	1366.06
779.384	1200.09
779.705	1131.15
780.027	1074.97
780.348	1100.51
780.67	1120.93
780.991	1353.29
781.313	1626.5
781.634	1920.14
781.955	2300.59
782.277	2882.76
782.598	3309.18
782.919	3697.29
783.24	4271.8
783.561	4647.15
783.882	5127.18
784.203	5334.01
784.524	5650.63
784.845	5750.21
785.166	6033.63
785.487	6692.4
785.807	6924.76
786.128	6776.67
786.449	6707.72
786.769	6273.65
787.09	6363.02
787.41	6666.87
787.731	6572.39
788.051	6723.04
788.372	6454.94
788.692	6191.94
789.012	5568.92
789.332	4703.32
789.653	4335.64
789.973	4113.49
790.293	3436.85
790.613	2538.06
790.933	2109.09
791.253	1700.55
791.573	1437.55
791.893	1169.45
792.212	990.71
792.532	1006.03
792.852	1046.88
793.171	1192.43
793.491	1654.59
793.811	2132.07
794.13	2573.81
794.45	2854.68
794.769	3250.45
795.088	3888.79
795.408	4476.07
795.727	5609.77
796.046	6827.73
796.365	8089.1
796.684	8122.3
797.004	8558.92
797.323	8707.02
797.642	9850.93
797.96	9628.79
798.279	9258.55
798.598	9169.18
798.917	9238.12
799.236	8916.4
