Data from 2025-12-03_xpw_interference_micrometer_631_FLMS141361__41__591.txt Node

Date: Wed Dec 03 15:54:08 MST 2025
User: james
Spectrometer: FLMS14136
Trigger mode: 0
Integration Time (sec): 1.000000E-1
Scans to average: 1
Electric dark correction enabled: true
Nonlinearity correction enabled: false
Boxcar width: 0
XAxis mode: Wavelengths
Number of Pixels in Spectrum: 2048
>>>>>Begin Spectral Data<<<<<
339.315	-53.62
339.697	-53.62
340.079	-53.62
340.461	-102.14
340.843	-148.1
341.225	-122.56
341.607	-94.47
341.989	-53.62
342.371	-81.71
342.752	-43.41
343.134	-51.07
343.516	-35.75
343.897	-40.85
344.279	10.21
344.661	5.11
345.042	45.96
345.423	38.3
345.805	112.35
346.186	45.96
346.567	68.94
346.949	196.61
347.33	112.35
347.711	158.31
348.092	165.97
348.473	280.87
348.854	201.72
349.235	224.7
349.616	268.1
349.997	303.85
350.378	319.17
350.758	296.19
351.139	285.98
351.52	385.56
351.9	372.79
352.281	334.49
352.661	377.9
353.042	449.39
353.422	372.79
353.803	426.41
354.183	393.22
354.563	337.05
354.943	388.11
355.324	431.52
355.704	454.5
356.084	390.67
356.464	418.75
356.844	444.29
357.224	390.67
357.603	329.39
357.983	375.35
358.363	439.18
358.743	400.88
359.122	431.52
359.502	426.41
359.882	383.01
360.261	342.15
360.641	385.56
361.02	395.77
361.399	383.01
361.779	360.03
362.158	375.35
362.537	321.73
362.916	342.15
363.296	334.49
363.675	405.99
364.054	311.51
364.433	390.67
364.812	400.88
365.19	357.47
365.569	367.69
365.948	360.03
366.327	308.96
366.705	370.24
367.084	398.33
367.463	342.15
367.841	344.71
368.22	375.35
368.598	334.49
368.977	275.76
369.355	288.53
369.733	337.05
370.111	362.58
370.49	377.9
370.868	357.47
371.246	344.71
371.624	306.41
372.002	400.88
372.38	367.69
372.758	311.51
373.136	280.87
373.513	352.37
373.891	421.31
374.269	347.26
374.646	360.03
375.024	339.6
375.402	421.31
375.779	365.13
376.157	383.01
376.534	344.71
376.911	370.24
377.289	395.77
377.666	362.58
378.043	365.13
378.42	393.22
378.797	339.6
379.175	388.11
379.552	400.88
379.929	347.26
380.305	360.03
380.682	416.2
381.059	393.22
381.436	385.56
381.813	454.5
382.189	273.21
382.566	413.65
382.943	365.13
383.319	296.19
383.696	380.45
384.072	352.37
384.448	385.56
384.825	342.15
385.201	383.01
385.577	360.03
385.953	411.09
386.329	383.01
386.706	411.09
387.082	385.56
387.458	395.77
387.834	395.77
388.209	370.24
388.585	411.09
388.961	372.79
389.337	423.86
389.713	362.58
390.088	339.6
390.464	360.03
390.839	421.31
391.215	349.81
391.59	395.77
391.966	344.71
392.341	400.88
392.716	416.2
393.092	344.71
393.467	439.18
393.842	383.01
394.217	375.35
394.592	347.26
394.967	398.33
395.342	331.94
395.717	370.24
396.092	403.43
396.467	393.22
396.841	362.58
397.216	339.6
397.591	405.99
397.965	375.35
398.34	334.49
398.714	365.13
399.089	416.2
399.463	408.54
399.838	362.58
400.212	383.01
400.586	377.9
400.961	367.69
401.335	398.33
401.709	339.6
402.083	380.45
402.457	357.47
402.831	367.69
403.205	372.79
403.579	339.6
403.953	472.37
404.326	464.71
404.7	439.18
405.074	405.99
405.447	375.35
405.821	380.45
406.195	380.45
406.568	342.15
406.942	428.97
407.315	398.33
407.688	446.84
408.062	390.67
408.435	441.73
408.808	418.75
409.181	454.5
409.554	383.01
409.927	421.31
410.3	400.88
410.673	367.69
411.046	370.24
411.419	405.99
411.792	390.67
412.165	472.37
412.537	449.39
412.91	329.39
413.283	331.94
413.655	441.73
414.028	411.09
414.4	413.65
414.773	308.96
415.145	400.88
415.517	400.88
415.889	349.81
416.262	390.67
416.634	370.24
417.006	436.63
417.378	395.77
417.75	365.13
418.122	380.45
418.494	446.84
418.866	464.71
419.238	377.9
419.609	423.86
419.981	400.88
420.353	377.9
420.725	446.84
421.096	398.33
421.468	436.63
421.839	482.59
422.211	398.33
422.582	377.9
422.953	418.75
423.325	377.9
423.696	426.41
424.067	418.75
424.438	459.61
424.809	398.33
425.18	352.37
425.551	413.65
425.922	434.07
426.293	352.37
426.664	418.75
427.035	472.37
427.406	400.88
427.776	421.31
428.147	457.05
428.518	347.26
428.888	411.09
429.259	441.73
429.629	375.35
429.999	372.79
430.37	439.18
430.74	416.2
431.11	390.67
431.481	367.69
431.851	436.63
432.221	347.26
432.591	388.11
432.961	436.63
433.331	393.22
433.701	434.07
434.071	474.93
434.441	367.69
434.81	342.15
435.18	457.05
435.55	375.35
435.919	421.31
436.289	403.43
436.658	390.67
437.028	439.18
437.397	383.01
437.767	385.56
438.136	385.56
438.505	380.45
438.875	439.18
439.244	446.84
439.613	428.97
439.982	347.26
440.351	370.24
440.72	428.97
441.089	449.39
441.458	464.71
441.827	464.71
442.196	411.09
442.564	505.57
442.933	408.54
443.302	319.17
443.67	385.56
444.039	375.35
444.407	298.75
444.776	383.01
445.144	441.73
445.513	439.18
445.881	331.94
446.249	375.35
446.617	344.71
446.986	405.99
447.354	408.54
447.722	451.95
448.09	377.9
448.458	403.43
448.826	469.82
449.194	490.25
449.561	385.56
449.929	372.79
450.297	370.24
450.665	377.9
451.032	372.79
451.4	418.75
451.767	390.67
452.135	395.77
452.502	388.11
452.87	360.03
453.237	413.65
453.604	421.31
453.971	459.61
454.339	393.22
454.706	314.07
455.073	349.81
455.44	385.56
455.807	342.15
456.174	457.05
456.541	495.36
456.908	400.88
457.274	418.75
457.641	411.09
458.008	413.65
458.374	462.16
458.741	385.56
459.108	418.75
459.474	411.09
459.841	380.45
460.207	370.24
460.573	449.39
460.94	490.25
461.306	400.88
461.672	441.73
462.038	421.31
462.404	459.61
462.771	444.29
463.137	400.88
463.503	349.81
463.868	411.09
464.234	383.01
464.6	390.67
464.966	446.84
465.332	426.41
465.697	416.2
466.063	446.84
466.429	421.31
466.794	321.73
467.16	434.07
467.525	459.61
467.89	444.29
468.256	421.31
468.621	441.73
468.986	349.81
469.351	388.11
469.717	411.09
470.082	411.09
470.447	380.45
470.812	354.92
471.177	388.11
471.542	411.09
471.906	477.48
472.271	446.84
472.636	428.97
473.001	403.43
473.365	370.24
473.73	464.71
474.094	408.54
474.459	423.86
474.823	349.81
475.188	370.24
475.552	380.45
475.917	398.33
476.281	395.77
476.645	319.17
477.009	426.41
477.373	411.09
477.737	428.97
478.101	418.75
478.465	380.45
478.829	383.01
479.193	431.52
479.557	428.97
479.921	408.54
480.284	375.35
480.648	349.81
481.012	441.73
481.375	393.22
481.739	434.07
482.102	485.14
482.466	405.99
482.829	416.2
483.193	349.81
483.556	426.41
483.919	370.24
484.282	352.37
484.645	347.26
485.009	436.63
485.372	413.65
485.735	390.67
486.098	375.35
486.46	418.75
486.823	434.07
487.186	370.24
487.549	421.31
487.912	393.22
488.274	434.07
488.637	451.95
488.999	421.31
489.362	462.16
489.724	385.56
490.087	446.84
490.449	360.03
490.811	411.09
491.174	426.41
491.536	377.9
491.898	444.29
492.26	446.84
492.622	457.05
492.984	383.01
493.346	388.11
493.708	411.09
494.07	408.54
494.432	434.07
494.794	436.63
495.155	362.58
495.517	462.16
495.879	398.33
496.24	395.77
496.602	418.75
496.963	436.63
497.325	405.99
497.686	413.65
498.048	362.58
498.409	418.75
498.77	383.01
499.131	398.33
499.492	431.52
499.854	405.99
500.215	408.54
500.576	375.35
500.937	398.33
501.298	426.41
501.658	434.07
502.019	454.5
502.38	434.07
502.741	403.43
503.101	454.5
503.462	365.13
503.823	426.41
504.183	462.16
504.543	482.59
504.904	446.84
505.264	398.33
505.625	423.86
505.985	411.09
506.345	436.63
506.705	367.69
507.065	342.15
507.426	411.09
507.786	441.73
508.146	377.9
508.505	485.14
508.865	405.99
509.225	375.35
509.585	482.59
509.945	434.07
510.304	482.59
510.664	408.54
511.024	398.33
511.383	400.88
511.743	431.52
512.102	436.63
512.462	454.5
512.821	439.18
513.18	390.67
513.539	385.56
513.899	464.71
514.258	416.2
514.617	423.86
514.976	416.2
515.335	434.07
515.694	400.88
516.053	383.01
516.412	467.27
516.771	423.86
517.129	436.63
517.488	405.99
517.847	472.37
518.205	485.14
518.564	451.95
518.922	464.71
519.281	388.11
519.639	451.95
519.998	344.71
520.356	405.99
520.714	390.67
521.073	413.65
521.431	400.88
521.789	423.86
522.147	434.07
522.505	400.88
522.863	380.45
523.221	349.81
523.579	385.56
523.937	451.95
524.295	451.95
524.652	457.05
525.01	411.09
525.368	490.25
525.725	436.63
526.083	380.45
526.44	352.37
526.798	395.77
527.155	372.79
527.513	428.97
527.87	441.73
528.227	426.41
528.584	408.54
528.942	411.09
529.299	383.01
529.656	344.71
530.013	439.18
530.37	459.61
530.727	467.27
531.083	446.84
531.44	362.58
531.797	418.75
532.154	418.75
532.511	480.04
532.867	377.9
533.224	411.09
533.58	469.82
533.937	439.18
534.293	423.86
534.65	418.75
535.006	487.7
535.362	413.65
535.718	352.37
536.075	390.67
536.431	449.39
536.787	408.54
537.143	451.95
537.499	467.27
537.855	390.67
538.211	393.22
538.567	439.18
538.923	344.71
539.278	352.37
539.634	416.2
539.99	385.56
540.345	393.22
540.701	428.97
541.056	451.95
541.412	326.83
541.767	388.11
542.123	395.77
542.478	398.33
542.833	426.41
543.188	449.39
543.544	403.43
543.899	352.37
544.254	413.65
544.609	444.29
544.964	439.18
545.319	395.77
545.674	441.73
546.029	436.63
546.383	375.35
546.738	362.58
547.093	408.54
547.447	395.77
547.802	428.97
548.157	469.82
548.511	365.13
548.866	403.43
549.22	393.22
549.574	377.9
549.929	434.07
550.283	377.9
550.637	426.41
550.991	395.77
551.345	393.22
551.699	441.73
552.053	423.86
552.407	408.54
552.761	342.15
553.115	441.73
553.469	416.2
553.823	477.48
554.176	418.75
554.53	467.27
554.884	385.56
555.237	612.81
555.591	434.07
555.944	500.46
556.298	480.04
556.651	454.5
557.005	413.65
557.358	354.92
557.711	388.11
558.064	423.86
558.417	416.2
558.771	503.02
559.124	485.14
559.477	393.22
559.83	462.16
560.182	434.07
560.535	405.99
560.888	477.48
561.241	385.56
561.594	329.39
561.946	451.95
562.299	459.61
562.651	418.75
563.004	357.47
563.356	451.95
563.709	405.99
564.061	388.11
564.413	347.26
564.766	454.5
565.118	375.35
565.47	474.93
565.822	408.54
566.174	377.9
566.526	411.09
566.878	428.97
567.23	411.09
567.582	408.54
567.934	388.11
568.286	370.24
568.638	423.86
568.989	380.45
569.341	413.65
569.693	434.07
570.044	395.77
570.396	431.52
570.747	411.09
571.098	411.09
571.45	395.77
571.801	480.04
572.152	370.24
572.504	441.73
572.855	385.56
573.206	434.07
573.557	444.29
573.908	457.05
574.259	416.2
574.61	439.18
574.961	411.09
575.311	513.23
575.662	428.97
576.013	439.18
576.364	413.65
576.714	421.31
577.065	395.77
577.415	480.04
577.766	393.22
578.116	385.56
578.467	446.84
578.817	413.65
579.167	444.29
579.518	370.24
579.868	377.9
580.218	362.58
580.568	416.2
580.918	405.99
581.268	365.13
581.618	398.33
581.968	380.45
582.318	321.73
582.668	393.22
583.017	352.37
583.367	449.39
583.717	400.88
584.066	395.77
584.416	411.09
584.765	457.05
585.115	434.07
585.464	426.41
585.814	490.25
586.163	426.41
586.512	459.61
586.862	431.52
587.211	403.43
587.56	403.43
587.909	480.04
588.258	495.36
588.607	426.41
588.956	349.81
589.305	416.2
589.654	383.01
590.002	400.88
590.351	362.58
590.7	395.77
591.048	383.01
591.397	375.35
591.746	400.88
592.094	411.09
592.443	434.07
592.791	441.73
593.139	434.07
593.488	385.56
593.836	360.03
594.184	375.35
594.532	431.52
594.88	472.37
595.228	403.43
595.576	339.6
595.924	357.47
596.272	431.52
596.62	370.24
596.968	390.67
597.316	400.88
597.664	480.04
598.011	339.6
598.359	421.31
598.706	416.2
599.054	411.09
599.402	485.14
599.749	436.63
600.096	380.45
600.444	377.9
600.791	467.27
601.138	380.45
601.485	377.9
601.833	380.45
602.18	393.22
602.527	377.9
602.874	421.31
603.221	408.54
603.568	431.52
603.914	416.2
604.261	449.39
604.608	380.45
604.955	418.75
605.301	472.37
605.648	428.97
605.995	408.54
606.341	395.77
606.688	367.69
607.034	395.77
607.38	337.05
607.727	388.11
608.073	485.14
608.419	408.54
608.765	367.69
609.112	388.11
609.458	474.93
609.804	395.77
610.15	408.54
610.496	347.26
610.842	403.43
611.187	421.31
611.533	454.5
611.879	398.33
612.225	377.9
612.57	354.92
612.916	360.03
613.261	421.31
613.607	428.97
613.952	393.22
614.298	428.97
614.643	405.99
614.989	405.99
615.334	428.97
615.679	390.67
616.024	357.47
616.369	388.11
616.714	403.43
617.059	393.22
617.404	365.13
617.749	418.75
618.094	423.86
618.439	441.73
618.784	411.09
619.129	526
619.473	423.86
619.818	380.45
620.163	421.31
620.507	431.52
620.852	400.88
621.196	405.99
621.54	416.2
621.885	492.8
622.229	487.7
622.573	421.31
622.918	337.05
623.262	372.79
623.606	457.05
623.95	439.18
624.294	416.2
624.638	383.01
624.982	426.41
625.326	393.22
625.67	398.33
626.013	342.15
626.357	400.88
626.701	428.97
627.044	365.13
627.388	408.54
627.731	385.56
628.075	375.35
628.418	459.61
628.762	464.71
629.105	434.07
629.448	388.11
629.792	337.05
630.135	403.43
630.478	451.95
630.821	370.24
631.164	383.01
631.507	418.75
631.85	421.31
632.193	370.24
632.536	385.56
632.879	411.09
633.221	383.01
633.564	400.88
633.907	344.71
634.249	357.47
634.592	360.03
634.935	380.45
635.277	426.41
635.619	398.33
635.962	428.97
636.304	380.45
636.646	390.67
636.989	408.54
637.331	372.79
637.673	418.75
638.015	421.31
638.357	431.52
638.699	418.75
639.041	431.52
639.383	357.47
639.725	436.63
640.067	426.41
640.408	357.47
640.75	436.63
641.092	413.65
641.433	454.5
641.775	495.36
642.116	459.61
642.458	423.86
642.799	385.56
643.141	400.88
643.482	411.09
643.823	444.29
644.164	380.45
644.506	500.46
644.847	385.56
645.188	390.67
645.529	431.52
645.87	365.13
646.211	439.18
646.552	418.75
646.893	462.16
647.233	405.99
647.574	434.07
647.915	418.75
648.255	490.25
648.596	421.31
648.937	393.22
649.277	370.24
649.618	413.65
649.958	367.69
650.298	370.24
650.639	308.96
650.979	365.13
651.319	411.09
651.659	408.54
651.999	390.67
652.339	421.31
652.679	347.26
653.019	400.88
653.359	367.69
653.699	431.52
654.039	431.52
654.379	454.5
654.719	365.13
655.058	444.29
655.398	411.09
655.737	467.27
656.077	477.48
656.416	413.65
656.756	441.73
657.095	365.13
657.435	331.94
657.774	388.11
658.113	446.84
658.452	354.92
658.792	459.61
659.131	390.67
659.47	331.94
659.809	398.33
660.148	367.69
660.487	428.97
660.826	390.67
661.164	370.24
661.503	398.33
661.842	383.01
662.181	362.58
662.519	436.63
662.858	375.35
663.196	428.97
663.535	411.09
663.873	385.56
664.212	383.01
664.55	428.97
664.888	469.82
665.226	421.31
665.565	357.47
665.903	584.72
666.241	469.82
666.579	393.22
666.917	360.03
667.255	398.33
667.593	462.16
667.931	393.22
668.268	360.03
668.606	380.45
668.944	367.69
669.282	446.84
669.619	375.35
669.957	416.2
670.294	390.67
670.632	393.22
670.969	423.86
671.307	428.97
671.644	372.79
671.981	441.73
672.318	457.05
672.656	477.48
672.993	326.83
673.33	349.81
673.667	482.59
674.004	454.5
674.341	418.75
674.678	439.18
675.015	395.77
675.351	457.05
675.688	380.45
676.025	388.11
676.362	413.65
676.698	423.86
677.035	403.43
677.371	508.12
677.708	434.07
678.044	390.67
678.38	400.88
678.717	431.52
679.053	418.75
679.389	426.41
679.725	375.35
680.062	380.45
680.398	370.24
680.734	413.65
681.07	423.86
681.406	464.71
681.742	421.31
682.077	339.6
682.413	370.24
682.749	395.77
683.085	390.67
683.42	385.56
683.756	360.03
684.091	385.56
684.427	434.07
684.762	472.37
685.098	388.11
685.433	385.56
685.768	423.86
686.104	365.13
686.439	329.39
686.774	393.22
687.109	403.43
687.444	380.45
687.779	372.79
688.114	421.31
688.449	487.7
688.784	385.56
689.119	416.2
689.454	446.84
689.789	385.56
690.123	444.29
690.458	449.39
690.792	413.65
691.127	444.29
691.461	383.01
691.796	360.03
692.13	347.26
692.465	405.99
692.799	482.59
693.133	324.28
693.467	334.49
693.802	372.79
694.136	398.33
694.47	400.88
694.804	408.54
695.138	428.97
695.472	426.41
695.806	423.86
696.139	400.88
696.473	372.79
696.807	449.39
697.141	377.9
697.474	472.37
697.808	436.63
698.141	431.52
698.475	377.9
698.808	393.22
699.142	416.2
699.475	393.22
699.808	431.52
700.142	398.33
700.475	487.7
700.808	398.33
701.141	426.41
701.474	405.99
701.807	372.79
702.14	423.86
702.473	418.75
702.806	403.43
703.139	342.15
703.472	462.16
703.804	441.73
704.137	342.15
704.47	298.75
704.802	457.05
705.135	354.92
705.467	400.88
705.8	431.52
706.132	400.88
706.464	311.51
706.797	403.43
707.129	416.2
707.461	395.77
707.793	421.31
708.125	390.67
708.457	436.63
708.789	398.33
709.121	372.79
709.453	451.95
709.785	375.35
710.117	337.05
710.449	326.83
710.781	360.03
711.112	405.99
711.444	418.75
711.775	377.9
712.107	342.15
712.438	451.95
712.77	367.69
713.101	383.01
713.433	291.09
713.764	375.35
714.095	395.77
714.426	393.22
714.757	360.03
715.089	375.35
715.42	403.43
715.751	428.97
716.082	431.52
716.412	416.2
716.743	383.01
717.074	375.35
717.405	393.22
717.736	349.81
718.066	403.43
718.397	405.99
718.727	388.11
719.058	431.52
719.388	349.81
719.719	421.31
720.049	449.39
720.38	408.54
720.71	375.35
721.04	395.77
721.37	421.31
721.7	428.97
722.031	454.5
722.361	388.11
722.691	377.9
723.021	441.73
723.35	403.43
723.68	370.24
724.01	352.37
724.34	372.79
724.67	421.31
724.999	426.41
725.329	421.31
725.658	349.81
725.988	380.45
726.317	436.63
726.647	434.07
726.976	390.67
727.306	360.03
727.635	349.81
727.964	423.86
728.293	405.99
728.622	380.45
728.952	446.84
729.281	370.24
729.61	411.09
729.939	408.54
730.267	354.92
730.596	403.43
730.925	421.31
731.254	385.56
731.583	326.83
731.911	347.26
732.24	400.88
732.568	436.63
732.897	367.69
733.225	393.22
733.554	413.65
733.882	365.13
734.21	377.9
734.539	362.58
734.867	375.35
735.195	416.2
735.523	444.29
735.851	337.05
736.179	431.52
736.507	372.79
736.835	408.54
737.163	405.99
737.491	403.43
737.819	416.2
738.147	421.31
738.474	377.9
738.802	434.07
739.13	411.09
739.457	413.65
739.785	436.63
740.112	408.54
740.44	354.92
740.767	441.73
741.094	416.2
741.422	383.01
741.749	428.97
742.076	408.54
742.403	416.2
742.73	439.18
743.057	467.27
743.384	383.01
743.711	459.61
744.038	398.33
744.365	434.07
744.692	428.97
745.018	436.63
745.345	362.58
745.672	413.65
745.998	390.67
746.325	367.69
746.651	413.65
746.978	390.67
747.304	380.45
747.631	380.45
747.957	372.79
748.283	416.2
748.61	360.03
748.936	451.95
749.262	426.41
749.588	421.31
749.914	418.75
750.24	405.99
750.566	370.24
750.892	418.75
751.218	446.84
751.543	347.26
751.869	439.18
752.195	395.77
752.521	418.75
752.846	331.94
753.172	383.01
753.497	444.29
753.823	490.25
754.148	469.82
754.473	400.88
754.799	426.41
755.124	426.41
755.449	352.37
755.774	377.9
756.1	436.63
756.425	347.26
756.75	388.11
757.075	329.39
757.4	541.32
757.724	439.18
758.049	418.75
758.374	408.54
758.699	400.88
759.024	408.54
759.348	377.9
759.673	428.97
759.997	372.79
760.322	360.03
760.646	413.65
760.971	423.86
761.295	454.5
761.619	446.84
761.944	457.05
762.268	477.48
762.592	497.91
762.916	559.19
763.24	531.1
763.564	556.64
763.888	612.81
764.212	740.48
764.536	663.88
764.86	766.01
765.184	788.99
765.508	725.16
765.831	809.42
766.155	1041.78
766.478	868.15
766.802	860.49
767.126	801.76
767.449	788.99
767.772	781.33
768.096	643.45
768.419	610.26
768.742	543.87
769.066	513.23
769.389	584.72
769.712	612.81
770.035	663.88
770.358	783.89
770.681	931.98
771.004	1151.57
771.327	1312.44
771.65	1445.21
771.972	1654.59
772.295	2019.72
772.618	2338.89
772.941	2637.64
773.263	2801.06
773.586	3207.04
773.908	3595.16
774.231	3600.26
774.553	3628.35
774.875	3919.44
775.198	4019.02
775.52	3620.69
775.842	3408.76
776.164	3311.73
776.487	3007.88
776.809	2801.06
777.131	2688.71
777.453	2568.7
777.775	2525.29
778.096	2101.43
778.418	1830.77
778.74	1509.05
779.062	1304.78
779.384	1136.25
779.705	1006.03
780.027	1044.33
780.348	1016.24
780.67	1103.06
780.991	1299.67
781.313	1713.32
781.634	2096.32
781.955	2407.84
782.277	3043.63
782.598	3449.61
782.919	3809.64
783.24	4327.98
783.561	4871.85
783.882	5142.5
784.203	5556.15
784.524	5474.44
784.845	5842.13
785.166	6010.65
785.487	6493.24
785.807	6858.37
786.128	6587.72
786.449	6536.65
786.769	6232.8
787.09	6214.92
787.41	6452.39
787.731	6276.2
788.051	6281.31
788.372	6130.66
788.692	5803.83
789.012	5122.08
789.332	4317.76
789.653	4039.44
789.973	3704.95
790.293	3020.65
790.613	2305.7
790.933	1935.46
791.253	1519.26
791.573	1215.41
791.893	1159.23
792.212	883.47
792.532	906.45
792.852	1036.67
793.171	1271.58
793.491	1631.61
793.811	1989.08
794.13	2507.42
794.45	2847.02
794.769	3439.4
795.088	3978.16
795.408	4723.75
795.727	5829.36
796.046	7093.28
796.365	8206.56
796.684	8188.68
797.004	8101.87
797.323	8681.49
797.642	10052.65
797.96	9511.33
798.279	9181.95
798.598	8821.92
798.917	8722.34
799.236	8449.13
799.554	8127.4
