Data from 2025-12-03_xpw_interference_micrometer_631_FLMS141361__38__588.txt Node

Date: Wed Dec 03 15:54:08 MST 2025
User: james
Spectrometer: FLMS14136
Trigger mode: 0
Integration Time (sec): 1.000000E-1
Scans to average: 1
Electric dark correction enabled: true
Nonlinearity correction enabled: false
Boxcar width: 0
XAxis mode: Wavelengths
Number of Pixels in Spectrum: 2048
>>>>>Begin Spectral Data<<<<<
339.315	-21.54
339.697	-21.54
340.079	-21.54
340.461	-36.86
340.843	-98.15
341.225	-82.83
341.607	-82.83
341.989	-52.18
342.371	-116.02
342.752	-151.77
343.134	-6.22
343.516	-47.08
343.897	-11.33
344.279	-44.52
344.661	-11.33
345.042	26.97
345.423	78.04
345.805	121.45
346.186	83.14
346.567	106.12
346.949	190.39
347.33	134.21
347.711	182.73
348.092	228.69
348.473	210.81
348.854	215.92
349.235	284.86
349.616	320.61
349.997	266.99
350.378	256.77
350.758	274.65
351.139	330.82
351.52	358.91
351.9	361.46
352.281	320.61
352.661	310.4
353.042	358.91
353.422	346.14
353.803	445.72
354.183	384.44
354.563	399.76
354.943	361.46
355.324	417.64
355.704	404.87
356.084	318.06
356.464	351.25
356.844	399.76
357.224	432.96
357.603	379.34
357.983	361.46
358.363	333.38
358.743	341.04
359.122	379.34
359.502	397.21
359.882	343.59
360.261	409.98
360.641	415.08
361.02	315.5
361.399	335.93
361.779	328.27
362.158	381.89
362.537	389.55
362.916	320.61
363.296	361.46
363.675	325.72
364.054	348.7
364.433	366.57
364.812	287.41
365.19	348.7
365.569	366.57
365.948	315.5
366.327	315.5
366.705	279.75
367.084	315.5
367.463	284.86
367.841	356.36
368.22	310.4
368.598	394.66
368.977	295.07
369.355	335.93
369.733	341.04
370.111	389.55
370.49	328.27
370.868	289.97
371.246	335.93
371.624	343.59
372.002	341.04
372.38	417.64
372.758	379.34
373.136	402.32
373.513	312.95
373.891	435.51
374.269	330.82
374.646	351.25
375.024	338.48
375.402	343.59
375.779	384.44
376.157	348.7
376.534	358.91
376.911	366.57
377.289	384.44
377.666	389.55
378.043	412.53
378.42	402.32
378.797	371.68
379.175	384.44
379.552	320.61
379.929	328.27
380.305	353.8
380.682	374.23
381.059	348.7
381.436	415.08
381.813	387
382.189	297.63
382.566	333.38
382.943	361.46
383.319	328.27
383.696	361.46
384.072	381.89
384.448	404.87
384.825	369.12
385.201	325.72
385.577	358.91
385.953	353.8
386.329	369.12
386.706	351.25
387.082	417.64
387.458	330.82
387.834	384.44
388.209	366.57
388.585	384.44
388.961	300.18
389.337	374.23
389.713	404.87
390.088	356.36
390.464	343.59
390.839	384.44
391.215	348.7
391.59	384.44
391.966	341.04
392.341	415.08
392.716	369.12
393.092	376.78
393.467	348.7
393.842	430.4
394.217	389.55
394.592	371.68
394.967	438.06
395.342	335.93
395.717	295.07
396.092	330.82
396.467	343.59
396.841	351.25
397.216	361.46
397.591	397.21
397.965	343.59
398.34	297.63
398.714	353.8
399.089	353.8
399.463	381.89
399.838	343.59
400.212	402.32
400.586	328.27
400.961	399.76
401.335	420.19
401.709	348.7
402.083	394.66
402.457	402.32
402.831	366.57
403.205	361.46
403.579	392.1
403.953	379.34
404.326	379.34
404.7	335.93
405.074	318.06
405.447	333.38
405.821	387
406.195	351.25
406.568	417.64
406.942	438.06
407.315	353.8
407.688	356.36
408.062	394.66
408.435	361.46
408.808	438.06
409.181	399.76
409.554	397.21
409.927	323.16
410.3	379.34
410.673	376.78
411.046	392.1
411.419	361.46
411.792	374.23
412.165	330.82
412.537	438.06
412.91	389.55
413.283	384.44
413.655	369.12
414.028	384.44
414.4	407.42
414.773	376.78
415.145	292.52
415.517	371.68
415.889	364.02
416.262	356.36
416.634	402.32
417.006	415.08
417.378	409.98
417.75	379.34
418.122	376.78
418.494	343.59
418.866	384.44
419.238	351.25
419.609	305.29
419.981	315.5
420.353	364.02
420.725	409.98
421.096	430.4
421.468	392.1
421.839	392.1
422.211	440.62
422.582	417.64
422.953	422.74
423.325	384.44
423.696	379.34
424.067	366.57
424.438	407.42
424.809	343.59
425.18	364.02
425.551	392.1
425.922	397.21
426.293	397.21
426.664	409.98
427.035	399.76
427.406	358.91
427.776	356.36
428.147	387
428.518	422.74
428.888	484.02
429.259	443.17
429.629	392.1
429.999	407.42
430.37	323.16
430.74	389.55
431.11	425.3
431.481	369.12
431.851	402.32
432.221	409.98
432.591	335.93
432.961	348.7
433.331	376.78
433.701	399.76
434.071	356.36
434.441	407.42
434.81	366.57
435.18	361.46
435.55	371.68
435.919	351.25
436.289	341.04
436.658	427.85
437.028	399.76
437.397	328.27
437.767	374.23
438.136	440.62
438.505	371.68
438.875	325.72
439.244	478.92
439.613	379.34
439.982	397.21
440.351	379.34
440.72	453.38
441.089	407.42
441.458	402.32
441.827	402.32
442.196	381.89
442.564	476.36
442.933	412.53
443.302	389.55
443.67	358.91
444.039	420.19
444.407	374.23
444.776	409.98
445.144	366.57
445.513	335.93
445.881	448.28
446.249	364.02
446.617	366.57
446.986	387
447.354	463.6
447.722	407.42
448.09	364.02
448.458	371.68
448.826	438.06
449.194	384.44
449.561	356.36
449.929	364.02
450.297	348.7
450.665	392.1
451.032	384.44
451.4	417.64
451.767	409.98
452.135	366.57
452.502	318.06
452.87	394.66
453.237	402.32
453.604	448.28
453.971	351.25
454.339	376.78
454.706	384.44
455.073	374.23
455.44	381.89
455.807	384.44
456.174	335.93
456.541	415.08
456.908	364.02
457.274	384.44
457.641	379.34
458.008	356.36
458.374	358.91
458.741	369.12
459.108	343.59
459.474	371.68
459.841	356.36
460.207	407.42
460.573	392.1
460.94	338.48
461.306	369.12
461.672	422.74
462.038	371.68
462.404	389.55
462.771	417.64
463.137	381.89
463.503	461.04
463.868	374.23
464.234	387
464.6	381.89
464.966	404.87
465.332	438.06
465.697	420.19
466.063	438.06
466.429	481.47
466.794	374.23
467.16	417.64
467.525	387
467.89	453.38
468.256	448.28
468.621	404.87
468.986	504.45
469.351	422.74
469.717	374.23
470.082	315.5
470.447	364.02
470.812	471.26
471.177	394.66
471.542	415.08
471.906	376.78
472.271	420.19
472.636	335.93
473.001	394.66
473.365	415.08
473.73	356.36
474.094	448.28
474.459	453.38
474.823	409.98
475.188	333.38
475.552	361.46
475.917	381.89
476.281	374.23
476.645	366.57
477.009	394.66
477.373	399.76
477.737	404.87
478.101	420.19
478.465	524.88
478.829	430.4
479.193	397.21
479.557	374.23
479.921	361.46
480.284	389.55
480.648	407.42
481.012	346.14
481.375	450.83
481.739	374.23
482.102	448.28
482.466	351.25
482.829	473.81
483.193	407.42
483.556	425.3
483.919	397.21
484.282	384.44
484.645	409.98
485.009	402.32
485.372	450.83
485.735	366.57
486.098	461.04
486.46	417.64
486.823	409.98
487.186	371.68
487.549	402.32
487.912	376.78
488.274	392.1
488.637	478.92
488.999	328.27
489.362	404.87
489.724	417.64
490.087	364.02
490.449	407.42
490.811	402.32
491.174	404.87
491.536	361.46
491.898	338.48
492.26	407.42
492.622	399.76
492.984	338.48
493.346	409.98
493.708	412.53
494.07	397.21
494.432	341.04
494.794	351.25
495.155	468.7
495.517	379.34
495.879	381.89
496.24	425.3
496.602	399.76
496.963	412.53
497.325	392.1
497.686	404.87
498.048	440.62
498.409	458.49
498.77	430.4
499.131	404.87
499.492	389.55
499.854	366.57
500.215	407.42
500.576	407.42
500.937	415.08
501.298	361.46
501.658	366.57
502.019	432.96
502.38	417.64
502.741	343.59
503.101	364.02
503.462	346.14
503.823	415.08
504.183	407.42
504.543	435.51
504.904	455.94
505.264	484.02
505.625	389.55
505.985	438.06
506.345	409.98
506.705	440.62
507.065	450.83
507.426	371.68
507.786	351.25
508.146	366.57
508.505	432.96
508.865	458.49
509.225	430.4
509.585	537.65
509.945	402.32
510.304	420.19
510.664	397.21
511.024	432.96
511.383	394.66
511.743	425.3
512.102	376.78
512.462	417.64
512.821	435.51
513.18	399.76
513.539	399.76
513.899	407.42
514.258	417.64
514.617	343.59
514.976	341.04
515.335	448.28
515.694	417.64
516.053	412.53
516.412	476.36
516.771	409.98
517.129	453.38
517.488	402.32
517.847	348.7
518.205	353.8
518.564	376.78
518.922	415.08
519.281	399.76
519.639	427.85
519.998	389.55
520.356	458.49
520.714	415.08
521.073	402.32
521.431	341.04
521.789	417.64
522.147	381.89
522.505	430.4
522.863	450.83
523.221	455.94
523.579	427.85
523.937	384.44
524.295	346.14
524.652	402.32
525.01	394.66
525.368	351.25
525.725	425.3
526.083	422.74
526.44	328.27
526.798	389.55
527.155	399.76
527.513	394.66
527.87	461.04
528.227	412.53
528.584	387
528.942	346.14
529.299	348.7
529.656	356.36
530.013	343.59
530.37	438.06
530.727	412.53
531.083	392.1
531.44	422.74
531.797	358.91
532.154	366.57
532.511	389.55
532.867	312.95
533.224	409.98
533.58	402.32
533.937	392.1
534.293	417.64
534.65	369.12
535.006	478.92
535.362	440.62
535.718	404.87
536.075	407.42
536.431	366.57
536.787	351.25
537.143	356.36
537.499	394.66
537.855	397.21
538.211	351.25
538.567	450.83
538.923	443.17
539.278	399.76
539.634	407.42
539.99	399.76
540.345	346.14
540.701	358.91
541.056	371.68
541.412	376.78
541.767	381.89
542.123	422.74
542.478	438.06
542.833	420.19
543.188	392.1
543.544	369.12
543.899	415.08
544.254	422.74
544.609	443.17
544.964	374.23
545.319	387
545.674	358.91
546.029	358.91
546.383	389.55
546.738	430.4
547.093	397.21
547.447	381.89
547.802	376.78
548.157	443.17
548.511	412.53
548.866	417.64
549.22	507.01
549.574	356.36
549.929	353.8
550.283	374.23
550.637	397.21
550.991	374.23
551.345	443.17
551.699	409.98
552.053	404.87
552.407	387
552.761	364.02
553.115	440.62
553.469	438.06
553.823	409.98
554.176	412.53
554.53	394.66
554.884	361.46
555.237	560.63
555.591	453.38
555.944	379.34
556.298	364.02
556.651	364.02
557.005	443.17
557.358	399.76
557.711	376.78
558.064	374.23
558.417	384.44
558.771	445.72
559.124	453.38
559.477	371.68
559.83	364.02
560.182	328.27
560.535	358.91
560.888	358.91
561.241	415.08
561.594	420.19
561.946	387
562.299	387
562.651	366.57
563.004	440.62
563.356	392.1
563.709	346.14
564.061	417.64
564.413	432.96
564.766	387
565.118	399.76
565.47	397.21
565.822	412.53
566.174	399.76
566.526	427.85
566.878	371.68
567.23	392.1
567.582	353.8
567.934	387
568.286	397.21
568.638	358.91
568.989	369.12
569.341	455.94
569.693	392.1
570.044	427.85
570.396	432.96
570.747	381.89
571.098	399.76
571.45	415.08
571.801	422.74
572.152	353.8
572.504	415.08
572.855	432.96
573.206	491.68
573.557	481.47
573.908	323.16
574.259	425.3
574.61	353.8
574.961	366.57
575.311	387
575.662	420.19
576.013	369.12
576.364	440.62
576.714	371.68
577.065	387
577.415	407.42
577.766	432.96
578.116	330.82
578.467	394.66
578.817	402.32
579.167	422.74
579.518	394.66
579.868	348.7
580.218	435.51
580.568	394.66
580.918	420.19
581.268	369.12
581.618	341.04
581.968	389.55
582.318	348.7
582.668	366.57
583.017	427.85
583.367	440.62
583.717	330.82
584.066	381.89
584.416	407.42
584.765	351.25
585.115	412.53
585.464	374.23
585.814	379.34
586.163	346.14
586.512	425.3
586.862	353.8
587.211	292.52
587.56	397.21
587.909	432.96
588.258	415.08
588.607	374.23
588.956	389.55
589.305	330.82
589.654	364.02
590.002	364.02
590.351	369.12
590.7	371.68
591.048	343.59
591.397	399.76
591.746	420.19
592.094	392.1
592.443	435.51
592.791	343.59
593.139	407.42
593.488	376.78
593.836	399.76
594.184	404.87
594.532	440.62
594.88	458.49
595.228	376.78
595.576	361.46
595.924	404.87
596.272	427.85
596.62	407.42
596.968	371.68
597.316	425.3
597.664	450.83
598.011	438.06
598.359	412.53
598.706	394.66
599.054	384.44
599.402	376.78
599.749	392.1
600.096	430.4
600.444	389.55
600.791	389.55
601.138	376.78
601.485	379.34
601.833	427.85
602.18	381.89
602.527	443.17
602.874	407.42
603.221	438.06
603.568	448.28
603.914	404.87
604.261	369.12
604.608	351.25
604.955	366.57
605.301	392.1
605.648	389.55
605.995	412.53
606.341	409.98
606.688	376.78
607.034	348.7
607.38	392.1
607.727	409.98
608.073	402.32
608.419	448.28
608.765	432.96
609.112	455.94
609.458	402.32
609.804	409.98
610.15	376.78
610.496	364.02
610.842	409.98
611.187	307.84
611.533	366.57
611.879	412.53
612.225	420.19
612.57	366.57
612.916	356.36
613.261	448.28
613.607	399.76
613.952	356.36
614.298	443.17
614.643	427.85
614.989	346.14
615.334	351.25
615.679	468.7
616.024	399.76
616.369	427.85
616.714	371.68
617.059	409.98
617.404	407.42
617.749	397.21
618.094	392.1
618.439	404.87
618.784	371.68
619.129	366.57
619.473	366.57
619.818	435.51
620.163	404.87
620.507	379.34
620.852	371.68
621.196	402.32
621.54	353.8
621.885	348.7
622.229	412.53
622.573	353.8
622.918	384.44
623.262	404.87
623.606	361.46
623.95	328.27
624.294	379.34
624.638	394.66
624.982	435.51
625.326	348.7
625.67	366.57
626.013	335.93
626.357	409.98
626.701	369.12
627.044	366.57
627.388	341.04
627.731	356.36
628.075	392.1
628.418	453.38
628.762	381.89
629.105	358.91
629.448	387
629.792	425.3
630.135	353.8
630.478	399.76
630.821	381.89
631.164	412.53
631.507	369.12
631.85	440.62
632.193	381.89
632.536	409.98
632.879	404.87
633.221	376.78
633.564	397.21
633.907	404.87
634.249	381.89
634.592	374.23
634.935	417.64
635.277	432.96
635.619	369.12
635.962	364.02
636.304	369.12
636.646	366.57
636.989	409.98
637.331	392.1
637.673	358.91
638.015	412.53
638.357	361.46
638.699	341.04
639.041	374.23
639.383	458.49
639.725	425.3
640.067	333.38
640.408	399.76
640.75	450.83
641.092	392.1
641.433	384.44
641.775	369.12
642.116	335.93
642.458	448.28
642.799	466.15
643.141	440.62
643.482	366.57
643.823	407.42
644.164	412.53
644.506	471.26
644.847	458.49
645.188	381.89
645.529	407.42
645.87	435.51
646.211	366.57
646.552	392.1
646.893	358.91
647.233	402.32
647.574	374.23
647.915	371.68
648.255	430.4
648.596	300.18
648.937	399.76
649.277	374.23
649.618	348.7
649.958	387
650.298	348.7
650.639	422.74
650.979	384.44
651.319	356.36
651.659	376.78
651.999	412.53
652.339	415.08
652.679	353.8
653.019	341.04
653.359	366.57
653.699	369.12
654.039	379.34
654.379	440.62
654.719	399.76
655.058	392.1
655.398	427.85
655.737	448.28
656.077	432.96
656.416	397.21
656.756	379.34
657.095	376.78
657.435	392.1
657.774	440.62
658.113	346.14
658.452	366.57
658.792	412.53
659.131	389.55
659.47	351.25
659.809	387
660.148	387
660.487	394.66
660.826	458.49
661.164	369.12
661.503	366.57
661.842	381.89
662.181	353.8
662.519	376.78
662.858	412.53
663.196	341.04
663.535	394.66
663.873	364.02
664.212	351.25
664.55	369.12
664.888	369.12
665.226	364.02
665.565	374.23
665.903	614.25
666.241	387
666.579	381.89
666.917	318.06
667.255	369.12
667.593	422.74
667.931	443.17
668.268	384.44
668.606	392.1
668.944	417.64
669.282	389.55
669.619	399.76
669.957	394.66
670.294	353.8
670.632	392.1
670.969	448.28
671.307	361.46
671.644	312.95
671.981	358.91
672.318	399.76
672.656	412.53
672.993	440.62
673.33	394.66
673.667	356.36
674.004	392.1
674.341	394.66
674.678	351.25
675.015	384.44
675.351	407.42
675.688	358.91
676.025	374.23
676.362	379.34
676.698	399.76
677.035	407.42
677.371	346.14
677.708	399.76
678.044	397.21
678.38	315.5
678.717	330.82
679.053	443.17
679.389	392.1
679.725	356.36
680.062	341.04
680.398	384.44
680.734	348.7
681.07	399.76
681.406	376.78
681.742	415.08
682.077	389.55
682.413	361.46
682.749	417.64
683.085	376.78
683.42	384.44
683.756	320.61
684.091	394.66
684.427	387
684.762	320.61
685.098	374.23
685.433	384.44
685.768	404.87
686.104	376.78
686.439	389.55
686.774	450.83
687.109	358.91
687.444	333.38
687.779	371.68
688.114	412.53
688.449	387
688.784	387
689.119	328.27
689.454	333.38
689.789	348.7
690.123	335.93
690.458	381.89
690.792	432.96
691.127	358.91
691.461	366.57
691.796	366.57
692.13	404.87
692.465	343.59
692.799	397.21
693.133	422.74
693.467	366.57
693.802	379.34
694.136	430.4
694.47	443.17
694.804	399.76
695.138	397.21
695.472	468.7
695.806	366.57
696.139	379.34
696.473	427.85
696.807	407.42
697.141	412.53
697.474	361.46
697.808	381.89
698.141	438.06
698.475	371.68
698.808	389.55
699.142	358.91
699.475	307.84
699.808	356.36
700.142	435.51
700.475	351.25
700.808	397.21
701.141	432.96
701.474	376.78
701.807	409.98
702.14	353.8
702.473	381.89
702.806	440.62
703.139	361.46
703.472	381.89
703.804	364.02
704.137	415.08
704.47	387
704.802	369.12
705.135	369.12
705.467	409.98
705.8	384.44
706.132	376.78
706.464	381.89
706.797	356.36
707.129	422.74
707.461	358.91
707.793	397.21
708.125	364.02
708.457	402.32
708.789	389.55
709.121	351.25
709.453	341.04
709.785	338.48
710.117	374.23
710.449	320.61
710.781	425.3
711.112	430.4
711.444	381.89
711.775	430.4
712.107	348.7
712.438	348.7
712.77	381.89
713.101	369.12
713.433	371.68
713.764	407.42
714.095	407.42
714.426	420.19
714.757	387
715.089	302.73
715.42	351.25
715.751	376.78
716.082	402.32
716.412	330.82
716.743	374.23
717.074	353.8
717.405	361.46
717.736	435.51
718.066	389.55
718.397	338.48
718.727	333.38
719.058	379.34
719.388	343.59
719.719	335.93
720.049	397.21
720.38	384.44
720.71	417.64
721.04	348.7
721.37	361.46
721.7	387
722.031	415.08
722.361	366.57
722.691	356.36
723.021	415.08
723.35	341.04
723.68	343.59
724.01	366.57
724.34	412.53
724.67	384.44
724.999	312.95
725.329	338.48
725.658	356.36
725.988	394.66
726.317	425.3
726.647	389.55
726.976	427.85
727.306	361.46
727.635	394.66
727.964	333.38
728.293	341.04
728.622	402.32
728.952	404.87
729.281	399.76
729.61	338.48
729.939	374.23
730.267	374.23
730.596	420.19
730.925	438.06
731.254	356.36
731.583	384.44
731.911	384.44
732.24	397.21
732.568	366.57
732.897	448.28
733.225	404.87
733.554	430.4
733.882	412.53
734.21	417.64
734.539	422.74
734.867	358.91
735.195	427.85
735.523	374.23
735.851	412.53
736.179	374.23
736.507	387
736.835	325.72
737.163	364.02
737.491	369.12
737.819	435.51
738.147	366.57
738.474	325.72
738.802	450.83
739.13	397.21
739.457	374.23
739.785	397.21
740.112	417.64
740.44	325.72
740.767	432.96
741.094	358.91
741.422	397.21
741.749	427.85
742.076	366.57
742.403	364.02
742.73	422.74
743.057	417.64
743.384	366.57
743.711	376.78
744.038	318.06
744.365	425.3
744.692	443.17
745.018	376.78
745.345	478.92
745.672	392.1
745.998	348.7
746.325	435.51
746.651	346.14
746.978	392.1
747.304	404.87
747.631	366.57
747.957	379.34
748.283	371.68
748.61	343.59
748.936	420.19
749.262	453.38
749.588	397.21
749.914	358.91
750.24	384.44
750.566	438.06
750.892	348.7
751.218	381.89
751.543	376.78
751.869	318.06
752.195	351.25
752.521	417.64
752.846	384.44
753.172	381.89
753.497	346.14
753.823	277.2
754.148	305.29
754.473	384.44
754.799	353.8
755.124	376.78
755.449	381.89
755.774	427.85
756.1	435.51
756.425	343.59
756.75	387
757.075	384.44
757.4	545.31
757.724	435.51
758.049	364.02
758.374	402.32
758.699	374.23
759.024	425.3
759.348	404.87
759.673	353.8
759.997	420.19
760.322	353.8
760.646	415.08
760.971	379.34
761.295	430.4
761.619	417.64
761.944	440.62
762.268	455.94
762.592	412.53
762.916	468.7
763.24	529.99
763.564	555.52
763.888	629.57
764.212	598.93
764.536	647.44
764.86	754.68
765.184	823.62
765.508	823.62
765.831	864.48
766.155	1068.75
766.478	872.14
766.802	762.34
767.126	808.3
767.449	772.56
767.772	782.77
768.096	711.28
768.419	624.46
768.742	581.05
769.066	598.93
769.389	614.25
769.712	604.03
770.035	657.65
770.358	724.04
770.681	874.69
771.004	1112.16
771.327	1244.93
771.65	1436.43
771.972	1633.04
772.295	1947.11
772.618	2312.24
772.941	2644.18
773.263	2886.75
773.586	3323.38
773.908	3683.41
774.231	3770.22
774.553	3793.2
774.875	3948.96
775.198	4025.56
775.52	3647.66
775.842	3420.41
776.164	3274.87
776.487	3172.73
776.809	3139.54
777.131	2853.56
777.453	2577.79
777.775	2350.54
778.096	2370.97
778.418	1957.32
778.74	1610.06
779.062	1262.81
779.384	1163.22
779.705	1025.34
780.027	935.97
780.348	956.4
780.67	1119.82
780.991	1367.49
781.313	1533.46
781.634	2059.46
781.955	2427.15
782.277	2917.39
782.598	3379.56
782.919	3920.87
783.24	4240.04
783.561	4914.14
783.882	5057.12
784.203	5498.86
784.524	5692.92
784.845	5759.3
785.166	6065.71
785.487	6806.19
785.807	6977.26
786.128	6905.77
786.449	6739.8
786.769	6479.36
787.09	6277.64
787.41	6668.31
787.731	6530.42
788.051	6525.32
788.372	6435.95
788.692	5971.23
789.012	5248.63
789.332	4434.1
789.653	4217.06
789.973	4002.58
790.293	3279.97
790.613	2363.31
790.933	1883.28
791.253	1592.19
791.573	1367.49
791.893	994.7
792.212	879.8
792.532	844.05
792.852	974.27
793.171	1188.76
793.491	1594.74
793.811	1990.52
794.13	2442.47
794.45	2784.62
794.769	3356.57
795.088	4125.14
795.408	4640.92
795.727	5897.19
796.046	7145.79
796.365	8259.06
796.684	8384.18
797.004	8320.34
797.323	9045.5
797.642	10082.17
797.96	9704.27
798.279	9257.43
798.598	9101.68
798.917	9219.13
799.236	8736.54
799.554	8598.66
799.873	7911.8
800.192	7424.11
800.51	7171.32
800.829	6650.43
801.147	5932.93
801.466	5138.83
801.784	5034.14
