Data from 2025-12-03_xpw_interference_micrometer_631_FLMS141361__16__566.txt Node

Date: Wed Dec 03 15:54:06 MST 2025
User: james
Spectrometer: FLMS14136
Trigger mode: 0
Integration Time (sec): 1.000000E-1
Scans to average: 1
Electric dark correction enabled: true
Nonlinearity correction enabled: false
Boxcar width: 0
XAxis mode: Wavelengths
Number of Pixels in Spectrum: 2048
>>>>>Begin Spectral Data<<<<<
339.315	-81.87
339.697	-81.87
340.079	-81.87
340.461	-89.53
340.843	-97.19
341.225	-107.4
341.607	-43.57
341.989	-122.72
342.371	-89.53
342.752	-23.14
343.134	-63.99
343.516	-46.12
343.897	-20.59
344.279	-18.03
344.661	30.48
345.042	40.69
345.423	68.78
345.805	107.08
346.186	114.74
346.567	66.23
346.949	107.08
347.33	163.26
347.711	170.92
348.092	181.13
348.473	160.7
348.854	216.88
349.235	214.32
349.616	199
349.997	270.5
350.378	270.5
350.758	273.05
351.139	306.25
351.52	324.12
351.9	293.48
352.281	344.55
352.661	341.99
353.042	341.99
353.422	296.03
353.803	352.21
354.183	331.78
354.563	410.93
354.943	421.15
355.324	428.81
355.704	390.51
356.084	359.87
356.464	339.44
356.844	334.33
357.224	382.85
357.603	405.83
357.983	339.44
358.363	426.25
358.743	403.27
359.122	410.93
359.502	393.06
359.882	329.23
360.261	439.02
360.641	405.83
361.02	390.51
361.399	298.59
361.779	375.19
362.158	347.1
362.537	326.67
362.916	329.23
363.296	395.61
363.675	352.21
364.054	326.67
364.433	326.67
364.812	339.44
365.19	382.85
365.569	405.83
365.948	362.42
366.327	270.5
366.705	298.59
367.084	370.08
367.463	336.89
367.841	308.8
368.22	303.69
368.598	308.8
368.977	390.51
369.355	398.17
369.733	349.65
370.111	275.61
370.49	319.01
370.868	359.87
371.246	341.99
371.624	354.76
372.002	362.42
372.38	319.01
372.758	364.97
373.136	364.97
373.513	341.99
373.891	354.76
374.269	324.12
374.646	306.25
375.024	372.63
375.402	313.91
375.779	290.93
376.157	377.74
376.534	413.49
376.911	319.01
377.289	398.17
377.666	324.12
378.043	367.53
378.42	370.08
378.797	359.87
379.175	357.31
379.552	331.78
379.929	311.35
380.305	385.4
380.682	385.4
381.059	357.31
381.436	359.87
381.813	364.97
382.189	367.53
382.566	357.31
382.943	362.42
383.319	380.29
383.696	428.81
384.072	301.14
384.448	352.21
384.825	359.87
385.201	334.33
385.577	336.89
385.953	339.44
386.329	380.29
386.706	319.01
387.082	382.85
387.458	336.89
387.834	405.83
388.209	354.76
388.585	293.48
388.961	359.87
389.337	413.49
389.713	321.57
390.088	357.31
390.464	347.1
390.839	370.08
391.215	380.29
391.59	329.23
391.966	336.89
392.341	357.31
392.716	385.4
393.092	349.65
393.467	380.29
393.842	341.99
394.217	347.1
394.592	341.99
394.967	370.08
395.342	354.76
395.717	441.57
396.092	372.63
396.467	390.51
396.841	364.97
397.216	382.85
397.591	339.44
397.965	370.08
398.34	319.01
398.714	362.42
399.089	416.04
399.463	390.51
399.838	359.87
400.212	319.01
400.586	380.29
400.961	341.99
401.335	359.87
401.709	380.29
402.083	349.65
402.457	349.65
402.831	436.47
403.205	405.83
403.579	395.61
403.953	416.04
404.326	354.76
404.7	413.49
405.074	372.63
405.447	347.1
405.821	296.03
406.195	362.42
406.568	375.19
406.942	416.04
407.315	413.49
407.688	336.89
408.062	385.4
408.435	393.06
408.808	398.17
409.181	395.61
409.554	387.95
409.927	357.31
410.3	364.97
410.673	367.53
411.046	372.63
411.419	382.85
411.792	413.49
412.165	357.31
412.537	336.89
412.91	308.8
413.283	319.01
413.655	375.19
414.028	341.99
414.4	387.95
414.773	354.76
415.145	385.4
415.517	408.38
415.889	303.69
416.262	408.38
416.634	347.1
417.006	398.17
417.378	336.89
417.75	362.42
418.122	418.59
418.494	377.74
418.866	418.59
419.238	403.27
419.609	390.51
419.981	403.27
420.353	311.35
420.725	280.71
421.096	364.97
421.468	462
421.839	416.04
422.211	344.55
422.582	421.15
422.953	357.31
423.325	390.51
423.696	387.95
424.067	387.95
424.438	313.91
424.809	377.74
425.18	395.61
425.551	347.1
425.922	362.42
426.293	387.95
426.664	408.38
427.035	423.7
427.406	423.7
427.776	380.29
428.147	331.78
428.518	408.38
428.888	364.97
429.259	349.65
429.629	354.76
429.999	380.29
430.37	439.02
430.74	428.81
431.11	354.76
431.481	382.85
431.851	421.15
432.221	398.17
432.591	393.06
432.961	357.31
433.331	416.04
433.701	313.91
434.071	352.21
434.441	364.97
434.81	398.17
435.18	367.53
435.55	341.99
435.919	462
436.289	398.17
436.658	382.85
437.028	423.7
437.397	375.19
437.767	395.61
438.136	352.21
438.505	431.36
438.875	334.33
439.244	403.27
439.613	352.21
439.982	308.8
440.351	405.83
440.72	418.59
441.089	380.29
441.458	416.04
441.827	380.29
442.196	362.42
442.564	469.66
442.933	426.25
443.302	433.91
443.67	410.93
444.039	400.72
444.407	377.74
444.776	408.38
445.144	487.54
445.513	405.83
445.881	400.72
446.249	408.38
446.617	372.63
446.986	326.67
447.354	367.53
447.722	436.47
448.09	413.49
448.458	410.93
448.826	413.49
449.194	449.23
449.561	418.59
449.929	390.51
450.297	375.19
450.665	405.83
451.032	423.7
451.4	367.53
451.767	462
452.135	362.42
452.502	393.06
452.87	400.72
453.237	362.42
453.604	364.97
453.971	400.72
454.339	446.68
454.706	349.65
455.073	400.72
455.44	367.53
455.807	370.08
456.174	393.06
456.541	421.15
456.908	441.57
457.274	382.85
457.641	390.51
458.008	385.4
458.374	375.19
458.741	395.61
459.108	405.83
459.474	395.61
459.841	393.06
460.207	357.31
460.573	382.85
460.94	377.74
461.306	398.17
461.672	441.57
462.038	449.23
462.404	380.29
462.771	372.63
463.137	387.95
463.503	436.47
463.868	387.95
464.234	364.97
464.6	421.15
464.966	357.31
465.332	387.95
465.697	408.38
466.063	362.42
466.429	308.8
466.794	362.42
467.16	398.17
467.525	408.38
467.89	370.08
468.256	416.04
468.621	390.51
468.986	423.7
469.351	336.89
469.717	375.19
470.082	408.38
470.447	349.65
470.812	385.4
471.177	367.53
471.542	362.42
471.906	341.99
472.271	426.25
472.636	413.49
473.001	398.17
473.365	385.4
473.73	410.93
474.094	382.85
474.459	451.79
474.823	433.91
475.188	454.34
475.552	431.36
475.917	446.68
476.281	405.83
476.645	400.72
477.009	405.83
477.373	364.97
477.737	382.85
478.101	403.27
478.465	410.93
478.829	387.95
479.193	387.95
479.557	375.19
479.921	370.08
480.284	375.19
480.648	367.53
481.012	413.49
481.375	347.1
481.739	395.61
482.102	341.99
482.466	372.63
482.829	436.47
483.193	459.45
483.556	428.81
483.919	421.15
484.282	431.36
484.645	398.17
485.009	367.53
485.372	449.23
485.735	395.61
486.098	329.23
486.46	393.06
486.823	372.63
487.186	393.06
487.549	403.27
487.912	359.87
488.274	395.61
488.637	436.47
488.999	456.9
489.362	416.04
489.724	405.83
490.087	336.89
490.449	423.7
490.811	367.53
491.174	403.27
491.536	403.27
491.898	393.06
492.26	380.29
492.622	377.74
492.984	349.65
493.346	380.29
493.708	395.61
494.07	390.51
494.432	433.91
494.794	380.29
495.155	385.4
495.517	377.74
495.879	426.25
496.24	370.08
496.602	349.65
496.963	393.06
497.325	428.81
497.686	449.23
498.048	385.4
498.409	390.51
498.77	395.61
499.131	454.34
499.492	479.88
499.854	403.27
500.215	467.11
500.576	393.06
500.937	364.97
501.298	367.53
501.658	436.47
502.019	408.38
502.38	416.04
502.741	403.27
503.101	484.98
503.462	464.56
503.823	393.06
504.183	413.49
504.543	410.93
504.904	421.15
505.264	349.65
505.625	400.72
505.985	451.79
506.345	400.72
506.705	467.11
507.065	390.51
507.426	329.23
507.786	400.72
508.146	380.29
508.505	454.34
508.865	441.57
509.225	467.11
509.585	451.79
509.945	416.04
510.304	446.68
510.664	390.51
511.024	413.49
511.383	329.23
511.743	357.31
512.102	418.59
512.462	364.97
512.821	416.04
513.18	344.55
513.539	398.17
513.899	336.89
514.258	428.81
514.617	423.7
514.976	398.17
515.335	439.02
515.694	352.21
516.053	398.17
516.412	354.76
516.771	408.38
517.129	423.7
517.488	395.61
517.847	352.21
518.205	367.53
518.564	418.59
518.922	410.93
519.281	403.27
519.639	421.15
519.998	423.7
520.356	372.63
520.714	344.55
521.073	395.61
521.431	436.47
521.789	467.11
522.147	416.04
522.505	382.85
522.863	449.23
523.221	357.31
523.579	377.74
523.937	367.53
524.295	395.61
524.652	413.49
525.01	403.27
525.368	469.66
525.725	413.49
526.083	341.99
526.44	416.04
526.798	405.83
527.155	433.91
527.513	390.51
527.87	354.76
528.227	336.89
528.584	413.49
528.942	400.72
529.299	441.57
529.656	275.61
530.013	377.74
530.37	451.79
530.727	395.61
531.083	426.25
531.44	393.06
531.797	428.81
532.154	385.4
532.511	433.91
532.867	372.63
533.224	364.97
533.58	459.45
533.937	459.45
534.293	344.55
534.65	421.15
535.006	398.17
535.362	372.63
535.718	347.1
536.075	331.78
536.431	344.55
536.787	382.85
537.143	390.51
537.499	464.56
537.855	410.93
538.211	428.81
538.567	426.25
538.923	436.47
539.278	385.4
539.634	385.4
539.99	408.38
540.345	439.02
540.701	403.27
541.056	377.74
541.412	362.42
541.767	413.49
542.123	377.74
542.478	390.51
542.833	387.95
543.188	421.15
543.544	462
543.899	423.7
544.254	441.57
544.609	444.13
544.964	426.25
545.319	462
545.674	416.04
546.029	441.57
546.383	431.36
546.738	423.7
547.093	385.4
547.447	439.02
547.802	375.19
548.157	405.83
548.511	370.08
548.866	449.23
549.22	444.13
549.574	357.31
549.929	347.1
550.283	344.55
550.637	341.99
550.991	370.08
551.345	418.59
551.699	433.91
552.053	439.02
552.407	364.97
552.761	349.65
553.115	357.31
553.469	441.57
553.823	382.85
554.176	449.23
554.53	421.15
554.884	464.56
555.237	686.7
555.591	400.72
555.944	459.45
556.298	380.29
556.651	426.25
557.005	390.51
557.358	380.29
557.711	408.38
558.064	339.44
558.417	403.27
558.771	513.07
559.124	497.75
559.477	449.23
559.83	431.36
560.182	446.68
560.535	477.32
560.888	367.53
561.241	474.77
561.594	426.25
561.946	357.31
562.299	306.25
562.651	367.53
563.004	370.08
563.356	377.74
563.709	433.91
564.061	387.95
564.413	454.34
564.766	431.36
565.118	336.89
565.47	385.4
565.822	398.17
566.174	446.68
566.526	339.44
566.878	423.7
567.23	403.27
567.582	387.95
567.934	439.02
568.286	375.19
568.638	390.51
568.989	421.15
569.341	387.95
569.693	377.74
570.044	454.34
570.396	405.83
570.747	410.93
571.098	459.45
571.45	413.49
571.801	400.72
572.152	382.85
572.504	385.4
572.855	418.59
573.206	380.29
573.557	400.72
573.908	456.9
574.259	372.63
574.61	393.06
574.961	390.51
575.311	462
575.662	433.91
576.013	319.01
576.364	359.87
576.714	380.29
577.065	426.25
577.415	410.93
577.766	446.68
578.116	416.04
578.467	410.93
578.817	403.27
579.167	380.29
579.518	398.17
579.868	382.85
580.218	380.29
580.568	370.08
580.918	375.19
581.268	321.57
581.618	375.19
581.968	364.97
582.318	456.9
582.668	393.06
583.017	375.19
583.367	449.23
583.717	428.81
584.066	387.95
584.416	364.97
584.765	331.78
585.115	377.74
585.464	433.91
585.814	316.46
586.163	387.95
586.512	400.72
586.862	393.06
587.211	421.15
587.56	418.59
587.909	449.23
588.258	400.72
588.607	431.36
588.956	395.61
589.305	382.85
589.654	367.53
590.002	400.72
590.351	441.57
590.7	357.31
591.048	405.83
591.397	382.85
591.746	385.4
592.094	405.83
592.443	454.34
592.791	367.53
593.139	370.08
593.488	413.49
593.836	418.59
594.184	405.83
594.532	362.42
594.88	462
595.228	451.79
595.576	393.06
595.924	367.53
596.272	349.65
596.62	385.4
596.968	364.97
597.316	370.08
597.664	382.85
598.011	385.4
598.359	428.81
598.706	433.91
599.054	446.68
599.402	364.97
599.749	347.1
600.096	408.38
600.444	405.83
600.791	403.27
601.138	428.81
601.485	347.1
601.833	423.7
602.18	357.31
602.527	370.08
602.874	393.06
603.221	418.59
603.568	380.29
603.914	449.23
604.261	390.51
604.608	364.97
604.955	490.09
605.301	431.36
605.648	387.95
605.995	410.93
606.341	398.17
606.688	377.74
607.034	416.04
607.38	372.63
607.727	354.76
608.073	357.31
608.419	423.7
608.765	418.59
609.112	405.83
609.458	347.1
609.804	387.95
610.15	421.15
610.496	326.67
610.842	367.53
611.187	408.38
611.533	433.91
611.879	410.93
612.225	474.77
612.57	418.59
612.916	398.17
613.261	426.25
613.607	380.29
613.952	359.87
614.298	428.81
614.643	382.85
614.989	444.13
615.334	364.97
615.679	344.55
616.024	459.45
616.369	446.68
616.714	405.83
617.059	331.78
617.404	418.59
617.749	423.7
618.094	357.31
618.439	347.1
618.784	390.51
619.129	372.63
619.473	329.23
619.818	372.63
620.163	393.06
620.507	431.36
620.852	400.72
621.196	359.87
621.54	370.08
621.885	364.97
622.229	344.55
622.573	416.04
622.918	416.04
623.262	400.72
623.606	321.57
623.95	316.46
624.294	408.38
624.638	372.63
624.982	344.55
625.326	400.72
625.67	413.49
626.013	449.23
626.357	456.9
626.701	423.7
627.044	451.79
627.388	395.61
627.731	347.1
628.075	326.67
628.418	426.25
628.762	416.04
629.105	418.59
629.448	444.13
629.792	403.27
630.135	433.91
630.478	408.38
630.821	352.21
631.164	400.72
631.507	313.91
631.85	380.29
632.193	398.17
632.536	375.19
632.879	400.72
633.221	367.53
633.564	446.68
633.907	382.85
634.249	357.31
634.592	410.93
634.935	367.53
635.277	352.21
635.619	441.57
635.962	296.03
636.304	364.97
636.646	398.17
636.989	359.87
637.331	431.36
637.673	423.7
638.015	321.57
638.357	418.59
638.699	395.61
639.041	364.97
639.383	385.4
639.725	472.22
640.067	439.02
640.408	347.1
640.75	357.31
641.092	326.67
641.433	395.61
641.775	428.81
642.116	433.91
642.458	413.49
642.799	433.91
643.141	398.17
643.482	449.23
643.823	349.65
644.164	400.72
644.506	492.64
644.847	382.85
645.188	403.27
645.529	416.04
645.87	410.93
646.211	349.65
646.552	400.72
646.893	385.4
647.233	403.27
647.574	375.19
647.915	395.61
648.255	451.79
648.596	459.45
648.937	395.61
649.277	377.74
649.618	423.7
649.958	390.51
650.298	372.63
650.639	403.27
650.979	362.42
651.319	395.61
651.659	359.87
651.999	349.65
652.339	416.04
652.679	364.97
653.019	372.63
653.359	405.83
653.699	395.61
654.039	444.13
654.379	423.7
654.719	405.83
655.058	393.06
655.398	398.17
655.737	405.83
656.077	416.04
656.416	439.02
656.756	410.93
657.095	413.49
657.435	444.13
657.774	423.7
658.113	367.53
658.452	324.12
658.792	400.72
659.131	354.76
659.47	385.4
659.809	367.53
660.148	362.42
660.487	385.4
660.826	387.95
661.164	387.95
661.503	377.74
661.842	390.51
662.181	347.1
662.519	347.1
662.858	352.21
663.196	408.38
663.535	380.29
663.873	398.17
664.212	382.85
664.55	410.93
664.888	484.98
665.226	385.4
665.565	393.06
665.903	584.56
666.241	395.61
666.579	375.19
666.917	357.31
667.255	319.01
667.593	359.87
667.931	377.74
668.268	377.74
668.606	382.85
668.944	416.04
669.282	462
669.619	377.74
669.957	367.53
670.294	364.97
670.632	377.74
670.969	339.44
671.307	382.85
671.644	433.91
671.981	428.81
672.318	423.7
672.656	400.72
672.993	416.04
673.33	354.76
673.667	398.17
674.004	319.01
674.341	400.72
674.678	423.7
675.015	444.13
675.351	387.95
675.688	390.51
676.025	344.55
676.362	364.97
676.698	410.93
677.035	403.27
677.371	477.32
677.708	403.27
678.044	439.02
678.38	390.51
678.717	400.72
679.053	382.85
679.389	441.57
679.725	418.59
680.062	395.61
680.398	375.19
680.734	410.93
681.07	390.51
681.406	352.21
681.742	382.85
682.077	341.99
682.413	364.97
682.749	329.23
683.085	416.04
683.42	451.79
683.756	324.12
684.091	387.95
684.427	359.87
684.762	316.46
685.098	344.55
685.433	341.99
685.768	382.85
686.104	364.97
686.439	403.27
686.774	408.38
687.109	451.79
687.444	359.87
687.779	403.27
688.114	339.44
688.449	433.91
688.784	451.79
689.119	416.04
689.454	364.97
689.789	380.29
690.123	313.91
690.458	380.29
690.792	413.49
691.127	413.49
691.461	344.55
691.796	377.74
692.13	436.47
692.465	395.61
692.799	426.25
693.133	423.7
693.467	357.31
693.802	367.53
694.136	382.85
694.47	331.78
694.804	426.25
695.138	382.85
695.472	418.59
695.806	426.25
696.139	375.19
696.473	382.85
696.807	349.65
697.141	326.67
697.474	377.74
697.808	382.85
698.141	354.76
698.475	380.29
698.808	382.85
699.142	393.06
699.475	380.29
699.808	367.53
700.142	375.19
700.475	431.36
700.808	385.4
701.141	344.55
701.474	377.74
701.807	301.14
702.14	344.55
702.473	418.59
702.806	403.27
703.139	347.1
703.472	319.01
703.804	352.21
704.137	393.06
704.47	375.19
704.802	382.85
705.135	405.83
705.467	395.61
705.8	359.87
706.132	387.95
706.464	462
706.797	377.74
707.129	393.06
707.461	410.93
707.793	387.95
708.125	354.76
708.457	387.95
708.789	380.29
709.121	380.29
709.453	347.1
709.785	357.31
710.117	398.17
710.449	375.19
710.781	421.15
711.112	408.38
711.444	382.85
711.775	352.21
712.107	357.31
712.438	462
712.77	367.53
713.101	364.97
713.433	395.61
713.764	382.85
714.095	410.93
714.426	433.91
714.757	377.74
715.089	408.38
715.42	380.29
715.751	380.29
716.082	370.08
716.412	352.21
716.743	377.74
717.074	390.51
717.405	390.51
717.736	385.4
718.066	451.79
718.397	387.95
718.727	400.72
719.058	436.47
719.388	418.59
719.719	334.33
720.049	382.85
720.38	405.83
720.71	413.49
721.04	372.63
721.37	393.06
721.7	410.93
722.031	321.57
722.361	431.36
722.691	416.04
723.021	390.51
723.35	410.93
723.68	416.04
724.01	410.93
724.34	449.23
724.67	364.97
724.999	395.61
725.329	408.38
725.658	400.72
725.988	352.21
726.317	372.63
726.647	336.89
726.976	382.85
727.306	339.44
727.635	405.83
727.964	349.65
728.293	459.45
728.622	390.51
728.952	364.97
729.281	377.74
729.61	426.25
729.939	393.06
730.267	395.61
730.596	367.53
730.925	387.95
731.254	357.31
731.583	431.36
731.911	387.95
732.24	413.49
732.568	418.59
732.897	423.7
733.225	380.29
733.554	393.06
733.882	421.15
734.21	408.38
734.539	456.9
734.867	324.12
735.195	416.04
735.523	410.93
735.851	423.7
736.179	423.7
736.507	387.95
736.835	403.27
737.163	390.51
737.491	364.97
737.819	334.33
738.147	382.85
738.474	354.76
738.802	400.72
739.13	398.17
739.457	403.27
739.785	462
740.112	382.85
740.44	405.83
740.767	372.63
741.094	364.97
741.422	349.65
741.749	319.01
742.076	362.42
742.403	385.4
742.73	423.7
743.057	431.36
743.384	390.51
743.711	339.44
744.038	377.74
744.365	385.4
744.692	446.68
745.018	359.87
745.345	354.76
745.672	377.74
745.998	433.91
746.325	413.49
746.651	390.51
746.978	347.1
747.304	341.99
747.631	390.51
747.957	426.25
748.283	370.08
748.61	403.27
748.936	324.12
749.262	339.44
749.588	413.49
749.914	416.04
750.24	375.19
750.566	321.57
750.892	395.61
751.218	359.87
751.543	454.34
751.869	341.99
752.195	421.15
752.521	408.38
752.846	456.9
753.172	405.83
753.497	370.08
753.823	370.08
754.148	423.7
754.473	357.31
754.799	357.31
755.124	364.97
755.449	426.25
755.774	416.04
756.1	367.53
756.425	357.31
756.75	418.59
757.075	387.95
757.4	495.2
757.724	398.17
758.049	387.95
758.374	454.34
758.699	408.38
759.024	441.57
759.348	387.95
759.673	423.7
759.997	441.57
760.322	382.85
760.646	390.51
760.971	372.63
761.295	370.08
761.619	400.72
761.944	421.15
762.268	462
762.592	467.11
762.916	528.39
763.24	507.96
763.564	569.24
763.888	620.31
764.212	673.93
764.536	770.96
764.86	786.28
765.184	878.2
765.508	878.2
765.831	816.92
766.155	1074.81
766.478	893.52
766.802	832.24
767.126	847.56
767.449	770.96
767.772	783.73
768.096	732.66
768.419	691.81
768.742	643.29
769.066	712.23
769.389	582.01
769.712	648.4
770.035	770.96
770.358	770.96
770.681	806.71
771.004	1082.47
771.327	1212.69
771.65	1360.79
771.972	1570.17
772.295	1991.48
772.618	2354.05
772.941	2634.93
773.263	2974.53
773.586	3508.18
773.908	3824.8
774.231	3863.1
774.553	3778.84
774.875	4128.65
775.198	4235.89
775.52	3924.38
775.842	3745.65
776.164	3513.29
776.487	3326.89
776.809	3191.56
777.131	2994.95
777.453	2946.44
777.775	2640.03
778.096	2466.4
778.418	2065.52
778.74	1748.9
779.062	1416.97
779.384	1233.12
779.705	1120.77
780.027	1100.35
780.348	1033.96
780.67	1113.11
780.991	1393.98
781.313	1603.36
781.634	1945.51
781.955	2336.18
782.277	2936.23
782.598	3474.99
782.919	3824.8
783.24	4307.39
783.561	4907.43
783.882	5425.77
784.203	5609.61
784.524	5803.67
784.845	6036.03
785.166	6390.95
785.487	7013.97
785.807	7330.59
786.128	7284.63
786.449	7185.05
786.769	6745.87
787.09	6730.54
787.41	6837.79
787.731	6676.92
788.051	6927.15
788.372	6692.24
788.692	6500.74
789.012	5977.3
789.332	4958.5
789.653	4532.09
789.973	4189.93
790.293	3526.06
790.613	2642.59
790.933	2172.77
791.253	1720.82
791.573	1529.31
791.893	1146.31
792.212	975.23
792.532	995.66
792.852	988
793.171	1251
793.491	1565.06
793.811	1922.53
794.13	2494.49
794.45	2849.41
794.769	3383.07
795.088	4138.87
795.408	4746.57
795.727	5895.59
796.046	7271.86
796.365	8331.51
796.684	8500.04
797.004	8517.91
797.323	9097.53
797.642	10315.49
797.96	9871.2
798.279	9444.79
798.598	9171.57
798.917	9411.59
799.236	9120.51
799.554	8765.59
799.873	8185.97
800.192	7690.61
800.51	7259.09
