Data from 2025-12-03_xpw_interference_micrometer_631_FLMS141361__65__615.txt Node

Date: Wed Dec 03 15:54:10 MST 2025
User: james
Spectrometer: FLMS14136
Trigger mode: 0
Integration Time (sec): 1.000000E-1
Scans to average: 1
Electric dark correction enabled: true
Nonlinearity correction enabled: false
Boxcar width: 0
XAxis mode: Wavelengths
Number of Pixels in Spectrum: 2048
>>>>>Begin Spectral Data<<<<<
339.315	-79.47
339.697	-79.47
340.079	-79.47
340.461	-105.01
340.843	-120.33
341.225	-115.22
341.607	-69.26
341.989	-79.47
342.371	-76.92
342.752	-64.15
343.134	-15.64
343.516	-2.87
343.897	-23.3
344.279	4.79
344.661	25.21
345.042	15
345.423	76.28
345.805	50.75
346.186	50.75
346.567	122.24
346.949	101.82
347.33	152.88
347.711	119.69
348.092	175.86
348.473	288.21
348.854	252.47
349.235	288.21
349.616	249.91
349.997	334.17
350.378	349.49
350.758	285.66
351.139	303.53
351.52	331.62
351.9	346.94
352.281	339.28
352.661	359.71
353.042	306.09
353.422	398.01
353.803	441.42
354.183	405.67
354.563	364.81
354.943	395.45
355.324	410.77
355.704	339.28
356.084	372.47
356.464	408.22
356.844	408.22
357.224	380.13
357.603	369.92
357.983	372.47
358.363	410.77
358.743	420.99
359.122	313.75
359.502	349.49
359.882	454.18
360.261	329.07
360.641	344.39
361.02	352.05
361.399	390.35
361.779	387.79
362.158	329.07
362.537	321.41
362.916	300.98
363.296	313.75
363.675	323.96
364.054	487.38
364.433	398.01
364.812	398.01
365.19	346.94
365.569	382.69
365.948	367.37
366.327	364.81
366.705	369.92
367.084	339.28
367.463	326.51
367.841	298.43
368.22	352.05
368.598	405.67
368.977	375.03
369.355	349.49
369.733	380.13
370.111	321.41
370.49	392.9
370.868	331.62
371.246	385.24
371.624	395.45
372.002	316.3
372.38	377.58
372.758	362.26
373.136	413.33
373.513	382.69
373.891	354.6
374.269	410.77
374.646	352.05
375.024	321.41
375.402	336.73
375.779	331.62
376.157	369.92
376.534	372.47
376.911	392.9
377.289	283.11
377.666	352.05
378.043	405.67
378.42	377.58
378.797	362.26
379.175	392.9
379.552	357.15
379.929	357.15
380.305	375.03
380.682	362.26
381.059	357.15
381.436	354.6
381.813	323.96
382.189	418.43
382.566	403.11
382.943	359.71
383.319	357.15
383.696	316.3
384.072	329.07
384.448	362.26
384.825	283.11
385.201	329.07
385.577	375.03
385.953	431.2
386.329	357.15
386.706	341.83
387.082	410.77
387.458	408.22
387.834	410.77
388.209	375.03
388.585	398.01
388.961	436.31
389.337	400.56
389.713	329.07
390.088	346.94
390.464	318.85
390.839	377.58
391.215	334.17
391.59	390.35
391.966	303.53
392.341	400.56
392.716	364.81
393.092	392.9
393.467	410.77
393.842	326.51
394.217	446.52
394.592	377.58
394.967	408.22
395.342	278
395.717	400.56
396.092	352.05
396.467	405.67
396.841	349.49
397.216	426.09
397.591	405.67
397.965	336.73
398.34	341.83
398.714	369.92
399.089	377.58
399.463	413.33
399.838	410.77
400.212	454.18
400.586	395.45
400.961	364.81
401.335	377.58
401.709	431.2
402.083	413.33
402.457	387.79
402.831	408.22
403.205	369.92
403.579	344.39
403.953	357.15
404.326	395.45
404.7	375.03
405.074	369.92
405.447	408.22
405.821	339.28
406.195	357.15
406.568	387.79
406.942	456.74
407.315	369.92
407.688	431.2
408.062	390.35
408.435	344.39
408.808	357.15
409.181	477.16
409.554	323.96
409.927	415.88
410.3	418.43
410.673	380.13
411.046	408.22
411.419	403.11
411.792	413.33
412.165	410.77
412.537	344.39
412.91	410.77
413.283	316.3
413.655	403.11
414.028	426.09
414.4	387.79
414.773	369.92
415.145	354.6
415.517	377.58
415.889	377.58
416.262	436.31
416.634	344.39
417.006	398.01
417.378	385.24
417.75	400.56
418.122	433.76
418.494	403.11
418.866	405.67
419.238	403.11
419.609	426.09
419.981	382.69
420.353	418.43
420.725	326.51
421.096	382.69
421.468	408.22
421.839	398.01
422.211	364.81
422.582	400.56
422.953	362.26
423.325	339.28
423.696	410.77
424.067	398.01
424.438	410.77
424.809	474.61
425.18	359.71
425.551	451.63
425.922	456.74
426.293	436.31
426.664	418.43
427.035	426.09
427.406	410.77
427.776	387.79
428.147	398.01
428.518	395.45
428.888	413.33
429.259	420.99
429.629	420.99
429.999	400.56
430.37	428.65
430.74	336.73
431.11	354.6
431.481	354.6
431.851	420.99
432.221	436.31
432.591	441.42
432.961	382.69
433.331	428.65
433.701	420.99
434.071	449.08
434.441	426.09
434.81	428.65
435.18	369.92
435.55	334.17
435.919	369.92
436.289	392.9
436.658	405.67
437.028	385.24
437.397	428.65
437.767	436.31
438.136	403.11
438.505	428.65
438.875	469.5
439.244	466.95
439.613	443.97
439.982	408.22
440.351	441.42
440.72	405.67
441.089	423.54
441.458	454.18
441.827	451.63
442.196	405.67
442.564	566.53
442.933	428.65
443.302	418.43
443.67	472.06
444.039	346.94
444.407	392.9
444.776	359.71
445.144	385.24
445.513	395.45
445.881	461.84
446.249	418.43
446.617	410.77
446.986	423.54
447.354	449.08
447.722	426.09
448.09	390.35
448.458	446.52
448.826	387.79
449.194	405.67
449.561	403.11
449.929	477.16
450.297	438.86
450.665	390.35
451.032	398.01
451.4	433.76
451.767	403.11
452.135	441.42
452.502	446.52
452.87	472.06
453.237	454.18
453.604	326.51
453.971	451.63
454.339	443.97
454.706	395.45
455.073	413.33
455.44	420.99
455.807	436.31
456.174	454.18
456.541	413.33
456.908	392.9
457.274	385.24
457.641	418.43
458.008	443.97
458.374	413.33
458.741	352.05
459.108	372.47
459.474	405.67
459.841	392.9
460.207	306.09
460.573	357.15
460.94	403.11
461.306	372.47
461.672	341.83
462.038	400.56
462.404	410.77
462.771	403.11
463.137	352.05
463.503	433.76
463.868	451.63
464.234	451.63
464.6	454.18
464.966	377.58
465.332	418.43
465.697	446.52
466.063	390.35
466.429	438.86
466.794	395.45
467.16	420.99
467.525	428.65
467.89	420.99
468.256	436.31
468.621	423.54
468.986	369.92
469.351	426.09
469.717	487.38
470.082	413.33
470.447	352.05
470.812	349.49
471.177	403.11
471.542	413.33
471.906	403.11
472.271	382.69
472.636	441.42
473.001	306.09
473.365	377.58
473.73	428.65
474.094	367.37
474.459	451.63
474.823	380.13
475.188	410.77
475.552	390.35
475.917	395.45
476.281	395.45
476.645	415.88
477.009	431.2
477.373	329.07
477.737	367.37
478.101	382.69
478.465	428.65
478.829	436.31
479.193	451.63
479.557	441.42
479.921	423.54
480.284	410.77
480.648	362.26
481.012	395.45
481.375	477.16
481.739	398.01
482.102	380.13
482.466	428.65
482.829	418.43
483.193	438.86
483.556	380.13
483.919	456.74
484.282	334.17
484.645	354.6
485.009	497.59
485.372	466.95
485.735	413.33
486.098	423.54
486.46	377.58
486.823	362.26
487.186	423.54
487.549	387.79
487.912	428.65
488.274	400.56
488.637	413.33
488.999	398.01
489.362	466.95
489.724	446.52
490.087	446.52
490.449	362.26
490.811	461.84
491.174	408.22
491.536	459.29
491.898	392.9
492.26	423.54
492.622	405.67
492.984	369.92
493.346	359.71
493.708	500.14
494.07	387.79
494.432	382.69
494.794	441.42
495.155	420.99
495.517	461.84
495.879	456.74
496.24	413.33
496.602	446.52
496.963	380.13
497.325	385.24
497.686	357.15
498.048	403.11
498.409	418.43
498.77	446.52
499.131	403.11
499.492	385.24
499.854	443.97
500.215	426.09
500.576	423.54
500.937	392.9
501.298	413.33
501.658	352.05
502.019	418.43
502.38	392.9
502.741	408.22
503.101	449.08
503.462	443.97
503.823	354.6
504.183	443.97
504.543	385.24
504.904	415.88
505.264	377.58
505.625	433.76
505.985	423.54
506.345	443.97
506.705	454.18
507.065	472.06
507.426	372.47
507.786	428.65
508.146	438.86
508.505	530.78
508.865	431.2
509.225	438.86
509.585	461.84
509.945	426.09
510.304	492.48
510.664	395.45
511.024	359.71
511.383	369.92
511.743	392.9
512.102	446.52
512.462	479.72
512.821	410.77
513.18	385.24
513.539	479.72
513.899	428.65
514.258	456.74
514.617	451.63
514.976	413.33
515.335	472.06
515.694	395.45
516.053	387.79
516.412	323.96
516.771	367.37
517.129	472.06
517.488	428.65
517.847	426.09
518.205	438.86
518.564	415.88
518.922	466.95
519.281	420.99
519.639	418.43
519.998	426.09
520.356	387.79
520.714	464.4
521.073	410.77
521.431	400.56
521.789	418.43
522.147	390.35
522.505	469.5
522.863	395.45
523.221	415.88
523.579	456.74
523.937	415.88
524.295	415.88
524.652	413.33
525.01	449.08
525.368	433.76
525.725	474.61
526.083	418.43
526.44	372.47
526.798	400.56
527.155	398.01
527.513	433.76
527.87	441.42
528.227	377.58
528.584	415.88
528.942	415.88
529.299	489.93
529.656	395.45
530.013	390.35
530.37	377.58
530.727	331.62
531.083	415.88
531.44	443.97
531.797	420.99
532.154	451.63
532.511	428.65
532.867	454.18
533.224	438.86
533.58	420.99
533.937	380.13
534.293	420.99
534.65	454.18
535.006	441.42
535.362	420.99
535.718	380.13
536.075	410.77
536.431	449.08
536.787	405.67
537.143	482.27
537.499	431.2
537.855	364.81
538.211	400.56
538.567	449.08
538.923	375.03
539.278	334.17
539.634	392.9
539.99	415.88
540.345	415.88
540.701	413.33
541.056	418.43
541.412	438.86
541.767	382.69
542.123	387.79
542.478	433.76
542.833	451.63
543.188	431.2
543.544	433.76
543.899	380.13
544.254	408.22
544.609	466.95
544.964	492.48
545.319	469.5
545.674	410.77
546.029	441.42
546.383	398.01
546.738	451.63
547.093	405.67
547.447	466.95
547.802	359.71
548.157	410.77
548.511	369.92
548.866	392.9
549.22	454.18
549.574	431.2
549.929	431.2
550.283	487.38
550.637	454.18
550.991	418.43
551.345	441.42
551.699	410.77
552.053	387.79
552.407	438.86
552.761	451.63
553.115	359.71
553.469	456.74
553.823	461.84
554.176	410.77
554.53	420.99
554.884	456.74
555.237	627.81
555.591	461.84
555.944	436.31
556.298	375.03
556.651	403.11
557.005	454.18
557.358	420.99
557.711	433.76
558.064	387.79
558.417	403.11
558.771	489.93
559.124	466.95
559.477	454.18
559.83	390.35
560.182	346.94
560.535	451.63
560.888	510.36
561.241	413.33
561.594	482.27
561.946	472.06
562.299	466.95
562.651	456.74
563.004	423.54
563.356	461.84
563.709	390.35
564.061	398.01
564.413	331.62
564.766	398.01
565.118	385.24
565.47	431.2
565.822	466.95
566.174	372.47
566.526	405.67
566.878	423.54
567.23	369.92
567.582	367.37
567.934	392.9
568.286	474.61
568.638	377.58
568.989	446.52
569.341	420.99
569.693	418.43
570.044	438.86
570.396	405.67
570.747	372.47
571.098	405.67
571.45	487.38
571.801	426.09
572.152	464.4
572.504	346.94
572.855	382.69
573.206	423.54
573.557	433.76
573.908	398.01
574.259	477.16
574.61	377.58
574.961	362.26
575.311	484.82
575.662	441.42
576.013	403.11
576.364	400.56
576.714	438.86
577.065	443.97
577.415	451.63
577.766	413.33
578.116	405.67
578.467	354.6
578.817	443.97
579.167	451.63
579.518	449.08
579.868	418.43
580.218	443.97
580.568	510.36
580.918	431.2
581.268	415.88
581.618	456.74
581.968	408.22
582.318	446.52
582.668	426.09
583.017	418.43
583.367	469.5
583.717	451.63
584.066	382.69
584.416	418.43
584.765	390.35
585.115	410.77
585.464	415.88
585.814	459.29
586.163	446.52
586.512	441.42
586.862	466.95
587.211	372.47
587.56	415.88
587.909	382.69
588.258	461.84
588.607	408.22
588.956	418.43
589.305	413.33
589.654	428.65
590.002	451.63
590.351	400.56
590.7	359.71
591.048	403.11
591.397	436.31
591.746	405.67
592.094	410.77
592.443	461.84
592.791	464.4
593.139	484.82
593.488	377.58
593.836	344.39
594.184	385.24
594.532	403.11
594.88	541
595.228	395.45
595.576	357.15
595.924	403.11
596.272	423.54
596.62	395.45
596.968	382.69
597.316	451.63
597.664	377.58
598.011	372.47
598.359	306.09
598.706	403.11
599.054	344.39
599.402	405.67
599.749	392.9
600.096	436.31
600.444	357.15
600.791	403.11
601.138	357.15
601.485	428.65
601.833	387.79
602.18	477.16
602.527	392.9
602.874	410.77
603.221	385.24
603.568	395.45
603.914	408.22
604.261	382.69
604.608	380.13
604.955	382.69
605.301	464.4
605.648	461.84
605.995	479.72
606.341	395.45
606.688	398.01
607.034	403.11
607.38	441.42
607.727	441.42
608.073	454.18
608.419	410.77
608.765	362.26
609.112	410.77
609.458	487.38
609.804	392.9
610.15	334.17
610.496	428.65
610.842	390.35
611.187	346.94
611.533	428.65
611.879	398.01
612.225	385.24
612.57	395.45
612.916	420.99
613.261	390.35
613.607	323.96
613.952	387.79
614.298	438.86
614.643	395.45
614.989	385.24
615.334	479.72
615.679	369.92
616.024	512.91
616.369	382.69
616.714	392.9
617.059	395.45
617.404	472.06
617.749	375.03
618.094	464.4
618.439	433.76
618.784	443.97
619.129	349.49
619.473	336.73
619.818	372.47
620.163	433.76
620.507	428.65
620.852	385.24
621.196	380.13
621.54	367.37
621.885	377.58
622.229	359.71
622.573	464.4
622.918	380.13
623.262	446.52
623.606	426.09
623.95	426.09
624.294	413.33
624.638	436.31
624.982	454.18
625.326	459.29
625.67	377.58
626.013	433.76
626.357	418.43
626.701	484.82
627.044	426.09
627.388	461.84
627.731	372.47
628.075	380.13
628.418	387.79
628.762	433.76
629.105	420.99
629.448	321.41
629.792	400.56
630.135	354.6
630.478	428.65
630.821	436.31
631.164	377.58
631.507	415.88
631.85	336.73
632.193	359.71
632.536	387.79
632.879	334.17
633.221	382.69
633.564	380.13
633.907	369.92
634.249	436.31
634.592	387.79
634.935	408.22
635.277	410.77
635.619	415.88
635.962	336.73
636.304	451.63
636.646	431.2
636.989	385.24
637.331	392.9
637.673	477.16
638.015	415.88
638.357	405.67
638.699	372.47
639.041	443.97
639.383	433.76
639.725	387.79
640.067	423.54
640.408	484.82
640.75	392.9
641.092	408.22
641.433	364.81
641.775	418.43
642.116	326.51
642.458	398.01
642.799	364.81
643.141	382.69
643.482	441.42
643.823	349.49
644.164	426.09
644.506	484.82
644.847	413.33
645.188	466.95
645.529	431.2
645.87	387.79
646.211	398.01
646.552	377.58
646.893	418.43
647.233	456.74
647.574	451.63
647.915	390.35
648.255	375.03
648.596	405.67
648.937	418.43
649.277	323.96
649.618	380.13
649.958	382.69
650.298	372.47
650.639	446.52
650.979	408.22
651.319	436.31
651.659	367.37
651.999	403.11
652.339	454.18
652.679	390.35
653.019	382.69
653.359	446.52
653.699	443.97
654.039	428.65
654.379	369.92
654.719	392.9
655.058	377.58
655.398	387.79
655.737	502.7
656.077	456.74
656.416	408.22
656.756	410.77
657.095	354.6
657.435	415.88
657.774	377.58
658.113	364.81
658.452	415.88
658.792	428.65
659.131	311.19
659.47	395.45
659.809	316.3
660.148	408.22
660.487	420.99
660.826	377.58
661.164	423.54
661.503	364.81
661.842	364.81
662.181	380.13
662.519	451.63
662.858	449.08
663.196	403.11
663.535	392.9
663.873	461.84
664.212	420.99
664.55	380.13
664.888	423.54
665.226	449.08
665.565	390.35
665.903	543.55
666.241	472.06
666.579	408.22
666.917	390.35
667.255	359.71
667.593	364.81
667.931	436.31
668.268	410.77
668.606	395.45
668.944	385.24
669.282	433.76
669.619	443.97
669.957	395.45
670.294	403.11
670.632	372.47
670.969	362.26
671.307	449.08
671.644	454.18
671.981	403.11
672.318	433.76
672.656	387.79
672.993	369.92
673.33	331.62
673.667	398.01
674.004	418.43
674.341	431.2
674.678	410.77
675.015	392.9
675.351	405.67
675.688	431.2
676.025	410.77
676.362	431.2
676.698	403.11
677.035	387.79
677.371	472.06
677.708	461.84
678.044	461.84
678.38	428.65
678.717	456.74
679.053	339.28
679.389	369.92
679.725	395.45
680.062	385.24
680.398	372.47
680.734	380.13
681.07	400.56
681.406	418.43
681.742	352.05
682.077	377.58
682.413	334.17
682.749	385.24
683.085	380.13
683.42	382.69
683.756	385.24
684.091	362.26
684.427	418.43
684.762	431.2
685.098	423.54
685.433	398.01
685.768	408.22
686.104	426.09
686.439	431.2
686.774	408.22
687.109	431.2
687.444	456.74
687.779	372.47
688.114	415.88
688.449	354.6
688.784	385.24
689.119	341.83
689.454	377.58
689.789	362.26
690.123	387.79
690.458	459.29
690.792	438.86
691.127	410.77
691.461	413.33
691.796	375.03
692.13	385.24
692.465	339.28
692.799	420.99
693.133	387.79
693.467	428.65
693.802	428.65
694.136	369.92
694.47	334.17
694.804	405.67
695.138	405.67
695.472	385.24
695.806	431.2
696.139	326.51
696.473	346.94
696.807	403.11
697.141	387.79
697.474	446.52
697.808	400.56
698.141	375.03
698.475	398.01
698.808	344.39
699.142	372.47
699.475	426.09
699.808	403.11
700.142	426.09
700.475	382.69
700.808	346.94
701.141	387.79
701.474	459.29
701.807	423.54
702.14	464.4
702.473	446.52
702.806	431.2
703.139	415.88
703.472	443.97
703.804	423.54
704.137	362.26
704.47	400.56
704.802	413.33
705.135	443.97
705.467	433.76
705.8	392.9
706.132	395.45
706.464	449.08
706.797	382.69
707.129	418.43
707.461	346.94
707.793	377.58
708.125	395.45
708.457	454.18
708.789	436.31
709.121	395.45
709.453	446.52
709.785	382.69
710.117	413.33
710.449	387.79
710.781	367.37
711.112	372.47
711.444	377.58
711.775	362.26
712.107	400.56
712.438	369.92
712.77	423.54
713.101	349.49
713.433	387.79
713.764	375.03
714.095	400.56
714.426	403.11
714.757	329.07
715.089	375.03
715.42	464.4
715.751	426.09
716.082	403.11
716.412	390.35
716.743	377.58
717.074	449.08
717.405	438.86
717.736	392.9
718.066	364.81
718.397	431.2
718.727	441.42
719.058	395.45
719.388	382.69
719.719	408.22
720.049	339.28
720.38	410.77
720.71	346.94
721.04	357.15
721.37	369.92
721.7	344.39
722.031	344.39
722.361	395.45
722.691	380.13
723.021	344.39
723.35	367.37
723.68	403.11
724.01	474.61
724.34	395.45
724.67	367.37
724.999	354.6
725.329	454.18
725.658	398.01
725.988	382.69
726.317	390.35
726.647	464.4
726.976	387.79
727.306	426.09
727.635	423.54
727.964	420.99
728.293	408.22
728.622	380.13
728.952	362.26
729.281	454.18
729.61	415.88
729.939	334.17
730.267	400.56
730.596	423.54
730.925	413.33
731.254	469.5
731.583	392.9
731.911	375.03
732.24	408.22
732.568	438.86
732.897	420.99
733.225	398.01
733.554	403.11
733.882	466.95
734.21	415.88
734.539	405.67
734.867	451.63
735.195	428.65
735.523	474.61
735.851	392.9
736.179	311.19
736.507	385.24
736.835	385.24
737.163	418.43
737.491	454.18
737.819	336.73
738.147	377.58
738.474	367.37
738.802	420.99
739.13	387.79
739.457	431.2
739.785	415.88
740.112	415.88
740.44	359.71
740.767	323.96
741.094	375.03
741.422	423.54
741.749	398.01
742.076	436.31
742.403	443.97
742.73	357.15
743.057	403.11
743.384	364.81
743.711	377.58
744.038	398.01
744.365	466.95
744.692	336.73
745.018	392.9
745.345	369.92
745.672	364.81
745.998	367.37
746.325	431.2
746.651	367.37
746.978	415.88
747.304	454.18
747.631	339.28
747.957	369.92
748.283	451.63
748.61	392.9
748.936	392.9
749.262	441.42
749.588	431.2
749.914	349.49
750.24	326.51
750.566	438.86
750.892	349.49
751.218	375.03
751.543	400.56
751.869	369.92
752.195	375.03
752.521	395.45
752.846	382.69
753.172	415.88
753.497	482.27
753.823	372.47
754.148	403.11
754.473	403.11
754.799	418.43
755.124	426.09
755.449	403.11
755.774	515.46
756.1	372.47
756.425	451.63
756.75	403.11
757.075	341.83
757.4	520.57
757.724	449.08
758.049	441.42
758.374	382.69
758.699	377.58
759.024	441.42
759.348	451.63
759.673	364.81
759.997	403.11
760.322	390.35
760.646	405.67
760.971	472.06
761.295	449.08
761.619	413.33
761.944	487.38
762.268	479.72
762.592	431.2
762.916	518.02
763.24	592.06
763.564	525.68
763.888	645.69
764.212	706.97
764.536	755.48
764.86	844.85
765.184	801.44
765.508	844.85
765.831	788.67
766.155	1095.08
766.478	934.22
766.802	832.08
767.126	862.72
767.449	778.46
767.772	758.03
768.096	750.37
768.419	673.77
768.742	653.35
769.066	650.79
769.389	574.19
769.712	658.45
770.035	604.83
770.358	758.03
770.681	872.94
771.004	1008.27
771.327	1153.81
771.65	1406.59
771.972	1610.86
772.295	1904.5
772.618	2190.48
772.941	2530.08
773.263	2844.14
773.586	3390.57
773.908	3497.81
774.231	3661.22
774.553	3712.29
774.875	3865.5
775.198	4108.07
775.52	3748.04
775.842	3707.19
776.164	3247.58
776.487	3125.02
776.809	3040.75
777.131	2897.76
777.453	2708.81
777.775	2473.9
778.096	2376.88
778.418	2042.38
778.74	1644.06
779.062	1370.84
779.384	1212.54
779.705	1082.31
780.027	972.52
780.348	992.94
780.67	1130.83
780.991	1215.09
781.313	1483.19
781.634	1937.69
781.955	2238.99
782.277	2731.8
782.598	3193.96
782.919	3582.07
783.24	4095.3
783.561	4618.74
783.882	4927.7
784.203	5203.47
784.524	5320.92
784.845	5461.36
785.166	5864.79
785.487	6556.76
785.807	6832.52
786.128	6543.99
786.449	6510.79
786.769	6201.84
787.09	6344.83
787.41	6452.07
787.731	6469.94
788.051	6475.05
788.372	6446.96
788.692	6079.27
789.012	5566.04
789.332	4529.37
789.653	4322.55
789.973	3888.48
790.293	3296.09
790.613	2509.65
790.933	2062.81
791.253	1692.57
791.573	1378.5
791.893	1072.1
792.212	924
792.532	901.02
792.852	903.58
793.171	1151.25
793.491	1549.58
793.811	1858.54
794.13	2254.31
794.45	2501.99
794.769	3222.04
795.088	3635.69
795.408	4205.09
795.727	5448.59
796.046	6732.94
796.365	7838.55
796.684	7815.57
797.004	7818.12
797.323	8589.24
797.642	9546.76
797.96	9033.53
798.279	8898.2
798.598	8808.83
798.917	8836.92
799.236	8476.9
799.554	8221.56
799.873	7790.04
