Data from 2025-12-03_xpw_interference_micrometer_631_FLMS141361__66__616.txt Node

Date: Wed Dec 03 15:54:11 MST 2025
User: james
Spectrometer: FLMS14136
Trigger mode: 0
Integration Time (sec): 1.000000E-1
Scans to average: 1
Electric dark correction enabled: true
Nonlinearity correction enabled: false
Boxcar width: 0
XAxis mode: Wavelengths
Number of Pixels in Spectrum: 2048
>>>>>Begin Spectral Data<<<<<
339.315	-47.88
339.697	-47.88
340.079	-47.88
340.461	-91.28
340.843	-55.54
341.225	-111.71
341.607	-144.9
341.989	-96.39
342.371	-106.6
342.752	-98.94
343.134	-24.9
343.516	79.79
343.897	3.19
344.279	33.83
344.661	-24.9
345.042	44.05
345.423	54.26
345.805	77.24
346.186	118.09
346.567	64.47
346.949	133.41
347.33	143.63
347.711	187.03
348.092	156.39
348.473	199.8
348.854	189.59
349.235	220.23
349.616	322.36
349.997	296.83
350.378	314.7
350.758	340.24
351.139	360.66
351.52	335.13
351.9	301.94
352.281	324.92
352.661	317.26
353.042	363.22
353.422	365.77
353.803	416.84
354.183	355.56
354.563	358.11
354.943	416.84
355.324	370.88
355.704	360.66
356.084	447.48
356.464	404.07
356.844	401.52
357.224	317.26
357.603	347.9
357.983	447.48
358.363	411.73
358.743	363.22
359.122	388.75
359.502	404.07
359.882	396.41
360.261	368.32
360.641	391.31
361.02	429.61
361.399	457.69
361.779	355.56
362.158	398.97
362.537	353
362.916	337.68
363.296	355.56
363.675	442.37
364.054	353
364.433	294.28
364.812	347.9
365.19	335.13
365.569	296.83
365.948	289.17
366.327	299.38
366.705	353
367.084	330.02
367.463	276.4
367.841	388.75
368.22	404.07
368.598	324.92
368.977	398.97
369.355	337.68
369.733	337.68
370.111	350.45
370.49	365.77
370.868	332.58
371.246	266.19
371.624	388.75
372.002	337.68
372.38	350.45
372.758	406.63
373.136	393.86
373.513	363.22
373.891	358.11
374.269	414.29
374.646	319.81
375.024	278.96
375.402	345.34
375.779	332.58
376.157	360.66
376.534	358.11
376.911	296.83
377.289	375.98
377.666	309.6
378.043	368.32
378.42	363.22
378.797	388.75
379.175	340.24
379.552	342.79
379.929	398.97
380.305	319.81
380.682	404.07
381.059	358.11
381.436	452.59
381.813	368.32
382.189	358.11
382.566	416.84
382.943	398.97
383.319	322.36
383.696	342.79
384.072	347.9
384.448	355.56
384.825	358.11
385.201	360.66
385.577	381.09
385.953	363.22
386.329	335.13
386.706	393.86
387.082	373.43
387.458	363.22
387.834	345.34
388.209	386.2
388.585	273.85
388.961	447.48
389.337	375.98
389.713	396.41
390.088	370.88
390.464	457.69
390.839	401.52
391.215	375.98
391.59	421.95
391.966	434.71
392.341	396.41
392.716	332.58
393.092	360.66
393.467	312.15
393.842	289.17
394.217	350.45
394.592	370.88
394.967	398.97
395.342	416.84
395.717	363.22
396.092	332.58
396.467	322.36
396.841	342.79
397.216	447.48
397.591	457.69
397.965	365.77
398.34	391.31
398.714	386.2
399.089	370.88
399.463	360.66
399.838	360.66
400.212	368.32
400.586	386.2
400.961	439.82
401.335	409.18
401.709	383.65
402.083	358.11
402.457	467.91
402.831	358.11
403.205	301.94
403.579	391.31
403.953	368.32
404.326	340.24
404.7	342.79
405.074	365.77
405.447	383.65
405.821	393.86
406.195	424.5
406.568	411.73
406.942	396.41
407.315	421.95
407.688	447.48
408.062	370.88
408.435	353
408.808	401.52
409.181	434.71
409.554	375.98
409.927	312.15
410.3	335.13
410.673	388.75
411.046	391.31
411.419	442.37
411.792	350.45
412.165	355.56
412.537	419.39
412.91	398.97
413.283	398.97
413.655	409.18
414.028	406.63
414.4	363.22
414.773	398.97
415.145	424.5
415.517	388.75
415.889	319.81
416.262	401.52
416.634	429.61
417.006	401.52
417.378	429.61
417.75	342.79
418.122	378.54
418.494	444.93
418.866	398.97
419.238	470.46
419.609	401.52
419.981	373.43
420.353	350.45
420.725	373.43
421.096	434.71
421.468	358.11
421.839	365.77
422.211	347.9
422.582	360.66
422.953	375.98
423.325	495.99
423.696	411.73
424.067	322.36
424.438	388.75
424.809	396.41
425.18	416.84
425.551	363.22
425.922	370.88
426.293	363.22
426.664	411.73
427.035	473.01
427.406	396.41
427.776	358.11
428.147	401.52
428.518	363.22
428.888	337.68
429.259	375.98
429.629	312.15
429.999	271.3
430.37	442.37
430.74	353
431.11	365.77
431.481	350.45
431.851	437.27
432.221	414.29
432.591	381.09
432.961	421.95
433.331	404.07
433.701	411.73
434.071	411.73
434.441	424.5
434.81	450.03
435.18	416.84
435.55	393.86
435.919	363.22
436.289	406.63
436.658	393.86
437.028	447.48
437.397	462.8
437.767	365.77
438.136	442.37
438.505	360.66
438.875	416.84
439.244	404.07
439.613	406.63
439.982	373.43
440.351	424.5
440.72	396.41
441.089	401.52
441.458	396.41
441.827	386.2
442.196	365.77
442.564	437.27
442.933	383.65
443.302	350.45
443.67	324.92
444.039	391.31
444.407	437.27
444.776	375.98
445.144	404.07
445.513	391.31
445.881	444.93
446.249	381.09
446.617	447.48
446.986	416.84
447.354	429.61
447.722	340.24
448.09	332.58
448.458	416.84
448.826	488.33
449.194	429.61
449.561	393.86
449.929	345.34
450.297	319.81
450.665	386.2
451.032	475.57
451.4	381.09
451.767	396.41
452.135	337.68
452.502	452.59
452.87	447.48
453.237	398.97
453.604	391.31
453.971	404.07
454.339	429.61
454.706	421.95
455.073	414.29
455.44	393.86
455.807	381.09
456.174	383.65
456.541	378.54
456.908	360.66
457.274	391.31
457.641	404.07
458.008	427.05
458.374	434.71
458.741	404.07
459.108	455.14
459.474	467.91
459.841	416.84
460.207	401.52
460.573	375.98
460.94	396.41
461.306	396.41
461.672	396.41
462.038	414.29
462.404	406.63
462.771	427.05
463.137	467.91
463.503	401.52
463.868	375.98
464.234	406.63
464.6	401.52
464.966	386.2
465.332	388.75
465.697	432.16
466.063	411.73
466.429	429.61
466.794	447.48
467.16	414.29
467.525	434.71
467.89	383.65
468.256	419.39
468.621	447.48
468.986	406.63
469.351	432.16
469.717	416.84
470.082	373.43
470.447	396.41
470.812	406.63
471.177	383.65
471.542	421.95
471.906	427.05
472.271	406.63
472.636	365.77
473.001	396.41
473.365	378.54
473.73	437.27
474.094	462.8
474.459	416.84
474.823	442.37
475.188	460.25
475.552	442.37
475.917	404.07
476.281	401.52
476.645	393.86
477.009	414.29
477.373	444.93
477.737	365.77
478.101	363.22
478.465	473.01
478.829	478.12
479.193	406.63
479.557	411.73
479.921	355.56
480.284	393.86
480.648	421.95
481.012	416.84
481.375	409.18
481.739	488.33
482.102	370.88
482.466	409.18
482.829	432.16
483.193	373.43
483.556	299.38
483.919	378.54
484.282	475.57
484.645	439.82
485.009	488.33
485.372	439.82
485.735	444.93
486.098	406.63
486.46	358.11
486.823	355.56
487.186	393.86
487.549	427.05
487.912	457.69
488.274	404.07
488.637	416.84
488.999	375.98
489.362	381.09
489.724	452.59
490.087	401.52
490.449	416.84
490.811	411.73
491.174	388.75
491.536	404.07
491.898	434.71
492.26	457.69
492.622	424.5
492.984	470.46
493.346	401.52
493.708	432.16
494.07	457.69
494.432	508.76
494.794	424.5
495.155	424.5
495.517	358.11
495.879	355.56
496.24	386.2
496.602	355.56
496.963	375.98
497.325	429.61
497.686	411.73
498.048	391.31
498.409	370.88
498.77	406.63
499.131	444.93
499.492	424.5
499.854	409.18
500.215	429.61
500.576	427.05
500.937	401.52
501.298	401.52
501.658	409.18
502.019	409.18
502.38	381.09
502.741	378.54
503.101	383.65
503.462	398.97
503.823	424.5
504.183	475.57
504.543	358.11
504.904	396.41
505.264	368.32
505.625	350.45
505.985	452.59
506.345	444.93
506.705	421.95
507.065	398.97
507.426	378.54
507.786	378.54
508.146	360.66
508.505	342.79
508.865	414.29
509.225	424.5
509.585	490.89
509.945	353
510.304	386.2
510.664	447.48
511.024	350.45
511.383	373.43
511.743	381.09
512.102	365.77
512.462	345.34
512.821	383.65
513.18	381.09
513.539	434.71
513.899	452.59
514.258	462.8
514.617	427.05
514.976	404.07
515.335	370.88
515.694	342.79
516.053	342.79
516.412	401.52
516.771	391.31
517.129	419.39
517.488	421.95
517.847	386.2
518.205	485.78
518.564	409.18
518.922	450.03
519.281	383.65
519.639	411.73
519.998	421.95
520.356	434.71
520.714	450.03
521.073	442.37
521.431	424.5
521.789	450.03
522.147	447.48
522.505	434.71
522.863	409.18
523.221	457.69
523.579	424.5
523.937	355.56
524.295	396.41
524.652	429.61
525.01	401.52
525.368	416.84
525.725	421.95
526.083	401.52
526.44	393.86
526.798	388.75
527.155	416.84
527.513	342.79
527.87	444.93
528.227	406.63
528.584	414.29
528.942	427.05
529.299	447.48
529.656	427.05
530.013	370.88
530.37	386.2
530.727	447.48
531.083	406.63
531.44	427.05
531.797	429.61
532.154	416.84
532.511	360.66
532.867	401.52
533.224	386.2
533.58	383.65
533.937	386.2
534.293	383.65
534.65	444.93
535.006	340.24
535.362	386.2
535.718	411.73
536.075	406.63
536.431	406.63
536.787	373.43
537.143	508.76
537.499	424.5
537.855	391.31
538.211	365.77
538.567	437.27
538.923	391.31
539.278	386.2
539.634	439.82
539.99	437.27
540.345	360.66
540.701	383.65
541.056	427.05
541.412	429.61
541.767	391.31
542.123	414.29
542.478	447.48
542.833	442.37
543.188	475.57
543.544	388.75
543.899	370.88
544.254	447.48
544.609	470.46
544.964	427.05
545.319	414.29
545.674	419.39
546.029	447.48
546.383	383.65
546.738	365.77
547.093	447.48
547.447	429.61
547.802	473.01
548.157	391.31
548.511	381.09
548.866	396.41
549.22	414.29
549.574	419.39
549.929	414.29
550.283	439.82
550.637	406.63
550.991	396.41
551.345	347.9
551.699	437.27
552.053	332.58
552.407	437.27
552.761	452.59
553.115	424.5
553.469	396.41
553.823	427.05
554.176	386.2
554.53	450.03
554.884	396.41
555.237	677.28
555.591	421.95
555.944	473.01
556.298	475.57
556.651	442.37
557.005	429.61
557.358	363.22
557.711	342.79
558.064	452.59
558.417	429.61
558.771	526.63
559.124	406.63
559.477	406.63
559.83	424.5
560.182	429.61
560.535	350.45
560.888	427.05
561.241	396.41
561.594	411.73
561.946	393.86
562.299	347.9
562.651	406.63
563.004	462.8
563.356	424.5
563.709	391.31
564.061	429.61
564.413	375.98
564.766	383.65
565.118	406.63
565.47	439.82
565.822	393.86
566.174	350.45
566.526	386.2
566.878	330.02
567.23	419.39
567.582	406.63
567.934	368.32
568.286	391.31
568.638	353
568.989	429.61
569.341	375.98
569.693	404.07
570.044	388.75
570.396	381.09
570.747	419.39
571.098	401.52
571.45	432.16
571.801	404.07
572.152	455.14
572.504	327.47
572.855	358.11
573.206	388.75
573.557	457.69
573.908	524.08
574.259	490.89
574.61	358.11
574.961	373.43
575.311	467.91
575.662	383.65
576.013	424.5
576.364	455.14
576.714	457.69
577.065	370.88
577.415	406.63
577.766	416.84
578.116	432.16
578.467	370.88
578.817	404.07
579.167	416.84
579.518	391.31
579.868	388.75
580.218	373.43
580.568	473.01
580.918	432.16
581.268	439.82
581.618	404.07
581.968	406.63
582.318	388.75
582.668	419.39
583.017	327.47
583.367	452.59
583.717	396.41
584.066	373.43
584.416	455.14
584.765	398.97
585.115	383.65
585.464	416.84
585.814	386.2
586.163	473.01
586.512	455.14
586.862	411.73
587.211	396.41
587.56	401.52
587.909	373.43
588.258	386.2
588.607	393.86
588.956	421.95
589.305	429.61
589.654	370.88
590.002	406.63
590.351	370.88
590.7	388.75
591.048	475.57
591.397	398.97
591.746	421.95
592.094	419.39
592.443	388.75
592.791	447.48
593.139	475.57
593.488	460.25
593.836	439.82
594.184	383.65
594.532	391.31
594.88	421.95
595.228	388.75
595.576	409.18
595.924	416.84
596.272	521.53
596.62	398.97
596.968	398.97
597.316	429.61
597.664	442.37
598.011	383.65
598.359	414.29
598.706	383.65
599.054	414.29
599.402	424.5
599.749	401.52
600.096	416.84
600.444	381.09
600.791	421.95
601.138	478.12
601.485	388.75
601.833	457.69
602.18	373.43
602.527	353
602.874	421.95
603.221	434.71
603.568	411.73
603.914	386.2
604.261	386.2
604.608	368.32
604.955	416.84
605.301	424.5
605.648	411.73
605.995	503.65
606.341	439.82
606.688	406.63
607.034	427.05
607.38	398.97
607.727	393.86
608.073	378.54
608.419	427.05
608.765	396.41
609.112	383.65
609.458	381.09
609.804	383.65
610.15	360.66
610.496	401.52
610.842	386.2
611.187	388.75
611.533	411.73
611.879	312.15
612.225	393.86
612.57	416.84
612.916	444.93
613.261	404.07
613.607	401.52
613.952	401.52
614.298	442.37
614.643	370.88
614.989	365.77
615.334	353
615.679	368.32
616.024	378.54
616.369	404.07
616.714	442.37
617.059	360.66
617.404	342.79
617.749	368.32
618.094	406.63
618.439	404.07
618.784	434.71
619.129	406.63
619.473	373.43
619.818	442.37
620.163	452.59
620.507	457.69
620.852	416.84
621.196	452.59
621.54	419.39
621.885	378.54
622.229	386.2
622.573	401.52
622.918	429.61
623.262	342.79
623.606	409.18
623.95	386.2
624.294	424.5
624.638	373.43
624.982	447.48
625.326	414.29
625.67	299.38
626.013	406.63
626.357	391.31
626.701	457.69
627.044	457.69
627.388	460.25
627.731	381.09
628.075	373.43
628.418	360.66
628.762	427.05
629.105	378.54
629.448	368.32
629.792	370.88
630.135	404.07
630.478	437.27
630.821	414.29
631.164	342.79
631.507	317.26
631.85	447.48
632.193	401.52
632.536	396.41
632.879	427.05
633.221	358.11
633.564	375.98
633.907	347.9
634.249	309.6
634.592	335.13
634.935	373.43
635.277	381.09
635.619	383.65
635.962	404.07
636.304	360.66
636.646	381.09
636.989	373.43
637.331	391.31
637.673	483.23
638.015	439.82
638.357	327.47
638.699	386.2
639.041	419.39
639.383	444.93
639.725	409.18
640.067	409.18
640.408	427.05
640.75	363.22
641.092	406.63
641.433	409.18
641.775	383.65
642.116	416.84
642.458	432.16
642.799	427.05
643.141	353
643.482	416.84
643.823	406.63
644.164	398.97
644.506	416.84
644.847	416.84
645.188	406.63
645.529	411.73
645.87	353
646.211	381.09
646.552	355.56
646.893	473.01
647.233	347.9
647.574	457.69
647.915	444.93
648.255	391.31
648.596	419.39
648.937	439.82
649.277	437.27
649.618	355.56
649.958	444.93
650.298	363.22
650.639	373.43
650.979	391.31
651.319	406.63
651.659	421.95
651.999	375.98
652.339	324.92
652.679	398.97
653.019	391.31
653.359	363.22
653.699	411.73
654.039	432.16
654.379	368.32
654.719	393.86
655.058	427.05
655.398	429.61
655.737	455.14
656.077	470.46
656.416	381.09
656.756	381.09
657.095	409.18
657.435	442.37
657.774	455.14
658.113	424.5
658.452	460.25
658.792	373.43
659.131	347.9
659.47	401.52
659.809	375.98
660.148	404.07
660.487	432.16
660.826	455.14
661.164	393.86
661.503	416.84
661.842	462.8
662.181	398.97
662.519	370.88
662.858	375.98
663.196	386.2
663.535	409.18
663.873	404.07
664.212	419.39
664.55	437.27
664.888	437.27
665.226	429.61
665.565	401.52
665.903	536.85
666.241	437.27
666.579	411.73
666.917	434.71
667.255	414.29
667.593	391.31
667.931	437.27
668.268	444.93
668.606	478.12
668.944	401.52
669.282	398.97
669.619	401.52
669.957	360.66
670.294	401.52
670.632	419.39
670.969	444.93
671.307	373.43
671.644	439.82
671.981	368.32
672.318	414.29
672.656	437.27
672.993	421.95
673.33	424.5
673.667	368.32
674.004	345.34
674.341	345.34
674.678	414.29
675.015	416.84
675.351	363.22
675.688	375.98
676.025	381.09
676.362	401.52
676.698	340.24
677.035	391.31
677.371	406.63
677.708	434.71
678.044	312.15
678.38	419.39
678.717	388.75
679.053	345.34
679.389	452.59
679.725	416.84
680.062	450.03
680.398	485.78
680.734	416.84
681.07	480.67
681.406	432.16
681.742	455.14
682.077	370.88
682.413	386.2
682.749	353
683.085	332.58
683.42	401.52
683.756	409.18
684.091	432.16
684.427	345.34
684.762	350.45
685.098	337.68
685.433	327.47
685.768	296.83
686.104	411.73
686.439	414.29
686.774	342.79
687.109	409.18
687.444	358.11
687.779	460.25
688.114	365.77
688.449	355.56
688.784	398.97
689.119	393.86
689.454	444.93
689.789	370.88
690.123	437.27
690.458	450.03
690.792	391.31
691.127	401.52
691.461	378.54
691.796	391.31
692.13	424.5
692.465	393.86
692.799	388.75
693.133	322.36
693.467	393.86
693.802	381.09
694.136	381.09
694.47	373.43
694.804	370.88
695.138	401.52
695.472	398.97
695.806	409.18
696.139	437.27
696.473	434.71
696.807	404.07
697.141	424.5
697.474	424.5
697.808	473.01
698.141	345.34
698.475	421.95
698.808	427.05
699.142	375.98
699.475	388.75
699.808	381.09
700.142	342.79
700.475	488.33
700.808	406.63
701.141	393.86
701.474	419.39
701.807	406.63
702.14	375.98
702.473	416.84
702.806	391.31
703.139	363.22
703.472	421.95
703.804	442.37
704.137	401.52
704.47	363.22
704.802	488.33
705.135	358.11
705.467	414.29
705.8	327.47
706.132	411.73
706.464	396.41
706.797	342.79
707.129	432.16
707.461	353
707.793	388.75
708.125	391.31
708.457	365.77
708.789	450.03
709.121	437.27
709.453	373.43
709.785	378.54
710.117	370.88
710.449	414.29
710.781	432.16
711.112	457.69
711.444	388.75
711.775	398.97
712.107	391.31
712.438	373.43
712.77	406.63
713.101	358.11
713.433	373.43
713.764	393.86
714.095	483.23
714.426	396.41
714.757	434.71
715.089	381.09
715.42	375.98
715.751	373.43
716.082	386.2
716.412	381.09
716.743	393.86
717.074	386.2
717.405	432.16
717.736	396.41
718.066	383.65
718.397	330.02
718.727	421.95
719.058	383.65
719.388	411.73
719.719	432.16
720.049	419.39
720.38	465.35
720.71	365.77
721.04	373.43
721.37	312.15
721.7	404.07
722.031	406.63
722.361	345.34
722.691	416.84
723.021	345.34
723.35	401.52
723.68	401.52
724.01	437.27
724.34	345.34
724.67	375.98
724.999	444.93
725.329	414.29
725.658	314.7
725.988	381.09
726.317	427.05
726.647	365.77
726.976	416.84
727.306	391.31
727.635	388.75
727.964	370.88
728.293	330.02
728.622	375.98
728.952	373.43
729.281	373.43
729.61	373.43
729.939	383.65
730.267	375.98
730.596	452.59
730.925	401.52
731.254	355.56
731.583	442.37
731.911	330.02
732.24	342.79
732.568	414.29
732.897	457.69
733.225	347.9
733.554	363.22
733.882	396.41
734.21	421.95
734.539	330.02
734.867	439.82
735.195	391.31
735.523	365.77
735.851	388.75
736.179	368.32
736.507	347.9
736.835	363.22
737.163	386.2
737.491	444.93
737.819	337.68
738.147	337.68
738.474	335.13
738.802	355.56
739.13	386.2
739.457	363.22
739.785	419.39
740.112	391.31
740.44	421.95
740.767	396.41
741.094	335.13
741.422	342.79
741.749	368.32
742.076	347.9
742.403	416.84
742.73	421.95
743.057	447.48
743.384	424.5
743.711	501.1
744.038	493.44
744.365	480.67
744.692	360.66
745.018	432.16
745.345	460.25
745.672	455.14
745.998	368.32
746.325	409.18
746.651	383.65
746.978	398.97
747.304	401.52
747.631	409.18
747.957	409.18
748.283	391.31
748.61	398.97
748.936	398.97
749.262	368.32
749.588	424.5
749.914	393.86
750.24	378.54
750.566	465.35
750.892	363.22
751.218	370.88
751.543	381.09
751.869	281.51
752.195	324.92
752.521	386.2
752.846	398.97
753.172	383.65
753.497	375.98
753.823	406.63
754.148	406.63
754.473	404.07
754.799	452.59
755.124	427.05
755.449	365.77
755.774	406.63
756.1	365.77
756.425	353
756.75	411.73
757.075	432.16
757.4	467.91
757.724	457.69
758.049	416.84
758.374	404.07
758.699	378.54
759.024	375.98
759.348	381.09
759.673	432.16
759.997	401.52
760.322	404.07
760.646	437.27
760.971	419.39
761.295	393.86
761.619	465.35
761.944	411.73
762.268	478.12
762.592	424.5
762.916	462.8
763.24	539.4
763.564	638.98
763.888	667.07
764.212	810.06
764.536	751.33
764.86	810.06
765.184	820.27
765.508	781.97
765.831	960.71
766.155	1152.21
766.478	930.07
766.802	853.47
767.126	871.34
767.449	807.51
767.772	789.63
768.096	761.54
768.419	682.39
768.742	649.2
769.066	628.77
769.389	618.56
769.712	590.47
770.035	702.82
770.358	764.1
770.681	958.16
771.004	1080.72
771.327	1249.24
771.65	1427.98
771.972	1713.95
772.295	2061.21
772.618	2306.34
772.941	2773.61
773.263	2944.68
773.586	3486
773.908	3874.11
774.231	3823.05
774.553	3807.72
774.875	4045.19
775.198	4188.18
775.52	3983.91
775.842	3769.42
776.164	3460.47
776.487	3253.64
776.809	3131.08
777.131	2947.24
777.453	2620.4
777.775	2541.25
778.096	2439.11
778.418	2086.75
778.74	1632.25
779.062	1397.34
779.384	1269.67
779.705	1050.08
780.027	976.03
780.348	1085.82
780.67	1024.54
780.991	1236.47
781.313	1662.89
781.634	1964.19
781.955	2324.21
782.277	2834.89
782.598	3463.02
782.919	3766.87
783.24	4331.17
783.561	4813.76
783.882	5232.51
784.203	5398.48
784.524	5748.29
784.845	5807.02
785.166	6256.41
785.487	6741.56
785.807	7096.48
786.128	6810.5
786.449	6790.07
786.769	6616.44
787.09	6613.89
787.41	6749.22
787.731	6774.75
788.051	6825.82
788.372	6672.62
788.692	6391.74
789.012	5620.62
789.332	4826.52
789.653	4520.12
789.973	4029.87
790.293	3394.08
790.613	2456.99
790.933	1984.61
791.253	1770.13
791.573	1351.38
791.893	1103.7
792.212	845.81
792.532	909.64
792.852	1067.95
793.171	1180.3
793.491	1502.02
793.811	1918.23
794.13	2518.27
794.45	2765.95
794.769	3322.58
795.088	4106.47
795.408	4558.42
795.727	5692.12
796.046	6912.63
796.365	8151.02
796.684	8391.04
797.004	8345.08
797.323	8835.33
797.642	9925.62
797.96	9621.77
798.279	9200.46
798.598	9111.09
798.917	9014.06
799.236	8817.45
799.554	8605.52
799.873	7979.94
800.192	7614.81
800.51	7270.11
