Data from 2025-12-03_xpw_interference_micrometer_631_FLMS141361__50__600.txt Node

Date: Wed Dec 03 15:54:09 MST 2025
User: james
Spectrometer: FLMS14136
Trigger mode: 0
Integration Time (sec): 1.000000E-1
Scans to average: 1
Electric dark correction enabled: true
Nonlinearity correction enabled: false
Boxcar width: 0
XAxis mode: Wavelengths
Number of Pixels in Spectrum: 2048
>>>>>Begin Spectral Data<<<<<
339.315	-35.91
339.697	-35.91
340.079	-35.91
340.461	-112.51
340.843	-63.99
341.225	-76.76
341.607	-74.21
341.989	-104.85
342.371	-104.85
342.752	-43.57
343.134	-81.87
343.516	-74.21
343.897	-12.93
344.279	-12.93
344.661	17.71
345.042	84.1
345.423	38.14
345.805	99.42
346.186	53.46
346.567	145.38
346.949	147.94
347.33	211.77
347.711	206.66
348.092	183.68
348.473	229.64
348.854	204.11
349.235	257.73
349.616	255.18
349.997	278.16
350.378	250.07
350.758	313.91
351.139	382.85
351.52	339.44
351.9	362.42
352.281	341.99
352.661	339.44
353.042	382.85
353.422	387.95
353.803	433.91
354.183	393.06
354.563	382.85
354.943	439.02
355.324	426.25
355.704	336.89
356.084	321.57
356.464	418.59
356.844	456.9
357.224	395.61
357.603	375.19
357.983	377.74
358.363	375.19
358.743	319.01
359.122	359.87
359.502	390.51
359.882	380.29
360.261	436.47
360.641	372.63
361.02	372.63
361.399	362.42
361.779	408.38
362.158	359.87
362.537	413.49
362.916	367.53
363.296	408.38
363.675	354.76
364.054	398.17
364.433	377.74
364.812	329.23
365.19	319.01
365.569	354.76
365.948	339.44
366.327	370.08
366.705	352.21
367.084	347.1
367.463	334.33
367.841	377.74
368.22	352.21
368.598	326.67
368.977	400.72
369.355	339.44
369.733	324.12
370.111	387.95
370.49	370.08
370.868	321.57
371.246	362.42
371.624	364.97
372.002	385.4
372.38	393.06
372.758	382.85
373.136	357.31
373.513	354.76
373.891	329.23
374.269	321.57
374.646	372.63
375.024	416.04
375.402	385.4
375.779	357.31
376.157	367.53
376.534	398.17
376.911	390.51
377.289	313.91
377.666	390.51
378.043	390.51
378.42	354.76
378.797	372.63
379.175	364.97
379.552	408.38
379.929	367.53
380.305	385.4
380.682	413.49
381.059	375.19
381.436	370.08
381.813	313.91
382.189	349.65
382.566	347.1
382.943	364.97
383.319	367.53
383.696	395.61
384.072	387.95
384.448	400.72
384.825	421.15
385.201	385.4
385.577	278.16
385.953	385.4
386.329	382.85
386.706	403.27
387.082	431.36
387.458	387.95
387.834	349.65
388.209	316.46
388.585	331.78
388.961	357.31
389.337	380.29
389.713	387.95
390.088	416.04
390.464	357.31
390.839	375.19
391.215	393.06
391.59	344.55
391.966	421.15
392.341	390.51
392.716	364.97
393.092	377.74
393.467	410.93
393.842	413.49
394.217	296.03
394.592	405.83
394.967	400.72
395.342	326.67
395.717	326.67
396.092	390.51
396.467	344.55
396.841	418.59
397.216	385.4
397.591	334.33
397.965	357.31
398.34	390.51
398.714	436.47
399.089	410.93
399.463	436.47
399.838	421.15
400.212	387.95
400.586	370.08
400.961	403.27
401.335	313.91
401.709	464.56
402.083	416.04
402.457	372.63
402.831	387.95
403.205	359.87
403.579	393.06
403.953	390.51
404.326	352.21
404.7	339.44
405.074	352.21
405.447	336.89
405.821	352.21
406.195	444.13
406.568	398.17
406.942	505.41
407.315	354.76
407.688	408.38
408.062	449.23
408.435	324.12
408.808	336.89
409.181	359.87
409.554	380.29
409.927	329.23
410.3	344.55
410.673	456.9
411.046	418.59
411.419	387.95
411.792	413.49
412.165	467.11
412.537	421.15
412.91	390.51
413.283	349.65
413.655	387.95
414.028	410.93
414.4	382.85
414.773	372.63
415.145	393.06
415.517	375.19
415.889	393.06
416.262	398.17
416.634	444.13
417.006	403.27
417.378	405.83
417.75	418.59
418.122	426.25
418.494	449.23
418.866	387.95
419.238	364.97
419.609	390.51
419.981	395.61
420.353	410.93
420.725	426.25
421.096	421.15
421.468	357.31
421.839	375.19
422.211	372.63
422.582	390.51
422.953	459.45
423.325	380.29
423.696	375.19
424.067	362.42
424.438	387.95
424.809	324.12
425.18	413.49
425.551	421.15
425.922	377.74
426.293	375.19
426.664	380.29
427.035	433.91
427.406	423.7
427.776	416.04
428.147	472.22
428.518	387.95
428.888	398.17
429.259	459.45
429.629	405.83
429.999	382.85
430.37	451.79
430.74	416.04
431.11	380.29
431.481	329.23
431.851	408.38
432.221	377.74
432.591	334.33
432.961	331.78
433.331	444.13
433.701	416.04
434.071	400.72
434.441	467.11
434.81	423.7
435.18	367.53
435.55	426.25
435.919	439.02
436.289	451.79
436.658	336.89
437.028	390.51
437.397	446.68
437.767	400.72
438.136	367.53
438.505	385.4
438.875	433.91
439.244	462
439.613	444.13
439.982	400.72
440.351	446.68
440.72	439.02
441.089	459.45
441.458	459.45
441.827	413.49
442.196	441.57
442.564	477.32
442.933	354.76
443.302	426.25
443.67	433.91
444.039	459.45
444.407	426.25
444.776	410.93
445.144	395.61
445.513	428.81
445.881	405.83
446.249	446.68
446.617	403.27
446.986	370.08
447.354	364.97
447.722	385.4
448.09	441.57
448.458	418.59
448.826	479.88
449.194	364.97
449.561	380.29
449.929	408.38
450.297	416.04
450.665	410.93
451.032	375.19
451.4	387.95
451.767	324.12
452.135	370.08
452.502	454.34
452.87	431.36
453.237	380.29
453.604	370.08
453.971	428.81
454.339	423.7
454.706	398.17
455.073	479.88
455.44	454.34
455.807	477.32
456.174	403.27
456.541	451.79
456.908	421.15
457.274	459.45
457.641	487.54
458.008	546.26
458.374	413.49
458.741	423.7
459.108	380.29
459.474	370.08
459.841	428.81
460.207	387.95
460.573	408.38
460.94	357.31
461.306	403.27
461.672	400.72
462.038	426.25
462.404	370.08
462.771	364.97
463.137	413.49
463.503	464.56
463.868	441.57
464.234	449.23
464.6	421.15
464.966	398.17
465.332	357.31
465.697	469.66
466.063	380.29
466.429	418.59
466.794	395.61
467.16	451.79
467.525	472.22
467.89	490.09
468.256	426.25
468.621	405.83
468.986	403.27
469.351	418.59
469.717	416.04
470.082	400.72
470.447	400.72
470.812	408.38
471.177	467.11
471.542	431.36
471.906	408.38
472.271	428.81
472.636	472.22
473.001	385.4
473.365	403.27
473.73	324.12
474.094	436.47
474.459	413.49
474.823	482.43
475.188	454.34
475.552	426.25
475.917	451.79
476.281	418.59
476.645	428.81
477.009	347.1
477.373	431.36
477.737	403.27
478.101	410.93
478.465	416.04
478.829	410.93
479.193	418.59
479.557	321.57
479.921	393.06
480.284	370.08
480.648	321.57
481.012	319.01
481.375	377.74
481.739	418.59
482.102	495.2
482.466	444.13
482.829	449.23
483.193	416.04
483.556	344.55
483.919	382.85
484.282	408.38
484.645	462
485.009	395.61
485.372	385.4
485.735	367.53
486.098	354.76
486.46	367.53
486.823	390.51
487.186	375.19
487.549	477.32
487.912	370.08
488.274	395.61
488.637	433.91
488.999	359.87
489.362	426.25
489.724	428.81
490.087	451.79
490.449	418.59
490.811	403.27
491.174	405.83
491.536	477.32
491.898	418.59
492.26	431.36
492.622	387.95
492.984	426.25
493.346	400.72
493.708	477.32
494.07	484.98
494.432	380.29
494.794	446.68
495.155	413.49
495.517	431.36
495.879	352.21
496.24	393.06
496.602	395.61
496.963	393.06
497.325	393.06
497.686	439.02
498.048	454.34
498.409	431.36
498.77	449.23
499.131	418.59
499.492	370.08
499.854	367.53
500.215	357.31
500.576	431.36
500.937	421.15
501.298	423.7
501.658	390.51
502.019	324.12
502.38	403.27
502.741	393.06
503.101	403.27
503.462	423.7
503.823	375.19
504.183	403.27
504.543	449.23
504.904	341.99
505.264	382.85
505.625	421.15
505.985	403.27
506.345	359.87
506.705	372.63
507.065	387.95
507.426	403.27
507.786	362.42
508.146	454.34
508.505	393.06
508.865	446.68
509.225	387.95
509.585	525.84
509.945	449.23
510.304	444.13
510.664	441.57
511.024	446.68
511.383	382.85
511.743	426.25
512.102	484.98
512.462	408.38
512.821	436.47
513.18	413.49
513.539	446.68
513.899	382.85
514.258	400.72
514.617	380.29
514.976	408.38
515.335	390.51
515.694	423.7
516.053	418.59
516.412	403.27
516.771	416.04
517.129	418.59
517.488	393.06
517.847	329.23
518.205	357.31
518.564	431.36
518.922	451.79
519.281	444.13
519.639	408.38
519.998	436.47
520.356	387.95
520.714	433.91
521.073	413.49
521.431	390.51
521.789	385.4
522.147	359.87
522.505	418.59
522.863	398.17
523.221	372.63
523.579	421.15
523.937	433.91
524.295	421.15
524.652	375.19
525.01	454.34
525.368	444.13
525.725	398.17
526.083	403.27
526.44	380.29
526.798	423.7
527.155	439.02
527.513	456.9
527.87	449.23
528.227	428.81
528.584	418.59
528.942	416.04
529.299	354.76
529.656	354.76
530.013	410.93
530.37	426.25
530.727	400.72
531.083	462
531.44	497.75
531.797	469.66
532.154	359.87
532.511	439.02
532.867	321.57
533.224	380.29
533.58	421.15
533.937	444.13
534.293	421.15
534.65	418.59
535.006	408.38
535.362	357.31
535.718	449.23
536.075	484.98
536.431	370.08
536.787	410.93
537.143	441.57
537.499	390.51
537.855	428.81
538.211	423.7
538.567	459.45
538.923	403.27
539.278	454.34
539.634	395.61
539.99	423.7
540.345	400.72
540.701	418.59
541.056	403.27
541.412	446.68
541.767	423.7
542.123	423.7
542.478	467.11
542.833	459.45
543.188	416.04
543.544	444.13
543.899	377.74
544.254	426.25
544.609	375.19
544.964	421.15
545.319	464.56
545.674	385.4
546.029	390.51
546.383	405.83
546.738	377.74
547.093	413.49
547.447	451.79
547.802	454.34
548.157	451.79
548.511	431.36
548.866	423.7
549.22	367.53
549.574	367.53
549.929	362.42
550.283	362.42
550.637	347.1
550.991	456.9
551.345	456.9
551.699	413.49
552.053	413.49
552.407	375.19
552.761	395.61
553.115	426.25
553.469	444.13
553.823	382.85
554.176	385.4
554.53	441.57
554.884	472.22
555.237	643.29
555.591	449.23
555.944	462
556.298	372.63
556.651	403.27
557.005	395.61
557.358	395.61
557.711	413.49
558.064	387.95
558.417	393.06
558.771	518.18
559.124	395.61
559.477	408.38
559.83	426.25
560.182	413.49
560.535	375.19
560.888	456.9
561.241	364.97
561.594	467.11
561.946	433.91
562.299	472.22
562.651	400.72
563.004	441.57
563.356	385.4
563.709	474.77
564.061	408.38
564.413	408.38
564.766	387.95
565.118	497.75
565.47	433.91
565.822	390.51
566.174	436.47
566.526	416.04
566.878	451.79
567.23	377.74
567.582	413.49
567.934	385.4
568.286	421.15
568.638	484.98
568.989	416.04
569.341	433.91
569.693	426.25
570.044	449.23
570.396	347.1
570.747	472.22
571.098	439.02
571.45	472.22
571.801	426.25
572.152	410.93
572.504	418.59
572.855	410.93
573.206	398.17
573.557	426.25
573.908	423.7
574.259	426.25
574.61	372.63
574.961	339.44
575.311	416.04
575.662	377.74
576.013	426.25
576.364	393.06
576.714	372.63
577.065	390.51
577.415	334.33
577.766	390.51
578.116	449.23
578.467	408.38
578.817	423.7
579.167	446.68
579.518	449.23
579.868	375.19
580.218	395.61
580.568	520.73
580.918	497.75
581.268	431.36
581.618	421.15
581.968	410.93
582.318	395.61
582.668	380.29
583.017	393.06
583.367	469.66
583.717	387.95
584.066	405.83
584.416	377.74
584.765	357.31
585.115	395.61
585.464	451.79
585.814	385.4
586.163	359.87
586.512	441.57
586.862	462
587.211	403.27
587.56	446.68
587.909	464.56
588.258	454.34
588.607	423.7
588.956	367.53
589.305	364.97
589.654	439.02
590.002	387.95
590.351	382.85
590.7	359.87
591.048	441.57
591.397	405.83
591.746	405.83
592.094	433.91
592.443	413.49
592.791	484.98
593.139	395.61
593.488	339.44
593.836	398.17
594.184	382.85
594.532	428.81
594.88	441.57
595.228	418.59
595.576	400.72
595.924	372.63
596.272	385.4
596.62	449.23
596.968	456.9
597.316	357.31
597.664	474.77
598.011	426.25
598.359	375.19
598.706	446.68
599.054	436.47
599.402	398.17
599.749	370.08
600.096	416.04
600.444	405.83
600.791	395.61
601.138	390.51
601.485	398.17
601.833	354.76
602.18	354.76
602.527	395.61
602.874	387.95
603.221	385.4
603.568	451.79
603.914	441.57
604.261	467.11
604.608	405.83
604.955	421.15
605.301	469.66
605.648	454.34
605.995	421.15
606.341	385.4
606.688	423.7
607.034	288.37
607.38	398.17
607.727	433.91
608.073	421.15
608.419	408.38
608.765	459.45
609.112	390.51
609.458	444.13
609.804	449.23
610.15	451.79
610.496	421.15
610.842	423.7
611.187	439.02
611.533	416.04
611.879	423.7
612.225	398.17
612.57	423.7
612.916	431.36
613.261	375.19
613.607	362.42
613.952	380.29
614.298	413.49
614.643	382.85
614.989	349.65
615.334	474.77
615.679	444.13
616.024	444.13
616.369	316.46
616.714	393.06
617.059	398.17
617.404	423.7
617.749	403.27
618.094	451.79
618.439	469.66
618.784	416.04
619.129	408.38
619.473	413.49
619.818	433.91
620.163	395.61
620.507	451.79
620.852	410.93
621.196	423.7
621.54	393.06
621.885	405.83
622.229	393.06
622.573	403.27
622.918	372.63
623.262	454.34
623.606	370.08
623.95	367.53
624.294	403.27
624.638	398.17
624.982	418.59
625.326	444.13
625.67	405.83
626.013	408.38
626.357	405.83
626.701	395.61
627.044	439.02
627.388	395.61
627.731	431.36
628.075	462
628.418	349.65
628.762	385.4
629.105	370.08
629.448	377.74
629.792	393.06
630.135	433.91
630.478	426.25
630.821	403.27
631.164	390.51
631.507	439.02
631.85	393.06
632.193	364.97
632.536	372.63
632.879	454.34
633.221	370.08
633.564	433.91
633.907	436.47
634.249	403.27
634.592	382.85
634.935	413.49
635.277	439.02
635.619	364.97
635.962	428.81
636.304	387.95
636.646	413.49
636.989	354.76
637.331	324.12
637.673	482.43
638.015	421.15
638.357	433.91
638.699	441.57
639.041	410.93
639.383	362.42
639.725	367.53
640.067	408.38
640.408	433.91
640.75	357.31
641.092	372.63
641.433	354.76
641.775	410.93
642.116	362.42
642.458	416.04
642.799	377.74
643.141	375.19
643.482	428.81
643.823	433.91
644.164	426.25
644.506	492.64
644.847	462
645.188	431.36
645.529	408.38
645.87	405.83
646.211	403.27
646.552	382.85
646.893	393.06
647.233	385.4
647.574	436.47
647.915	321.57
648.255	413.49
648.596	439.02
648.937	385.4
649.277	385.4
649.618	423.7
649.958	423.7
650.298	446.68
650.639	416.04
650.979	370.08
651.319	387.95
651.659	362.42
651.999	354.76
652.339	380.29
652.679	387.95
653.019	334.33
653.359	387.95
653.699	441.57
654.039	428.81
654.379	446.68
654.719	395.61
655.058	385.4
655.398	372.63
655.737	467.11
656.077	441.57
656.416	385.4
656.756	426.25
657.095	387.95
657.435	456.9
657.774	362.42
658.113	364.97
658.452	390.51
658.792	380.29
659.131	395.61
659.47	387.95
659.809	416.04
660.148	449.23
660.487	403.27
660.826	405.83
661.164	385.4
661.503	298.59
661.842	400.72
662.181	439.02
662.519	462
662.858	395.61
663.196	423.7
663.535	418.59
663.873	426.25
664.212	454.34
664.55	446.68
664.888	403.27
665.226	416.04
665.565	441.57
665.903	643.29
666.241	441.57
666.579	413.49
666.917	385.4
667.255	408.38
667.593	380.29
667.931	418.59
668.268	382.85
668.606	400.72
668.944	400.72
669.282	367.53
669.619	370.08
669.957	393.06
670.294	428.81
670.632	428.81
670.969	385.4
671.307	382.85
671.644	372.63
671.981	339.44
672.318	436.47
672.656	456.9
672.993	408.38
673.33	459.45
673.667	439.02
674.004	349.65
674.341	421.15
674.678	405.83
675.015	441.57
675.351	390.51
675.688	398.17
676.025	474.77
676.362	467.11
676.698	398.17
677.035	444.13
677.371	380.29
677.708	454.34
678.044	426.25
678.38	405.83
678.717	306.25
679.053	398.17
679.389	367.53
679.725	375.19
680.062	477.32
680.398	375.19
680.734	431.36
681.07	410.93
681.406	344.55
681.742	313.91
682.077	359.87
682.413	372.63
682.749	372.63
683.085	359.87
683.42	390.51
683.756	377.74
684.091	393.06
684.427	464.56
684.762	439.02
685.098	347.1
685.433	467.11
685.768	357.31
686.104	357.31
686.439	431.36
686.774	410.93
687.109	482.43
687.444	421.15
687.779	380.29
688.114	439.02
688.449	398.17
688.784	433.91
689.119	408.38
689.454	403.27
689.789	446.68
690.123	385.4
690.458	403.27
690.792	441.57
691.127	377.74
691.461	502.86
691.796	390.51
692.13	382.85
692.465	367.53
692.799	375.19
693.133	403.27
693.467	362.42
693.802	408.38
694.136	375.19
694.47	416.04
694.804	444.13
695.138	393.06
695.472	436.47
695.806	364.97
696.139	421.15
696.473	393.06
696.807	357.31
697.141	375.19
697.474	421.15
697.808	464.56
698.141	418.59
698.475	431.36
698.808	410.93
699.142	393.06
699.475	387.95
699.808	375.19
700.142	408.38
700.475	413.49
700.808	398.17
701.141	359.87
701.474	385.4
701.807	405.83
702.14	377.74
702.473	375.19
702.806	362.42
703.139	446.68
703.472	349.65
703.804	364.97
704.137	421.15
704.47	398.17
704.802	431.36
705.135	367.53
705.467	431.36
705.8	413.49
706.132	380.29
706.464	408.38
706.797	395.61
707.129	479.88
707.461	367.53
707.793	377.74
708.125	390.51
708.457	436.47
708.789	477.32
709.121	441.57
709.453	436.47
709.785	423.7
710.117	405.83
710.449	431.36
710.781	387.95
711.112	344.55
711.444	428.81
711.775	375.19
712.107	347.1
712.438	385.4
712.77	405.83
713.101	370.08
713.433	436.47
713.764	375.19
714.095	446.68
714.426	497.75
714.757	362.42
715.089	421.15
715.42	426.25
715.751	410.93
716.082	441.57
716.412	362.42
716.743	413.49
717.074	446.68
717.405	439.02
717.736	408.38
718.066	459.45
718.397	423.7
718.727	375.19
719.058	380.29
719.388	462
719.719	421.15
720.049	331.78
720.38	426.25
720.71	403.27
721.04	372.63
721.37	387.95
721.7	393.06
722.031	416.04
722.361	459.45
722.691	413.49
723.021	359.87
723.35	372.63
723.68	354.76
724.01	451.79
724.34	387.95
724.67	377.74
724.999	367.53
725.329	492.64
725.658	367.53
725.988	400.72
726.317	364.97
726.647	359.87
726.976	408.38
727.306	339.44
727.635	418.59
727.964	462
728.293	393.06
728.622	451.79
728.952	382.85
729.281	364.97
729.61	484.98
729.939	433.91
730.267	377.74
730.596	408.38
730.925	385.4
731.254	382.85
731.583	449.23
731.911	400.72
732.24	395.61
732.568	426.25
732.897	423.7
733.225	364.97
733.554	469.66
733.882	375.19
734.21	395.61
734.539	439.02
734.867	405.83
735.195	395.61
735.523	441.57
735.851	385.4
736.179	400.72
736.507	416.04
736.835	359.87
737.163	403.27
737.491	380.29
737.819	408.38
738.147	364.97
738.474	357.31
738.802	454.34
739.13	439.02
739.457	385.4
739.785	451.79
740.112	400.72
740.44	403.27
740.767	319.01
741.094	344.55
741.422	413.49
741.749	393.06
742.076	382.85
742.403	423.7
742.73	416.04
743.057	484.98
743.384	387.95
743.711	439.02
744.038	398.17
744.365	462
744.692	336.89
745.018	354.76
745.345	395.61
745.672	375.19
745.998	428.81
746.325	380.29
746.651	482.43
746.978	370.08
747.304	364.97
747.631	456.9
747.957	372.63
748.283	398.17
748.61	413.49
748.936	400.72
749.262	426.25
749.588	454.34
749.914	405.83
750.24	372.63
750.566	428.81
750.892	472.22
751.218	367.53
751.543	375.19
751.869	362.42
752.195	370.08
752.521	367.53
752.846	421.15
753.172	451.79
753.497	398.17
753.823	479.88
754.148	497.75
754.473	439.02
754.799	449.23
755.124	451.79
755.449	421.15
755.774	375.19
756.1	431.36
756.425	400.72
756.75	352.21
757.075	439.02
757.4	528.39
757.724	408.38
758.049	377.74
758.374	367.53
758.699	339.44
759.024	390.51
759.348	405.83
759.673	349.65
759.997	410.93
760.322	423.7
760.646	444.13
760.971	395.61
761.295	418.59
761.619	464.56
761.944	464.56
762.268	449.23
762.592	548.82
762.916	615.2
763.24	556.48
763.564	648.4
763.888	753.09
764.212	793.94
764.536	776.07
764.86	755.64
765.184	791.39
765.508	921.61
765.831	855.22
766.155	1049.28
766.478	901.18
766.802	822.03
767.126	781.17
767.449	773.51
767.772	737.77
768.096	704.57
768.419	663.72
768.742	576.9
769.066	630.52
769.389	556.48
769.712	589.67
770.035	686.7
770.358	806.71
770.681	1049.28
771.004	1266.32
771.327	1325.04
771.65	1511.44
771.972	1769.33
772.295	2213.62
772.618	2550.67
772.941	2913.24
773.263	3102.19
773.586	3692.03
773.908	4011.2
774.231	3919.28
774.553	3829.91
774.875	4189.93
775.198	4187.38
775.52	3883.53
775.842	3658.83
776.164	3260.5
776.487	3176.24
776.809	2928.56
777.131	2859.62
777.453	2563.43
777.775	2354.05
778.096	2121.7
778.418	1932.75
778.74	1565.06
779.062	1335.26
779.384	1189.71
779.705	993.1
780.027	1128.43
780.348	1056.94
780.67	1243.34
780.991	1552.29
781.313	1996.58
781.634	2389.8
781.955	2880.05
782.277	3383.07
782.598	3919.28
782.919	4151.63
783.24	4736.36
783.561	5257.25
783.882	5607.06
784.203	5900.7
784.524	6010.49
784.845	6064.11
785.166	6355.2
785.487	6932.26
785.807	7284.63
786.128	7113.55
786.449	6896.51
786.769	6623.3
787.09	6533.93
787.41	6643.73
787.731	6567.13
788.051	6475.21
788.372	6296.47
788.692	5844.52
789.012	5183.2
789.332	4394.2
789.653	4067.37
789.973	3768.63
790.293	3125.18
790.613	2180.43
790.933	1868.91
791.253	1598.26
791.573	1304.62
791.893	1044.17
792.212	959.91
792.532	967.57
792.852	1113.11
793.171	1330.15
793.491	1736.14
793.811	2331.07
794.13	2795.79
794.45	3148.16
794.769	3809.48
795.088	4322.71
795.408	5101.49
795.727	6258.17
796.046	7578.27
796.365	8714.52
796.684	8798.78
797.004	8701.75
797.323	9291.58
797.642	10205.69
797.96	10044.83
798.279	9600.54
798.598	9414.15
798.917	9250.73
799.236	9202.21
799.554	8635.36
799.873	8014.89
800.192	7351.02
