Data from 2025-12-03_xpw_interference_micrometer_631_FLMS141361__85__635.txt Node

Date: Wed Dec 03 15:54:12 MST 2025
User: james
Spectrometer: FLMS14136
Trigger mode: 0
Integration Time (sec): 1.000000E-1
Scans to average: 1
Electric dark correction enabled: true
Nonlinearity correction enabled: false
Boxcar width: 0
XAxis mode: Wavelengths
Number of Pixels in Spectrum: 2048
>>>>>Begin Spectral Data<<<<<
339.315	-50.11
339.697	-50.11
340.079	-50.11
340.461	-119.05
340.843	-103.73
341.225	-103.73
341.607	-111.39
341.989	-98.62
342.371	-39.9
342.752	-16.92
343.134	-62.88
343.516	8.62
343.897	-19.47
344.279	-52.66
344.661	-4.15
345.042	34.15
345.423	75.01
345.805	23.94
346.186	95.43
346.567	108.2
346.949	164.37
347.33	154.16
347.711	128.63
348.092	164.37
348.473	210.33
348.854	192.46
349.235	182.25
349.616	230.76
349.997	192.46
350.378	266.51
350.758	340.56
351.139	304.81
351.52	389.07
351.9	309.92
352.281	376.3
352.661	353.32
353.042	417.16
353.422	396.73
353.803	409.5
354.183	360.98
354.563	343.11
354.943	360.98
355.324	406.94
355.704	396.73
356.084	465.67
356.464	383.96
356.844	429.93
357.224	366.09
357.603	309.92
357.983	383.96
358.363	486.1
358.743	412.05
359.122	350.77
359.502	394.18
359.882	394.18
360.261	353.32
360.641	353.32
361.02	368.64
361.399	297.15
361.779	343.11
362.158	409.5
362.537	368.64
362.916	396.73
363.296	345.66
363.675	358.43
364.054	396.73
364.433	350.77
364.812	294.6
365.19	289.49
365.569	294.6
365.948	412.05
366.327	358.43
366.705	366.09
367.084	322.68
367.463	371.2
367.841	332.9
368.22	340.56
368.598	391.62
368.977	251.19
369.355	389.07
369.733	338
370.111	353.32
370.49	312.47
370.868	363.54
371.246	437.59
371.624	422.26
372.002	302.26
372.38	353.32
372.758	409.5
373.136	340.56
373.513	389.07
373.891	317.58
374.269	307.36
374.646	366.09
375.024	383.96
375.402	391.62
375.779	304.81
376.157	355.88
376.534	340.56
376.911	383.96
377.289	302.26
377.666	366.09
378.043	366.09
378.42	424.82
378.797	419.71
379.175	266.51
379.552	447.8
379.929	330.34
380.305	414.6
380.682	345.66
381.059	325.24
381.436	330.34
381.813	399.28
382.189	322.68
382.566	386.52
382.943	340.56
383.319	297.15
383.696	304.81
384.072	292.04
384.448	355.88
384.825	302.26
385.201	335.45
385.577	335.45
385.953	409.5
386.329	386.52
386.706	373.75
387.082	391.62
387.458	350.77
387.834	386.52
388.209	355.88
388.585	338
388.961	373.75
389.337	368.64
389.713	371.2
390.088	381.41
390.464	406.94
390.839	327.79
391.215	366.09
391.59	378.86
391.966	383.96
392.341	350.77
392.716	401.84
393.092	335.45
393.467	366.09
393.842	373.75
394.217	338
394.592	394.18
394.967	396.73
395.342	355.88
395.717	348.22
396.092	284.38
396.467	378.86
396.841	386.52
397.216	325.24
397.591	340.56
397.965	366.09
398.34	371.2
398.714	309.92
399.089	366.09
399.463	348.22
399.838	412.05
400.212	429.93
400.586	338
400.961	386.52
401.335	325.24
401.709	409.5
402.083	340.56
402.457	350.77
402.831	355.88
403.205	447.8
403.579	360.98
403.953	389.07
404.326	363.54
404.7	360.98
405.074	350.77
405.447	363.54
405.821	376.3
406.195	435.03
406.568	399.28
406.942	414.6
407.315	383.96
407.688	406.94
408.062	394.18
408.435	412.05
408.808	322.68
409.181	419.71
409.554	401.84
409.927	373.75
410.3	378.86
410.673	409.5
411.046	442.69
411.419	389.07
411.792	373.75
412.165	401.84
412.537	386.52
412.91	353.32
413.283	366.09
413.655	404.39
414.028	368.64
414.4	381.41
414.773	317.58
415.145	437.59
415.517	353.32
415.889	371.2
416.262	302.26
416.634	391.62
417.006	315.02
417.378	256.3
417.75	404.39
418.122	435.03
418.494	373.75
418.866	386.52
419.238	391.62
419.609	373.75
419.981	399.28
420.353	383.96
420.725	381.41
421.096	353.32
421.468	378.86
421.839	345.66
422.211	399.28
422.582	378.86
422.953	378.86
423.325	381.41
423.696	371.2
424.067	427.37
424.438	458.01
424.809	452.91
425.18	368.64
425.551	399.28
425.922	442.69
426.293	366.09
426.664	409.5
427.035	468.23
427.406	381.41
427.776	414.6
428.147	391.62
428.518	401.84
428.888	381.41
429.259	389.07
429.629	368.64
429.999	399.28
430.37	348.22
430.74	404.39
431.11	391.62
431.481	417.16
431.851	406.94
432.221	320.13
432.591	399.28
432.961	312.47
433.331	371.2
433.701	422.26
434.071	363.54
434.441	371.2
434.81	414.6
435.18	389.07
435.55	399.28
435.919	389.07
436.289	409.5
436.658	404.39
437.028	442.69
437.397	396.73
437.767	406.94
438.136	386.52
438.505	394.18
438.875	378.86
439.244	386.52
439.613	463.12
439.982	406.94
440.351	435.03
440.72	442.69
441.089	437.59
441.458	455.46
441.827	376.3
442.196	414.6
442.564	516.74
442.933	463.12
443.302	348.22
443.67	396.73
444.039	409.5
444.407	363.54
444.776	409.5
445.144	366.09
445.513	401.84
445.881	437.59
446.249	368.64
446.617	376.3
446.986	422.26
447.354	435.03
447.722	442.69
448.09	360.98
448.458	396.73
448.826	486.1
449.194	414.6
449.561	353.32
449.929	358.43
450.297	396.73
450.665	404.39
451.032	440.14
451.4	358.43
451.767	355.88
452.135	406.94
452.502	338
452.87	422.26
453.237	391.62
453.604	422.26
453.971	391.62
454.339	401.84
454.706	358.43
455.073	429.93
455.44	409.5
455.807	368.64
456.174	353.32
456.541	427.37
456.908	391.62
457.274	422.26
457.641	396.73
458.008	378.86
458.374	386.52
458.741	424.82
459.108	424.82
459.474	442.69
459.841	396.73
460.207	401.84
460.573	414.6
460.94	399.28
461.306	429.93
461.672	458.01
462.038	435.03
462.404	394.18
462.771	386.52
463.137	376.3
463.503	437.59
463.868	383.96
464.234	429.93
464.6	371.2
464.966	366.09
465.332	401.84
465.697	394.18
466.063	366.09
466.429	389.07
466.794	335.45
467.16	348.22
467.525	358.43
467.89	304.81
468.256	371.2
468.621	432.48
468.986	391.62
469.351	396.73
469.717	447.8
470.082	399.28
470.447	389.07
470.812	394.18
471.177	376.3
471.542	396.73
471.906	427.37
472.271	371.2
472.636	389.07
473.001	376.3
473.365	406.94
473.73	360.98
474.094	322.68
474.459	284.38
474.823	376.3
475.188	381.41
475.552	373.75
475.917	404.39
476.281	366.09
476.645	335.45
477.009	470.78
477.373	429.93
477.737	440.14
478.101	427.37
478.465	371.2
478.829	396.73
479.193	412.05
479.557	391.62
479.921	335.45
480.284	348.22
480.648	432.48
481.012	435.03
481.375	460.57
481.739	406.94
482.102	376.3
482.466	414.6
482.829	491.21
483.193	381.41
483.556	355.88
483.919	376.3
484.282	389.07
484.645	396.73
485.009	378.86
485.372	350.77
485.735	381.41
486.098	391.62
486.46	355.88
486.823	381.41
487.186	358.43
487.549	404.39
487.912	312.47
488.274	366.09
488.637	332.9
488.999	396.73
489.362	394.18
489.724	389.07
490.087	406.94
490.449	429.93
490.811	391.62
491.174	358.43
491.536	447.8
491.898	463.12
492.26	406.94
492.622	404.39
492.984	391.62
493.346	417.16
493.708	327.79
494.07	335.45
494.432	389.07
494.794	404.39
495.155	396.73
495.517	417.16
495.879	381.41
496.24	422.26
496.602	424.82
496.963	355.88
497.325	376.3
497.686	368.64
498.048	404.39
498.409	440.14
498.77	417.16
499.131	422.26
499.492	442.69
499.854	343.11
500.215	350.77
500.576	345.66
500.937	414.6
501.298	414.6
501.658	440.14
502.019	368.64
502.38	442.69
502.741	399.28
503.101	363.54
503.462	381.41
503.823	412.05
504.183	450.35
504.543	406.94
504.904	419.71
505.264	399.28
505.625	409.5
505.985	447.8
506.345	381.41
506.705	452.91
507.065	330.34
507.426	376.3
507.786	366.09
508.146	383.96
508.505	327.79
508.865	394.18
509.225	340.56
509.585	442.69
509.945	399.28
510.304	493.76
510.664	404.39
511.024	358.43
511.383	383.96
511.743	376.3
512.102	409.5
512.462	389.07
512.821	386.52
513.18	373.75
513.539	391.62
513.899	360.98
514.258	355.88
514.617	366.09
514.976	470.78
515.335	470.78
515.694	440.14
516.053	401.84
516.412	340.56
516.771	447.8
517.129	371.2
517.488	458.01
517.847	419.71
518.205	394.18
518.564	422.26
518.922	383.96
519.281	452.91
519.639	406.94
519.998	445.25
520.356	358.43
520.714	383.96
521.073	409.5
521.431	366.09
521.789	389.07
522.147	437.59
522.505	378.86
522.863	498.87
523.221	432.48
523.579	432.48
523.937	417.16
524.295	427.37
524.652	422.26
525.01	435.03
525.368	399.28
525.725	350.77
526.083	391.62
526.44	409.5
526.798	348.22
527.155	391.62
527.513	419.71
527.87	404.39
528.227	376.3
528.584	355.88
528.942	429.93
529.299	412.05
529.656	409.5
530.013	422.26
530.37	340.56
530.727	452.91
531.083	450.35
531.44	386.52
531.797	373.75
532.154	409.5
532.511	404.39
532.867	345.66
533.224	350.77
533.58	445.25
533.937	360.98
534.293	292.04
534.65	284.38
535.006	414.6
535.362	383.96
535.718	368.64
536.075	399.28
536.431	381.41
536.787	378.86
537.143	378.86
537.499	422.26
537.855	325.24
538.211	435.03
538.567	447.8
538.923	406.94
539.278	389.07
539.634	422.26
539.99	465.67
540.345	406.94
540.701	396.73
541.056	396.73
541.412	414.6
541.767	409.5
542.123	412.05
542.478	458.01
542.833	360.98
543.188	455.46
543.544	483.55
543.899	419.71
544.254	391.62
544.609	343.11
544.964	435.03
545.319	455.46
545.674	371.2
546.029	378.86
546.383	440.14
546.738	445.25
547.093	399.28
547.447	368.64
547.802	458.01
548.157	381.41
548.511	409.5
548.866	447.8
549.22	355.88
549.574	360.98
549.929	440.14
550.283	355.88
550.637	386.52
550.991	442.69
551.345	450.35
551.699	406.94
552.053	360.98
552.407	412.05
552.761	440.14
553.115	422.26
553.469	350.77
553.823	368.64
554.176	317.58
554.53	432.48
554.884	445.25
555.237	690.37
555.591	427.37
555.944	437.59
556.298	373.75
556.651	435.03
557.005	409.5
557.358	417.16
557.711	401.84
558.064	394.18
558.417	378.86
558.771	488.65
559.124	483.55
559.477	455.46
559.83	424.82
560.182	376.3
560.535	401.84
560.888	424.82
561.241	424.82
561.594	343.11
561.946	437.59
562.299	445.25
562.651	399.28
563.004	297.15
563.356	378.86
563.709	447.8
564.061	424.82
564.413	478.44
564.766	371.2
565.118	437.59
565.47	452.91
565.822	399.28
566.174	401.84
566.526	419.71
566.878	371.2
567.23	378.86
567.582	406.94
567.934	419.71
568.286	371.2
568.638	353.32
568.989	396.73
569.341	442.69
569.693	417.16
570.044	373.75
570.396	409.5
570.747	463.12
571.098	460.57
571.45	381.41
571.801	409.5
572.152	432.48
572.504	399.28
572.855	345.66
573.206	440.14
573.557	386.52
573.908	368.64
574.259	417.16
574.61	386.52
574.961	355.88
575.311	422.26
575.662	447.8
576.013	447.8
576.364	417.16
576.714	350.77
577.065	383.96
577.415	386.52
577.766	345.66
578.116	447.8
578.467	368.64
578.817	389.07
579.167	376.3
579.518	468.23
579.868	406.94
580.218	304.81
580.568	412.05
580.918	386.52
581.268	320.13
581.618	371.2
581.968	401.84
582.318	373.75
582.668	350.77
583.017	368.64
583.367	373.75
583.717	424.82
584.066	409.5
584.416	389.07
584.765	376.3
585.115	435.03
585.464	409.5
585.814	396.73
586.163	401.84
586.512	381.41
586.862	383.96
587.211	432.48
587.56	360.98
587.909	363.54
588.258	419.71
588.607	445.25
588.956	409.5
589.305	363.54
589.654	389.07
590.002	381.41
590.351	414.6
590.7	386.52
591.048	394.18
591.397	391.62
591.746	394.18
592.094	419.71
592.443	366.09
592.791	368.64
593.139	404.39
593.488	394.18
593.836	371.2
594.184	417.16
594.532	417.16
594.88	445.25
595.228	373.75
595.576	383.96
595.924	437.59
596.272	401.84
596.62	409.5
596.968	419.71
597.316	460.57
597.664	427.37
598.011	404.39
598.359	401.84
598.706	391.62
599.054	391.62
599.402	396.73
599.749	389.07
600.096	378.86
600.444	440.14
600.791	450.35
601.138	427.37
601.485	417.16
601.833	386.52
602.18	376.3
602.527	412.05
602.874	325.24
603.221	417.16
603.568	366.09
603.914	381.41
604.261	450.35
604.608	412.05
604.955	396.73
605.301	391.62
605.648	450.35
605.995	376.3
606.341	368.64
606.688	391.62
607.034	358.43
607.38	376.3
607.727	294.6
608.073	371.2
608.419	383.96
608.765	412.05
609.112	401.84
609.458	371.2
609.804	414.6
610.15	450.35
610.496	373.75
610.842	394.18
611.187	368.64
611.533	389.07
611.879	412.05
612.225	460.57
612.57	368.64
612.916	386.52
613.261	366.09
613.607	404.39
613.952	386.52
614.298	468.23
614.643	442.69
614.989	381.41
615.334	470.78
615.679	427.37
616.024	386.52
616.369	409.5
616.714	383.96
617.059	340.56
617.404	401.84
617.749	386.52
618.094	350.77
618.439	322.68
618.784	332.9
619.129	409.5
619.473	422.26
619.818	394.18
620.163	373.75
620.507	409.5
620.852	371.2
621.196	419.71
621.54	435.03
621.885	343.11
622.229	340.56
622.573	378.86
622.918	452.91
623.262	409.5
623.606	378.86
623.95	363.54
624.294	417.16
624.638	358.43
624.982	366.09
625.326	406.94
625.67	373.75
626.013	401.84
626.357	478.44
626.701	386.52
627.044	422.26
627.388	363.54
627.731	450.35
628.075	417.16
628.418	391.62
628.762	358.43
629.105	327.79
629.448	371.2
629.792	417.16
630.135	358.43
630.478	340.56
630.821	315.02
631.164	424.82
631.507	401.84
631.85	401.84
632.193	435.03
632.536	417.16
632.879	373.75
633.221	399.28
633.564	440.14
633.907	445.25
634.249	406.94
634.592	363.54
634.935	376.3
635.277	360.98
635.619	327.79
635.962	463.12
636.304	424.82
636.646	432.48
636.989	373.75
637.331	432.48
637.673	363.54
638.015	404.39
638.357	373.75
638.699	368.64
639.041	383.96
639.383	338
639.725	363.54
640.067	409.5
640.408	412.05
640.75	378.86
641.092	442.69
641.433	445.25
641.775	412.05
642.116	389.07
642.458	417.16
642.799	338
643.141	358.43
643.482	368.64
643.823	340.56
644.164	427.37
644.506	534.61
644.847	412.05
645.188	391.62
645.529	353.32
645.87	360.98
646.211	378.86
646.552	343.11
646.893	348.22
647.233	389.07
647.574	389.07
647.915	406.94
648.255	450.35
648.596	458.01
648.937	432.48
649.277	417.16
649.618	406.94
649.958	376.3
650.298	447.8
650.639	394.18
650.979	391.62
651.319	366.09
651.659	412.05
651.999	325.24
652.339	394.18
652.679	409.5
653.019	371.2
653.359	394.18
653.699	304.81
654.039	373.75
654.379	437.59
654.719	404.39
655.058	460.57
655.398	452.91
655.737	475.89
656.077	422.26
656.416	389.07
656.756	391.62
657.095	343.11
657.435	368.64
657.774	343.11
658.113	396.73
658.452	358.43
658.792	394.18
659.131	401.84
659.47	338
659.809	396.73
660.148	478.44
660.487	491.21
660.826	373.75
661.164	412.05
661.503	401.84
661.842	406.94
662.181	427.37
662.519	378.86
662.858	368.64
663.196	414.6
663.535	376.3
663.873	345.66
664.212	401.84
664.55	452.91
664.888	414.6
665.226	412.05
665.565	396.73
665.903	649.52
666.241	455.46
666.579	460.57
666.917	353.32
667.255	447.8
667.593	429.93
667.931	404.39
668.268	417.16
668.606	368.64
668.944	345.66
669.282	315.02
669.619	440.14
669.957	427.37
670.294	360.98
670.632	427.37
670.969	422.26
671.307	381.41
671.644	422.26
671.981	378.86
672.318	355.88
672.656	445.25
672.993	348.22
673.33	455.46
673.667	360.98
674.004	422.26
674.341	383.96
674.678	376.3
675.015	445.25
675.351	373.75
675.688	312.47
676.025	373.75
676.362	437.59
676.698	383.96
677.035	332.9
677.371	312.47
677.708	409.5
678.044	391.62
678.38	440.14
678.717	373.75
679.053	348.22
679.389	355.88
679.725	378.86
680.062	401.84
680.398	332.9
680.734	376.3
681.07	401.84
681.406	366.09
681.742	404.39
682.077	378.86
682.413	340.56
682.749	414.6
683.085	315.02
683.42	353.32
683.756	376.3
684.091	363.54
684.427	455.46
684.762	406.94
685.098	409.5
685.433	360.98
685.768	358.43
686.104	450.35
686.439	437.59
686.774	412.05
687.109	368.64
687.444	376.3
687.779	386.52
688.114	381.41
688.449	404.39
688.784	376.3
689.119	406.94
689.454	386.52
689.789	470.78
690.123	435.03
690.458	381.41
690.792	391.62
691.127	376.3
691.461	335.45
691.796	373.75
692.13	404.39
692.465	429.93
692.799	401.84
693.133	432.48
693.467	332.9
693.802	389.07
694.136	417.16
694.47	414.6
694.804	312.47
695.138	358.43
695.472	406.94
695.806	366.09
696.139	435.03
696.473	409.5
696.807	417.16
697.141	381.41
697.474	376.3
697.808	440.14
698.141	386.52
698.475	366.09
698.808	409.5
699.142	401.84
699.475	366.09
699.808	422.26
700.142	340.56
700.475	330.34
700.808	419.71
701.141	396.73
701.474	389.07
701.807	363.54
702.14	399.28
702.473	473.33
702.806	355.88
703.139	417.16
703.472	409.5
703.804	371.2
704.137	414.6
704.47	442.69
704.802	422.26
705.135	412.05
705.467	368.64
705.8	373.75
706.132	383.96
706.464	429.93
706.797	394.18
707.129	406.94
707.461	435.03
707.793	419.71
708.125	345.66
708.457	378.86
708.789	376.3
709.121	440.14
709.453	381.41
709.785	366.09
710.117	366.09
710.449	320.13
710.781	437.59
711.112	440.14
711.444	447.8
711.775	386.52
712.107	414.6
712.438	381.41
712.77	386.52
713.101	412.05
713.433	401.84
713.764	414.6
714.095	404.39
714.426	396.73
714.757	378.86
715.089	409.5
715.42	363.54
715.751	399.28
716.082	391.62
716.412	412.05
716.743	355.88
717.074	394.18
717.405	422.26
717.736	383.96
718.066	475.89
718.397	412.05
718.727	378.86
719.058	373.75
719.388	389.07
719.719	317.58
720.049	373.75
720.38	391.62
720.71	394.18
721.04	376.3
721.37	401.84
721.7	348.22
722.031	419.71
722.361	419.71
722.691	366.09
723.021	414.6
723.35	417.16
723.68	422.26
724.01	371.2
724.34	412.05
724.67	424.82
724.999	366.09
725.329	353.32
725.658	404.39
725.988	419.71
726.317	373.75
726.647	376.3
726.976	343.11
727.306	394.18
727.635	355.88
727.964	450.35
728.293	376.3
728.622	414.6
728.952	378.86
729.281	350.77
729.61	376.3
729.939	422.26
730.267	368.64
730.596	360.98
730.925	440.14
731.254	360.98
731.583	399.28
731.911	442.69
732.24	368.64
732.568	360.98
732.897	343.11
733.225	350.77
733.554	353.32
733.882	345.66
734.21	368.64
734.539	383.96
734.867	394.18
735.195	419.71
735.523	396.73
735.851	304.81
736.179	363.54
736.507	429.93
736.835	315.02
737.163	406.94
737.491	396.73
737.819	389.07
738.147	366.09
738.474	315.02
738.802	437.59
739.13	355.88
739.457	406.94
739.785	396.73
740.112	330.34
740.44	386.52
740.767	340.56
741.094	376.3
741.422	335.45
741.749	394.18
742.076	417.16
742.403	383.96
742.73	468.23
743.057	396.73
743.384	348.22
743.711	391.62
744.038	322.68
744.365	366.09
744.692	391.62
745.018	381.41
745.345	383.96
745.672	363.54
745.998	473.33
746.325	465.67
746.651	353.32
746.978	445.25
747.304	429.93
747.631	445.25
747.957	399.28
748.283	480.99
748.61	394.18
748.936	350.77
749.262	424.82
749.588	417.16
749.914	406.94
750.24	353.32
750.566	378.86
750.892	389.07
751.218	417.16
751.543	412.05
751.869	394.18
752.195	381.41
752.521	427.37
752.846	412.05
753.172	414.6
753.497	353.32
753.823	394.18
754.148	360.98
754.473	368.64
754.799	414.6
755.124	399.28
755.449	353.32
755.774	373.75
756.1	386.52
756.425	399.28
756.75	417.16
757.075	358.43
757.4	506.53
757.724	422.26
758.049	412.05
758.374	458.01
758.699	447.8
759.024	460.57
759.348	419.71
759.673	378.86
759.997	422.26
760.322	360.98
760.646	376.3
760.971	422.26
761.295	412.05
761.619	470.78
761.944	475.89
762.268	447.8
762.592	491.21
762.916	526.95
763.24	473.33
763.564	521.85
763.888	549.93
764.212	738.88
764.536	705.69
764.86	705.69
765.184	784.84
765.508	815.49
765.831	828.25
766.155	1050.4
766.478	881.87
766.802	800.16
767.126	795.06
767.449	733.78
767.772	718.46
768.096	680.16
768.419	669.94
768.742	606.11
769.066	544.83
769.389	583.13
769.712	639.3
770.035	751.65
770.358	726.12
770.681	976.35
771.004	1081.04
771.327	1313.39
771.65	1415.53
771.972	1566.18
772.295	1941.52
772.618	2291.34
772.941	2559.44
773.263	2916.92
773.586	3289.71
773.908	3634.41
774.231	3703.36
774.553	3749.32
774.875	3744.21
775.198	4012.31
775.52	3583.35
775.842	3519.51
776.164	3077.78
776.487	2881.17
776.809	2914.36
777.131	2740.73
777.453	2498.16
777.775	2334.75
778.096	2071.75
778.418	1788.32
778.74	1517.66
779.062	1298.07
779.384	1083.59
779.705	963.58
780.027	1014.65
780.348	1073.38
780.67	1101.46
780.991	1387.44
781.313	1752.57
781.634	2161.12
781.955	2582.42
782.277	3031.82
782.598	3537.39
782.919	3795.28
783.24	4290.63
783.561	4906
783.882	5171.55
784.203	5511.15
784.524	5424.33
784.845	5620.94
785.166	6057.57
785.487	6455.9
785.807	6716.34
786.128	6662.72
786.449	6481.43
786.769	6356.32
787.09	6269.5
787.41	6246.52
787.731	6333.33
788.051	6333.33
788.372	6149.49
788.692	5820.11
789.012	5071.97
789.332	4267.65
789.653	3925.5
789.973	3562.92
790.293	3026.71
790.613	2212.18
790.933	1790.88
791.253	1614.69
791.573	1285.31
791.893	976.35
792.212	838.47
792.532	874.21
792.852	973.79
793.171	1305.73
793.491	1645.33
793.811	2097.28
794.13	2513.48
794.45	2865.85
794.769	3440.36
795.088	4139.98
795.408	4556.18
795.727	5672.01
796.046	7068.71
796.365	7959.84
796.684	8294.33
797.004	8138.57
797.323	8805
797.642	9665.49
797.96	9438.24
798.279	9098.64
798.598	8843.31
798.917	8889.27
799.236	8513.92
799.554	8240.71
799.873	7694.29
800.192	7112.12
800.51	6956.36
800.829	6318.01
801.147	5723.08
801.466	4913.66
