Data from 2025-12-03_xpw_interference_micrometer_631_FLMS141361__86__636.txt Node

Date: Wed Dec 03 15:54:13 MST 2025
User: james
Spectrometer: FLMS14136
Trigger mode: 0
Integration Time (sec): 1.000000E-1
Scans to average: 1
Electric dark correction enabled: true
Nonlinearity correction enabled: false
Boxcar width: 0
XAxis mode: Wavelengths
Number of Pixels in Spectrum: 2048
>>>>>Begin Spectral Data<<<<<
339.315	-7.02
339.697	-7.02
340.079	-7.02
340.461	-124.48
340.843	-116.82
341.225	-96.39
341.607	-106.6
341.989	-170.44
342.371	-104.05
342.752	-52.98
343.134	-98.94
343.516	-32.56
343.897	10.85
344.279	-22.34
344.661	13.41
345.042	87.45
345.423	141.07
345.805	112.99
346.186	84.9
346.567	123.2
346.949	110.43
347.33	187.03
347.711	199.8
348.092	164.05
348.473	174.27
348.854	248.32
349.235	255.98
349.616	284.06
349.997	312.15
350.378	215.12
350.758	332.58
351.139	312.15
351.52	324.92
351.9	365.77
352.281	368.32
352.661	340.24
353.042	360.66
353.422	381.09
353.803	457.69
354.183	455.14
354.563	368.32
354.943	358.11
355.324	439.82
355.704	437.27
356.084	411.73
356.464	378.54
356.844	424.5
357.224	398.97
357.603	375.98
357.983	409.18
358.363	409.18
358.743	345.34
359.122	383.65
359.502	416.84
359.882	337.68
360.261	383.65
360.641	391.31
361.02	278.96
361.399	319.81
361.779	301.94
362.158	391.31
362.537	327.47
362.916	393.86
363.296	317.26
363.675	411.73
364.054	398.97
364.433	342.79
364.812	345.34
365.19	271.3
365.569	383.65
365.948	358.11
366.327	370.88
366.705	284.06
367.084	365.77
367.463	289.17
367.841	378.54
368.22	378.54
368.598	355.56
368.977	391.31
369.355	383.65
369.733	327.47
370.111	398.97
370.49	427.05
370.868	383.65
371.246	304.49
371.624	393.86
372.002	353
372.38	278.96
372.758	289.17
373.136	411.73
373.513	370.88
373.891	365.77
374.269	419.39
374.646	368.32
375.024	342.79
375.402	388.75
375.779	365.77
376.157	307.04
376.534	286.62
376.911	330.02
377.289	353
377.666	340.24
378.043	337.68
378.42	342.79
378.797	393.86
379.175	381.09
379.552	368.32
379.929	301.94
380.305	386.2
380.682	401.52
381.059	368.32
381.436	378.54
381.813	324.92
382.189	299.38
382.566	291.72
382.943	393.86
383.319	383.65
383.696	365.77
384.072	337.68
384.448	360.66
384.825	386.2
385.201	350.45
385.577	330.02
385.953	353
386.329	373.43
386.706	406.63
387.082	368.32
387.458	332.58
387.834	391.31
388.209	396.41
388.585	391.31
388.961	393.86
389.337	401.52
389.713	337.68
390.088	319.81
390.464	383.65
390.839	370.88
391.215	353
391.59	398.97
391.966	363.22
392.341	330.02
392.716	347.9
393.092	335.13
393.467	363.22
393.842	355.56
394.217	393.86
394.592	317.26
394.967	319.81
395.342	330.02
395.717	365.77
396.092	391.31
396.467	419.39
396.841	378.54
397.216	358.11
397.591	370.88
397.965	393.86
398.34	398.97
398.714	347.9
399.089	342.79
399.463	480.67
399.838	350.45
400.212	358.11
400.586	388.75
400.961	365.77
401.335	393.86
401.709	337.68
402.083	388.75
402.457	363.22
402.831	340.24
403.205	401.52
403.579	398.97
403.953	378.54
404.326	375.98
404.7	383.65
405.074	398.97
405.447	455.14
405.821	393.86
406.195	401.52
406.568	396.41
406.942	434.71
407.315	335.13
407.688	355.56
408.062	393.86
408.435	360.66
408.808	314.7
409.181	381.09
409.554	391.31
409.927	437.27
410.3	388.75
410.673	386.2
411.046	393.86
411.419	363.22
411.792	360.66
412.165	373.43
412.537	401.52
412.91	391.31
413.283	437.27
413.655	363.22
414.028	375.98
414.4	332.58
414.773	393.86
415.145	324.92
415.517	381.09
415.889	375.98
416.262	396.41
416.634	370.88
417.006	375.98
417.378	409.18
417.75	406.63
418.122	508.76
418.494	393.86
418.866	381.09
419.238	261.08
419.609	483.23
419.981	391.31
420.353	365.77
420.725	368.32
421.096	406.63
421.468	342.79
421.839	358.11
422.211	432.16
422.582	404.07
422.953	406.63
423.325	386.2
423.696	347.9
424.067	342.79
424.438	335.13
424.809	365.77
425.18	406.63
425.551	368.32
425.922	360.66
426.293	314.7
426.664	401.52
427.035	401.52
427.406	383.65
427.776	439.82
428.147	416.84
428.518	404.07
428.888	404.07
429.259	370.88
429.629	404.07
429.999	437.27
430.37	370.88
430.74	335.13
431.11	429.61
431.481	421.95
431.851	401.52
432.221	414.29
432.591	375.98
432.961	368.32
433.331	363.22
433.701	429.61
434.071	432.16
434.441	457.69
434.81	393.86
435.18	386.2
435.55	444.93
435.919	434.71
436.289	381.09
436.658	375.98
437.028	421.95
437.397	411.73
437.767	375.98
438.136	383.65
438.505	386.2
438.875	404.07
439.244	450.03
439.613	406.63
439.982	421.95
440.351	401.52
440.72	462.8
441.089	414.29
441.458	447.48
441.827	429.61
442.196	424.5
442.564	516.42
442.933	442.37
443.302	401.52
443.67	383.65
444.039	406.63
444.407	452.59
444.776	383.65
445.144	409.18
445.513	365.77
445.881	365.77
446.249	419.39
446.617	432.16
446.986	455.14
447.354	421.95
447.722	427.05
448.09	368.32
448.458	434.71
448.826	442.37
449.194	347.9
449.561	411.73
449.929	434.71
450.297	365.77
450.665	363.22
451.032	414.29
451.4	317.26
451.767	406.63
452.135	432.16
452.502	416.84
452.87	355.56
453.237	429.61
453.604	350.45
453.971	434.71
454.339	416.84
454.706	411.73
455.073	424.5
455.44	363.22
455.807	391.31
456.174	432.16
456.541	368.32
456.908	401.52
457.274	416.84
457.641	358.11
458.008	378.54
458.374	378.54
458.741	429.61
459.108	375.98
459.474	378.54
459.841	393.86
460.207	398.97
460.573	378.54
460.94	427.05
461.306	444.93
461.672	381.09
462.038	424.5
462.404	419.39
462.771	406.63
463.137	386.2
463.503	424.5
463.868	427.05
464.234	419.39
464.6	370.88
464.966	365.77
465.332	432.16
465.697	355.56
466.063	373.43
466.429	398.97
466.794	396.41
467.16	388.75
467.525	396.41
467.89	442.37
468.256	470.46
468.621	457.69
468.986	363.22
469.351	432.16
469.717	455.14
470.082	455.14
470.447	411.73
470.812	432.16
471.177	383.65
471.542	401.52
471.906	437.27
472.271	439.82
472.636	439.82
473.001	396.41
473.365	363.22
473.73	442.37
474.094	414.29
474.459	322.36
474.823	447.48
475.188	421.95
475.552	378.54
475.917	452.59
476.281	406.63
476.645	396.41
477.009	460.25
477.373	312.15
477.737	424.5
478.101	375.98
478.465	406.63
478.829	368.32
479.193	386.2
479.557	416.84
479.921	452.59
480.284	442.37
480.648	455.14
481.012	365.77
481.375	411.73
481.739	424.5
482.102	414.29
482.466	386.2
482.829	493.44
483.193	398.97
483.556	381.09
483.919	381.09
484.282	391.31
484.645	409.18
485.009	353
485.372	383.65
485.735	414.29
486.098	470.46
486.46	434.71
486.823	381.09
487.186	457.69
487.549	457.69
487.912	404.07
488.274	401.52
488.637	373.43
488.999	411.73
489.362	437.27
489.724	375.98
490.087	404.07
490.449	401.52
490.811	460.25
491.174	381.09
491.536	421.95
491.898	437.27
492.26	414.29
492.622	363.22
492.984	378.54
493.346	429.61
493.708	452.59
494.07	381.09
494.432	386.2
494.794	398.97
495.155	429.61
495.517	424.5
495.879	439.82
496.24	432.16
496.602	393.86
496.963	409.18
497.325	381.09
497.686	444.93
498.048	419.39
498.409	401.52
498.77	378.54
499.131	388.75
499.492	437.27
499.854	398.97
500.215	409.18
500.576	398.97
500.937	409.18
501.298	401.52
501.658	439.82
502.019	434.71
502.38	429.61
502.741	444.93
503.101	455.14
503.462	393.86
503.823	447.48
504.183	424.5
504.543	386.2
504.904	365.77
505.264	386.2
505.625	427.05
505.985	488.33
506.345	437.27
506.705	462.8
507.065	488.33
507.426	411.73
507.786	437.27
508.146	355.56
508.505	439.82
508.865	416.84
509.225	383.65
509.585	539.4
509.945	381.09
510.304	383.65
510.664	370.88
511.024	416.84
511.383	421.95
511.743	424.5
512.102	396.41
512.462	424.5
512.821	416.84
513.18	404.07
513.539	427.05
513.899	406.63
514.258	406.63
514.617	381.09
514.976	427.05
515.335	401.52
515.694	350.45
516.053	457.69
516.412	393.86
516.771	427.05
517.129	393.86
517.488	450.03
517.847	381.09
518.205	396.41
518.564	421.95
518.922	330.02
519.281	378.54
519.639	398.97
519.998	345.34
520.356	388.75
520.714	495.99
521.073	414.29
521.431	393.86
521.789	345.34
522.147	393.86
522.505	411.73
522.863	375.98
523.221	452.59
523.579	427.05
523.937	365.77
524.295	439.82
524.652	442.37
525.01	414.29
525.368	462.8
525.725	473.01
526.083	424.5
526.44	434.71
526.798	386.2
527.155	398.97
527.513	414.29
527.87	391.31
528.227	427.05
528.584	432.16
528.942	393.86
529.299	401.52
529.656	434.71
530.013	478.12
530.37	429.61
530.727	355.56
531.083	450.03
531.44	381.09
531.797	498.55
532.154	434.71
532.511	421.95
532.867	393.86
533.224	414.29
533.58	406.63
533.937	416.84
534.293	368.32
534.65	462.8
535.006	411.73
535.362	345.34
535.718	411.73
536.075	358.11
536.431	368.32
536.787	347.9
537.143	350.45
537.499	347.9
537.855	383.65
538.211	485.78
538.567	495.99
538.923	470.46
539.278	434.71
539.634	396.41
539.99	432.16
540.345	386.2
540.701	424.5
541.056	386.2
541.412	401.52
541.767	373.43
542.123	391.31
542.478	360.66
542.833	432.16
543.188	409.18
543.544	386.2
543.899	373.43
544.254	429.61
544.609	434.71
544.964	424.5
545.319	365.77
545.674	370.88
546.029	358.11
546.383	452.59
546.738	432.16
547.093	396.41
547.447	414.29
547.802	373.43
548.157	414.29
548.511	444.93
548.866	370.88
549.22	411.73
549.574	396.41
549.929	421.95
550.283	375.98
550.637	419.39
550.991	414.29
551.345	319.81
551.699	460.25
552.053	416.84
552.407	383.65
552.761	396.41
553.115	450.03
553.469	378.54
553.823	432.16
554.176	442.37
554.53	416.84
554.884	378.54
555.237	746.22
555.591	450.03
555.944	393.86
556.298	375.98
556.651	388.75
557.005	388.75
557.358	414.29
557.711	375.98
558.064	381.09
558.417	347.9
558.771	490.89
559.124	473.01
559.477	396.41
559.83	434.71
560.182	409.18
560.535	480.67
560.888	347.9
561.241	442.37
561.594	381.09
561.946	404.07
562.299	378.54
562.651	363.22
563.004	455.14
563.356	439.82
563.709	401.52
564.061	419.39
564.413	457.69
564.766	421.95
565.118	404.07
565.47	419.39
565.822	455.14
566.174	401.52
566.526	450.03
566.878	478.12
567.23	398.97
567.582	391.31
567.934	353
568.286	419.39
568.638	401.52
568.989	424.5
569.341	414.29
569.693	442.37
570.044	465.35
570.396	419.39
570.747	427.05
571.098	427.05
571.45	388.75
571.801	381.09
572.152	409.18
572.504	437.27
572.855	432.16
573.206	419.39
573.557	409.18
573.908	327.47
574.259	416.84
574.61	414.29
574.961	383.65
575.311	393.86
575.662	444.93
576.013	467.91
576.364	416.84
576.714	416.84
577.065	391.31
577.415	386.2
577.766	386.2
578.116	442.37
578.467	330.02
578.817	301.94
579.167	406.63
579.518	401.52
579.868	409.18
580.218	419.39
580.568	437.27
580.918	467.91
581.268	398.97
581.618	444.93
581.968	368.32
582.318	391.31
582.668	452.59
583.017	424.5
583.367	437.27
583.717	475.57
584.066	404.07
584.416	434.71
584.765	381.09
585.115	365.77
585.464	467.91
585.814	467.91
586.163	421.95
586.512	363.22
586.862	401.52
587.211	437.27
587.56	452.59
587.909	398.97
588.258	452.59
588.607	398.97
588.956	427.05
589.305	404.07
589.654	450.03
590.002	414.29
590.351	409.18
590.7	370.88
591.048	421.95
591.397	398.97
591.746	396.41
592.094	393.86
592.443	439.82
592.791	393.86
593.139	383.65
593.488	452.59
593.836	411.73
594.184	383.65
594.532	360.66
594.88	381.09
595.228	439.82
595.576	424.5
595.924	503.65
596.272	434.71
596.62	368.32
596.968	450.03
597.316	416.84
597.664	444.93
598.011	381.09
598.359	404.07
598.706	460.25
599.054	427.05
599.402	401.52
599.749	388.75
600.096	375.98
600.444	424.5
600.791	467.91
601.138	424.5
601.485	429.61
601.833	406.63
602.18	406.63
602.527	447.48
602.874	391.31
603.221	358.11
603.568	488.33
603.914	452.59
604.261	360.66
604.608	455.14
604.955	404.07
605.301	350.45
605.648	404.07
605.995	414.29
606.341	350.45
606.688	452.59
607.034	511.31
607.38	375.98
607.727	375.98
608.073	409.18
608.419	490.89
608.765	444.93
609.112	370.88
609.458	416.84
609.804	414.29
610.15	398.97
610.496	483.23
610.842	439.82
611.187	457.69
611.533	488.33
611.879	465.35
612.225	322.36
612.57	419.39
612.916	375.98
613.261	386.2
613.607	396.41
613.952	437.27
614.298	460.25
614.643	421.95
614.989	462.8
615.334	442.37
615.679	406.63
616.024	368.32
616.369	414.29
616.714	414.29
617.059	429.61
617.404	406.63
617.749	393.86
618.094	442.37
618.439	391.31
618.784	368.32
619.129	401.52
619.473	340.24
619.818	363.22
620.163	388.75
620.507	373.43
620.852	414.29
621.196	439.82
621.54	396.41
621.885	388.75
622.229	391.31
622.573	411.73
622.918	475.57
623.262	442.37
623.606	353
623.95	378.54
624.294	363.22
624.638	437.27
624.982	424.5
625.326	386.2
625.67	373.43
626.013	421.95
626.357	442.37
626.701	375.98
627.044	396.41
627.388	370.88
627.731	414.29
628.075	378.54
628.418	396.41
628.762	375.98
629.105	383.65
629.448	421.95
629.792	383.65
630.135	442.37
630.478	391.31
630.821	365.77
631.164	439.82
631.507	401.52
631.85	378.54
632.193	373.43
632.536	421.95
632.879	424.5
633.221	414.29
633.564	439.82
633.907	421.95
634.249	383.65
634.592	391.31
634.935	396.41
635.277	434.71
635.619	429.61
635.962	442.37
636.304	414.29
636.646	360.66
636.989	401.52
637.331	434.71
637.673	419.39
638.015	427.05
638.357	414.29
638.699	455.14
639.041	437.27
639.383	439.82
639.725	421.95
640.067	406.63
640.408	452.59
640.75	406.63
641.092	404.07
641.433	378.54
641.775	427.05
642.116	414.29
642.458	473.01
642.799	437.27
643.141	444.93
643.482	483.23
643.823	365.77
644.164	444.93
644.506	447.48
644.847	457.69
645.188	373.43
645.529	360.66
645.87	386.2
646.211	411.73
646.552	396.41
646.893	370.88
647.233	419.39
647.574	355.56
647.915	414.29
648.255	411.73
648.596	393.86
648.937	404.07
649.277	406.63
649.618	365.77
649.958	414.29
650.298	386.2
650.639	355.56
650.979	396.41
651.319	396.41
651.659	355.56
651.999	411.73
652.339	355.56
652.679	365.77
653.019	381.09
653.359	416.84
653.699	388.75
654.039	442.37
654.379	360.66
654.719	353
655.058	365.77
655.398	439.82
655.737	475.57
656.077	455.14
656.416	396.41
656.756	381.09
657.095	404.07
657.435	467.91
657.774	335.13
658.113	335.13
658.452	373.43
658.792	375.98
659.131	427.05
659.47	421.95
659.809	427.05
660.148	345.34
660.487	396.41
660.826	406.63
661.164	378.54
661.503	375.98
661.842	411.73
662.181	432.16
662.519	309.6
662.858	373.43
663.196	396.41
663.535	414.29
663.873	409.18
664.212	388.75
664.55	375.98
664.888	437.27
665.226	421.95
665.565	434.71
665.903	506.21
666.241	437.27
666.579	427.05
666.917	429.61
667.255	457.69
667.593	355.56
667.931	411.73
668.268	416.84
668.606	347.9
668.944	386.2
669.282	370.88
669.619	393.86
669.957	442.37
670.294	398.97
670.632	401.52
670.969	450.03
671.307	370.88
671.644	358.11
671.981	414.29
672.318	368.32
672.656	393.86
672.993	363.22
673.33	485.78
673.667	462.8
674.004	363.22
674.341	452.59
674.678	406.63
675.015	345.34
675.351	353
675.688	396.41
676.025	368.32
676.362	391.31
676.698	340.24
677.035	432.16
677.371	462.8
677.708	383.65
678.044	337.68
678.38	322.36
678.717	332.58
679.053	404.07
679.389	289.17
679.725	404.07
680.062	421.95
680.398	457.69
680.734	462.8
681.07	439.82
681.406	396.41
681.742	378.54
682.077	401.52
682.413	455.14
682.749	398.97
683.085	447.48
683.42	439.82
683.756	439.82
684.091	381.09
684.427	424.5
684.762	416.84
685.098	368.32
685.433	404.07
685.768	398.97
686.104	396.41
686.439	432.16
686.774	368.32
687.109	345.34
687.444	337.68
687.779	391.31
688.114	501.1
688.449	475.57
688.784	406.63
689.119	373.43
689.454	444.93
689.789	383.65
690.123	375.98
690.458	350.45
690.792	432.16
691.127	396.41
691.461	442.37
691.796	330.02
692.13	368.32
692.465	373.43
692.799	406.63
693.133	368.32
693.467	409.18
693.802	409.18
694.136	396.41
694.47	478.12
694.804	444.93
695.138	424.5
695.472	378.54
695.806	391.31
696.139	493.44
696.473	411.73
696.807	416.84
697.141	404.07
697.474	414.29
697.808	470.46
698.141	419.39
698.475	447.48
698.808	386.2
699.142	345.34
699.475	327.47
699.808	388.75
700.142	452.59
700.475	416.84
700.808	421.95
701.141	429.61
701.474	419.39
701.807	337.68
702.14	350.45
702.473	414.29
702.806	480.67
703.139	388.75
703.472	439.82
703.804	414.29
704.137	391.31
704.47	450.03
704.802	358.11
705.135	409.18
705.467	442.37
705.8	465.35
706.132	409.18
706.464	398.97
706.797	368.32
707.129	419.39
707.461	421.95
707.793	378.54
708.125	353
708.457	373.43
708.789	419.39
709.121	424.5
709.453	414.29
709.785	330.02
710.117	355.56
710.449	363.22
710.781	462.8
711.112	391.31
711.444	455.14
711.775	467.91
712.107	421.95
712.438	455.14
712.77	475.57
713.101	350.45
713.433	406.63
713.764	312.15
714.095	421.95
714.426	375.98
714.757	342.79
715.089	386.2
715.42	432.16
715.751	378.54
716.082	375.98
716.412	416.84
716.743	324.92
717.074	363.22
717.405	393.86
717.736	427.05
718.066	365.77
718.397	360.66
718.727	355.56
719.058	432.16
719.388	416.84
719.719	416.84
720.049	424.5
720.38	447.48
720.71	393.86
721.04	406.63
721.37	375.98
721.7	457.69
722.031	386.2
722.361	411.73
722.691	370.88
723.021	452.59
723.35	467.91
723.68	401.52
724.01	358.11
724.34	455.14
724.67	353
724.999	386.2
725.329	353
725.658	388.75
725.988	457.69
726.317	360.66
726.647	330.02
726.976	447.48
727.306	378.54
727.635	386.2
727.964	373.43
728.293	455.14
728.622	447.48
728.952	414.29
729.281	416.84
729.61	370.88
729.939	370.88
730.267	370.88
730.596	360.66
730.925	355.56
731.254	363.22
731.583	383.65
731.911	398.97
732.24	388.75
732.568	355.56
732.897	421.95
733.225	335.13
733.554	429.61
733.882	475.57
734.21	396.41
734.539	353
734.867	340.24
735.195	383.65
735.523	370.88
735.851	416.84
736.179	355.56
736.507	383.65
736.835	381.09
737.163	409.18
737.491	432.16
737.819	427.05
738.147	370.88
738.474	378.54
738.802	409.18
739.13	490.89
739.457	391.31
739.785	434.71
740.112	455.14
740.44	388.75
740.767	378.54
741.094	337.68
741.422	304.49
741.749	381.09
742.076	368.32
742.403	353
742.73	388.75
743.057	411.73
743.384	404.07
743.711	398.97
744.038	411.73
744.365	409.18
744.692	409.18
745.018	360.66
745.345	373.43
745.672	444.93
745.998	419.39
746.325	424.5
746.651	414.29
746.978	462.8
747.304	319.81
747.631	373.43
747.957	381.09
748.283	391.31
748.61	398.97
748.936	444.93
749.262	427.05
749.588	434.71
749.914	353
750.24	373.43
750.566	467.91
750.892	355.56
751.218	396.41
751.543	350.45
751.869	375.98
752.195	396.41
752.521	421.95
752.846	340.24
753.172	424.5
753.497	406.63
753.823	406.63
754.148	424.5
754.473	398.97
754.799	437.27
755.124	406.63
755.449	386.2
755.774	442.37
756.1	358.11
756.425	391.31
756.75	442.37
757.075	375.98
757.4	506.21
757.724	404.07
758.049	383.65
758.374	353
758.699	391.31
759.024	386.2
759.348	386.2
759.673	365.77
759.997	421.95
760.322	373.43
760.646	381.09
760.971	411.73
761.295	467.91
761.619	409.18
761.944	467.91
762.268	465.35
762.592	470.46
762.916	473.01
763.24	531.74
763.564	585.36
763.888	702.82
764.212	736.01
764.536	787.08
764.86	797.29
765.184	833.04
765.508	845.81
765.831	776.87
766.155	1027.1
766.478	863.68
766.802	748.78
767.126	738.56
767.449	730.9
767.772	758.99
768.096	692.6
768.419	649.2
768.742	608.34
769.066	524.08
769.389	506.21
769.712	590.47
770.035	718.14
770.358	840.7
770.681	976.03
771.004	1085.82
771.327	1274.77
771.65	1353.93
771.972	1614.37
772.295	2086.75
772.618	2359.96
772.941	2561.68
773.263	2796.59
773.586	3192.36
773.908	3519.19
774.231	3636.65
774.553	3593.24
774.875	3838.37
775.198	3863.9
775.52	3583.03
775.842	3299.6
776.164	3026.39
776.487	2878.3
776.809	2814.46
777.131	2786.37
777.453	2441.67
777.775	2334.43
778.096	2102.07
778.418	1923.33
778.74	1489.26
779.062	1272.22
779.384	1167.53
779.705	1065.4
780.027	1052.63
780.348	1024.54
780.67	1157.32
780.991	1282.43
781.313	1645.01
781.634	1936.1
781.955	2528.48
782.277	2957.45
782.598	3378.76
782.919	3657.08
783.24	4175.41
783.561	4798.44
783.882	5150.8
784.203	5324.43
784.524	5413.8
784.845	5523.59
785.166	5993.42
785.487	6470.9
785.807	6450.47
786.128	6491.33
786.449	6320.25
786.769	6131.3
787.09	6202.79
787.41	6340.68
787.731	6289.61
788.051	6274.29
788.372	6103.21
788.692	5781.49
789.012	5237.62
789.332	4323.51
789.653	4019.66
789.973	3669.84
790.293	3059.59
790.613	2224.63
790.933	1905.46
791.253	1586.29
791.573	1195.62
791.893	993.9
792.212	912.19
792.532	861.13
792.852	1006.67
793.171	1221.15
793.491	1650.12
793.811	2012.7
794.13	2513.16
794.45	2868.08
794.769	3322.58
795.088	3991.57
795.408	4520.12
795.727	5526.15
796.046	6846.24
796.365	7691.41
796.684	7939.09
797.004	7990.16
797.323	8722.98
797.642	9586.02
797.96	9407.28
798.279	9019.17
798.598	8906.82
798.917	8906.82
799.236	8465.09
799.554	8043.78
799.873	7650.56
800.192	7119.46
800.51	6823.26
