Data from 2025-12-03_xpw_interference_micrometer_631_FLMS141361__92__642.txt Node

Date: Wed Dec 03 15:54:13 MST 2025
User: james
Spectrometer: FLMS14136
Trigger mode: 0
Integration Time (sec): 1.000000E-1
Scans to average: 1
Electric dark correction enabled: true
Nonlinearity correction enabled: false
Boxcar width: 0
XAxis mode: Wavelengths
Number of Pixels in Spectrum: 2048
>>>>>Begin Spectral Data<<<<<
339.315	58.09
339.697	58.09
340.079	58.09
340.461	-79.79
340.843	-36.39
341.225	-141.07
341.607	-61.92
341.989	-110.43
342.371	-82.35
342.752	-74.69
343.134	14.68
343.516	-10.85
343.897	-61.92
344.279	-56.81
344.661	63.2
345.042	32.56
345.423	45.32
345.805	35.11
346.186	160.22
346.567	162.78
346.949	86.18
347.33	221.51
347.711	231.72
348.092	216.4
348.473	264.91
348.854	267.47
349.235	277.68
349.616	216.4
349.997	290.45
350.378	356.83
350.758	321.09
351.139	326.19
351.52	387.48
351.9	405.35
352.281	387.48
352.661	374.71
353.042	372.15
353.422	443.65
353.803	425.78
354.183	397.69
354.563	410.46
354.943	471.74
355.324	446.2
355.704	446.2
356.084	367.05
356.464	377.26
356.844	428.33
357.224	430.88
357.603	364.49
357.983	372.15
358.363	448.76
358.743	402.8
359.122	387.48
359.502	400.24
359.882	425.78
360.261	361.94
360.641	384.92
361.02	407.9
361.399	361.94
361.779	349.17
362.158	395.14
362.537	420.67
362.916	367.05
363.296	369.6
363.675	367.05
364.054	349.17
364.433	321.09
364.812	315.98
365.19	407.9
365.569	341.51
365.948	397.69
366.327	338.96
366.705	392.58
367.084	361.94
367.463	420.67
367.841	361.94
368.22	351.73
368.598	410.46
368.977	410.46
369.355	346.62
369.733	272.57
370.111	277.68
370.49	377.26
370.868	418.12
371.246	372.15
371.624	328.75
372.002	423.22
372.38	402.8
372.758	377.26
373.136	374.71
373.513	321.09
373.891	364.49
374.269	354.28
374.646	423.22
375.024	384.92
375.402	420.67
375.779	313.43
376.157	405.35
376.534	405.35
376.911	405.35
377.289	336.41
377.666	410.46
378.043	400.24
378.42	395.14
378.797	364.49
379.175	418.12
379.552	418.12
379.929	361.94
380.305	349.17
380.682	425.78
381.059	382.37
381.436	423.22
381.813	435.99
382.189	387.48
382.566	354.28
382.943	415.56
383.319	395.14
383.696	410.46
384.072	351.73
384.448	354.28
384.825	400.24
385.201	405.35
385.577	407.9
385.953	400.24
386.329	359.39
386.706	438.54
387.082	379.81
387.458	372.15
387.834	387.48
388.209	361.94
388.585	413.01
388.961	367.05
389.337	384.92
389.713	356.83
390.088	435.99
390.464	349.17
390.839	433.44
391.215	415.56
391.59	367.05
391.966	410.46
392.341	382.37
392.716	395.14
393.092	354.28
393.467	382.37
393.842	377.26
394.217	374.71
394.592	369.6
394.967	374.71
395.342	456.42
395.717	448.76
396.092	384.92
396.467	397.69
396.841	395.14
397.216	384.92
397.591	413.01
397.965	461.52
398.34	407.9
398.714	410.46
399.089	441.1
399.463	466.63
399.838	382.37
400.212	397.69
400.586	402.8
400.961	428.33
401.335	410.46
401.709	425.78
402.083	407.9
402.457	435.99
402.831	387.48
403.205	356.83
403.579	415.56
403.953	443.65
404.326	405.35
404.7	407.9
405.074	407.9
405.447	446.2
405.821	420.67
406.195	420.67
406.568	438.54
406.942	489.61
407.315	415.56
407.688	458.97
408.062	346.62
408.435	433.44
408.808	331.3
409.181	451.31
409.554	351.73
409.927	413.01
410.3	354.28
410.673	390.03
411.046	428.33
411.419	395.14
411.792	415.56
412.165	390.03
412.537	367.05
412.91	458.97
413.283	441.1
413.655	374.71
414.028	361.94
414.4	351.73
414.773	346.62
415.145	372.15
415.517	471.74
415.889	435.99
416.262	395.14
416.634	351.73
417.006	410.46
417.378	433.44
417.75	476.84
418.122	476.84
418.494	420.67
418.866	336.41
419.238	410.46
419.609	415.56
419.981	369.6
420.353	433.44
420.725	438.54
421.096	418.12
421.468	456.42
421.839	428.33
422.211	400.24
422.582	418.12
422.953	356.83
423.325	364.49
423.696	428.33
424.067	418.12
424.438	402.8
424.809	397.69
425.18	349.17
425.551	453.86
425.922	423.22
426.293	441.1
426.664	428.33
427.035	479.4
427.406	420.67
427.776	420.67
428.147	413.01
428.518	356.83
428.888	438.54
429.259	423.22
429.629	464.08
429.999	497.27
430.37	413.01
430.74	469.18
431.11	446.2
431.481	461.52
431.851	405.35
432.221	354.28
432.591	433.44
432.961	405.35
433.331	443.65
433.701	446.2
434.071	359.39
434.441	446.2
434.81	410.46
435.18	461.52
435.55	446.2
435.919	382.37
436.289	410.46
436.658	392.58
437.028	402.8
437.397	425.78
437.767	400.24
438.136	346.62
438.505	425.78
438.875	420.67
439.244	487.06
439.613	407.9
439.982	418.12
440.351	435.99
440.72	418.12
441.089	405.35
441.458	453.86
441.827	423.22
442.196	379.81
442.564	504.93
442.933	430.88
443.302	395.14
443.67	384.92
444.039	397.69
444.407	354.28
444.776	392.58
445.144	435.99
445.513	400.24
445.881	397.69
446.249	420.67
446.617	415.56
446.986	415.56
447.354	458.97
447.722	428.33
448.09	433.44
448.458	425.78
448.826	395.14
449.194	356.83
449.561	402.8
449.929	451.31
450.297	390.03
450.665	497.27
451.032	438.54
451.4	481.95
451.767	443.65
452.135	453.86
452.502	415.56
452.87	392.58
453.237	407.9
453.604	410.46
453.971	410.46
454.339	441.1
454.706	441.1
455.073	407.9
455.44	453.86
455.807	469.18
456.174	413.01
456.541	438.54
456.908	418.12
457.274	441.1
457.641	372.15
458.008	461.52
458.374	402.8
458.741	413.01
459.108	525.36
459.474	446.2
459.841	464.08
460.207	349.17
460.573	400.24
460.94	415.56
461.306	441.1
461.672	430.88
462.038	397.69
462.404	402.8
462.771	435.99
463.137	413.01
463.503	418.12
463.868	423.22
464.234	410.46
464.6	410.46
464.966	405.35
465.332	407.9
465.697	471.74
466.063	402.8
466.429	418.12
466.794	446.2
467.16	448.76
467.525	453.86
467.89	405.35
468.256	458.97
468.621	390.03
468.986	402.8
469.351	476.84
469.717	456.42
470.082	377.26
470.447	428.33
470.812	420.67
471.177	451.31
471.542	481.95
471.906	361.94
472.271	356.83
472.636	453.86
473.001	372.15
473.365	474.29
473.73	395.14
474.094	361.94
474.459	456.42
474.823	420.67
475.188	512.59
475.552	430.88
475.917	446.2
476.281	415.56
476.645	448.76
477.009	474.29
477.373	469.18
477.737	461.52
478.101	451.31
478.465	448.76
478.829	400.24
479.193	413.01
479.557	464.08
479.921	407.9
480.284	443.65
480.648	356.83
481.012	415.56
481.375	441.1
481.739	392.58
482.102	446.2
482.466	433.44
482.829	430.88
483.193	469.18
483.556	461.52
483.919	410.46
484.282	369.6
484.645	372.15
485.009	433.44
485.372	367.05
485.735	443.65
486.098	418.12
486.46	395.14
486.823	415.56
487.186	407.9
487.549	410.46
487.912	443.65
488.274	425.78
488.637	430.88
488.999	438.54
489.362	469.18
489.724	461.52
490.087	466.63
490.449	387.48
490.811	418.12
491.174	428.33
491.536	418.12
491.898	384.92
492.26	372.15
492.622	397.69
492.984	387.48
493.346	392.58
493.708	384.92
494.07	461.52
494.432	407.9
494.794	464.08
495.155	497.27
495.517	471.74
495.879	433.44
496.24	418.12
496.602	405.35
496.963	441.1
497.325	367.05
497.686	425.78
498.048	448.76
498.409	405.35
498.77	413.01
499.131	438.54
499.492	456.42
499.854	458.97
500.215	502.38
500.576	435.99
500.937	458.97
501.298	446.2
501.658	458.97
502.019	423.22
502.38	471.74
502.741	423.22
503.101	441.1
503.462	474.29
503.823	425.78
504.183	407.9
504.543	481.95
504.904	489.61
505.264	395.14
505.625	374.71
505.985	423.22
506.345	458.97
506.705	443.65
507.065	446.2
507.426	435.99
507.786	461.52
508.146	515.14
508.505	446.2
508.865	405.35
509.225	430.88
509.585	540.68
509.945	390.03
510.304	338.96
510.664	400.24
511.024	469.18
511.383	458.97
511.743	464.08
512.102	443.65
512.462	418.12
512.821	458.97
513.18	407.9
513.539	420.67
513.899	400.24
514.258	438.54
514.617	341.51
514.976	464.08
515.335	428.33
515.694	428.33
516.053	402.8
516.412	405.35
516.771	492.16
517.129	397.69
517.488	418.12
517.847	430.88
518.205	405.35
518.564	453.86
518.922	413.01
519.281	413.01
519.639	418.12
519.998	420.67
520.356	446.2
520.714	481.95
521.073	492.16
521.431	433.44
521.789	443.65
522.147	446.2
522.505	438.54
522.863	428.33
523.221	415.56
523.579	420.67
523.937	476.84
524.295	356.83
524.652	321.09
525.01	441.1
525.368	377.26
525.725	405.35
526.083	469.18
526.44	441.1
526.798	397.69
527.155	423.22
527.513	410.46
527.87	438.54
528.227	423.22
528.584	443.65
528.942	405.35
529.299	433.44
529.656	448.76
530.013	441.1
530.37	461.52
530.727	430.88
531.083	415.56
531.44	392.58
531.797	377.26
532.154	438.54
532.511	356.83
532.867	430.88
533.224	374.71
533.58	372.15
533.937	423.22
534.293	413.01
534.65	377.26
535.006	471.74
535.362	497.27
535.718	435.99
536.075	497.27
536.431	407.9
536.787	387.48
537.143	487.06
537.499	430.88
537.855	461.52
538.211	469.18
538.567	433.44
538.923	461.52
539.278	438.54
539.634	443.65
539.99	418.12
540.345	471.74
540.701	515.14
541.056	469.18
541.412	481.95
541.767	428.33
542.123	423.22
542.478	430.88
542.833	418.12
543.188	402.8
543.544	418.12
543.899	410.46
544.254	428.33
544.609	438.54
544.964	425.78
545.319	464.08
545.674	392.58
546.029	499.82
546.383	428.33
546.738	425.78
547.093	517.7
547.447	435.99
547.802	464.08
548.157	423.22
548.511	395.14
548.866	425.78
549.22	476.84
549.574	481.95
549.929	461.52
550.283	456.42
550.637	466.63
550.991	415.56
551.345	361.94
551.699	464.08
552.053	379.81
552.407	425.78
552.761	481.95
553.115	400.24
553.469	461.52
553.823	438.54
554.176	390.03
554.53	443.65
554.884	438.54
555.237	755.16
555.591	464.08
555.944	484.5
556.298	466.63
556.651	464.08
557.005	423.22
557.358	430.88
557.711	441.1
558.064	395.14
558.417	441.1
558.771	502.38
559.124	433.44
559.477	402.8
559.83	441.1
560.182	453.86
560.535	397.69
560.888	456.42
561.241	390.03
561.594	423.22
561.946	425.78
562.299	418.12
562.651	446.2
563.004	392.58
563.356	405.35
563.709	410.46
564.061	418.12
564.413	415.56
564.766	476.84
565.118	430.88
565.47	428.33
565.822	464.08
566.174	456.42
566.526	405.35
566.878	423.22
567.23	438.54
567.582	395.14
567.934	395.14
568.286	430.88
568.638	471.74
568.989	458.97
569.341	430.88
569.693	405.35
570.044	433.44
570.396	423.22
570.747	433.44
571.098	438.54
571.45	410.46
571.801	481.95
572.152	415.56
572.504	410.46
572.855	392.58
573.206	407.9
573.557	402.8
573.908	471.74
574.259	499.82
574.61	435.99
574.961	418.12
575.311	405.35
575.662	372.15
576.013	372.15
576.364	349.17
576.714	346.62
577.065	446.2
577.415	441.1
577.766	451.31
578.116	397.69
578.467	433.44
578.817	410.46
579.167	397.69
579.518	458.97
579.868	458.97
580.218	425.78
580.568	499.82
580.918	418.12
581.268	356.83
581.618	438.54
581.968	425.78
582.318	464.08
582.668	464.08
583.017	428.33
583.367	423.22
583.717	430.88
584.066	410.46
584.416	410.46
584.765	433.44
585.115	415.56
585.464	433.44
585.814	448.76
586.163	418.12
586.512	405.35
586.862	456.42
587.211	410.46
587.56	402.8
587.909	438.54
588.258	425.78
588.607	435.99
588.956	387.48
589.305	395.14
589.654	407.9
590.002	410.46
590.351	420.67
590.7	458.97
591.048	466.63
591.397	458.97
591.746	402.8
592.094	418.12
592.443	438.54
592.791	420.67
593.139	377.26
593.488	400.24
593.836	448.76
594.184	443.65
594.532	418.12
594.88	433.44
595.228	351.73
595.576	438.54
595.924	410.46
596.272	413.01
596.62	425.78
596.968	466.63
597.316	458.97
597.664	413.01
598.011	349.17
598.359	323.64
598.706	430.88
599.054	423.22
599.402	451.31
599.749	428.33
600.096	476.84
600.444	479.4
600.791	395.14
601.138	341.51
601.485	423.22
601.833	390.03
602.18	402.8
602.527	441.1
602.874	435.99
603.221	446.2
603.568	407.9
603.914	425.78
604.261	387.48
604.608	369.6
604.955	451.31
605.301	402.8
605.648	441.1
605.995	448.76
606.341	479.4
606.688	438.54
607.034	400.24
607.38	361.94
607.727	402.8
608.073	453.86
608.419	448.76
608.765	494.72
609.112	390.03
609.458	461.52
609.804	415.56
610.15	418.12
610.496	420.67
610.842	453.86
611.187	443.65
611.533	415.56
611.879	418.12
612.225	413.01
612.57	390.03
612.916	471.74
613.261	446.2
613.607	423.22
613.952	451.31
614.298	443.65
614.643	443.65
614.989	430.88
615.334	420.67
615.679	418.12
616.024	420.67
616.369	425.78
616.714	469.18
617.059	402.8
617.404	402.8
617.749	413.01
618.094	456.42
618.439	413.01
618.784	451.31
619.129	420.67
619.473	390.03
619.818	476.84
620.163	430.88
620.507	443.65
620.852	443.65
621.196	407.9
621.54	517.7
621.885	433.44
622.229	425.78
622.573	466.63
622.918	418.12
623.262	379.81
623.606	425.78
623.95	379.81
624.294	435.99
624.638	448.76
624.982	433.44
625.326	461.52
625.67	494.72
626.013	456.42
626.357	479.4
626.701	451.31
627.044	448.76
627.388	410.46
627.731	476.84
628.075	428.33
628.418	433.44
628.762	413.01
629.105	464.08
629.448	476.84
629.792	469.18
630.135	425.78
630.478	430.88
630.821	451.31
631.164	456.42
631.507	351.73
631.85	379.81
632.193	438.54
632.536	428.33
632.879	430.88
633.221	420.67
633.564	433.44
633.907	494.72
634.249	438.54
634.592	438.54
634.935	413.01
635.277	420.67
635.619	405.35
635.962	397.69
636.304	372.15
636.646	390.03
636.989	474.29
637.331	451.31
637.673	402.8
638.015	410.46
638.357	392.58
638.699	374.71
639.041	458.97
639.383	456.42
639.725	489.61
640.067	420.67
640.408	384.92
640.75	361.94
641.092	410.46
641.433	448.76
641.775	382.37
642.116	441.1
642.458	456.42
642.799	382.37
643.141	407.9
643.482	400.24
643.823	356.83
644.164	441.1
644.506	492.16
644.847	448.76
645.188	387.48
645.529	377.26
645.87	438.54
646.211	453.86
646.552	433.44
646.893	433.44
647.233	448.76
647.574	413.01
647.915	466.63
648.255	420.67
648.596	466.63
648.937	367.05
649.277	364.49
649.618	435.99
649.958	448.76
650.298	466.63
650.639	413.01
650.979	390.03
651.319	471.74
651.659	484.5
651.999	446.2
652.339	466.63
652.679	402.8
653.019	382.37
653.359	384.92
653.699	400.24
654.039	441.1
654.379	451.31
654.719	379.81
655.058	415.56
655.398	453.86
655.737	525.36
656.077	402.8
656.416	367.05
656.756	359.39
657.095	364.49
657.435	456.42
657.774	415.56
658.113	433.44
658.452	382.37
658.792	430.88
659.131	456.42
659.47	410.46
659.809	390.03
660.148	384.92
660.487	423.22
660.826	446.2
661.164	418.12
661.503	407.9
661.842	359.39
662.181	476.84
662.519	502.38
662.858	458.97
663.196	407.9
663.535	423.22
663.873	400.24
664.212	356.83
664.55	402.8
664.888	458.97
665.226	390.03
665.565	433.44
665.903	627.49
666.241	410.46
666.579	392.58
666.917	428.33
667.255	405.35
667.593	435.99
667.931	428.33
668.268	410.46
668.606	479.4
668.944	430.88
669.282	400.24
669.619	356.83
669.957	423.22
670.294	464.08
670.632	397.69
670.969	387.48
671.307	351.73
671.644	466.63
671.981	384.92
672.318	433.44
672.656	392.58
672.993	476.84
673.33	471.74
673.667	435.99
674.004	466.63
674.341	400.24
674.678	369.6
675.015	453.86
675.351	435.99
675.688	410.46
676.025	418.12
676.362	413.01
676.698	405.35
677.035	374.71
677.371	458.97
677.708	428.33
678.044	456.42
678.38	359.39
678.717	435.99
679.053	407.9
679.389	428.33
679.725	466.63
680.062	433.44
680.398	497.27
680.734	510.04
681.07	443.65
681.406	344.07
681.742	374.71
682.077	410.46
682.413	423.22
682.749	400.24
683.085	384.92
683.42	461.52
683.756	484.5
684.091	461.52
684.427	428.33
684.762	471.74
685.098	428.33
685.433	425.78
685.768	372.15
686.104	418.12
686.439	407.9
686.774	372.15
687.109	344.07
687.444	430.88
687.779	407.9
688.114	438.54
688.449	446.2
688.784	415.56
689.119	387.48
689.454	387.48
689.789	351.73
690.123	379.81
690.458	410.46
690.792	438.54
691.127	397.69
691.461	379.81
691.796	321.09
692.13	397.69
692.465	413.01
692.799	377.26
693.133	448.76
693.467	405.35
693.802	407.9
694.136	415.56
694.47	458.97
694.804	413.01
695.138	400.24
695.472	367.05
695.806	461.52
696.139	428.33
696.473	344.07
696.807	418.12
697.141	433.44
697.474	494.72
697.808	474.29
698.141	441.1
698.475	402.8
698.808	425.78
699.142	328.75
699.475	405.35
699.808	428.33
700.142	410.46
700.475	384.92
700.808	433.44
701.141	435.99
701.474	418.12
701.807	438.54
702.14	410.46
702.473	379.81
702.806	405.35
703.139	479.4
703.472	402.8
703.804	407.9
704.137	341.51
704.47	379.81
704.802	382.37
705.135	430.88
705.467	407.9
705.8	415.56
706.132	361.94
706.464	425.78
706.797	433.44
707.129	397.69
707.461	333.85
707.793	384.92
708.125	492.16
708.457	553.44
708.789	438.54
709.121	359.39
709.453	441.1
709.785	392.58
710.117	469.18
710.449	392.58
710.781	356.83
711.112	407.9
711.444	420.67
711.775	397.69
712.107	400.24
712.438	407.9
712.77	372.15
713.101	433.44
713.433	407.9
713.764	418.12
714.095	433.44
714.426	390.03
714.757	415.56
715.089	423.22
715.42	453.86
715.751	379.81
716.082	377.26
716.412	323.64
716.743	374.71
717.074	379.81
717.405	464.08
717.736	448.76
718.066	410.46
718.397	384.92
718.727	418.12
719.058	435.99
719.388	341.51
719.719	443.65
720.049	379.81
720.38	428.33
720.71	435.99
721.04	400.24
721.37	384.92
721.7	372.15
722.031	387.48
722.361	446.2
722.691	397.69
723.021	451.31
723.35	369.6
723.68	351.73
724.01	400.24
724.34	443.65
724.67	433.44
724.999	428.33
725.329	364.49
725.658	392.58
725.988	487.06
726.317	461.52
726.647	413.01
726.976	390.03
727.306	400.24
727.635	441.1
727.964	402.8
728.293	435.99
728.622	387.48
728.952	453.86
729.281	464.08
729.61	415.56
729.939	461.52
730.267	402.8
730.596	410.46
730.925	430.88
731.254	405.35
731.583	356.83
731.911	446.2
732.24	423.22
732.568	464.08
732.897	487.06
733.225	407.9
733.554	420.67
733.882	435.99
734.21	359.39
734.539	405.35
734.867	336.41
735.195	397.69
735.523	461.52
735.851	453.86
736.179	456.42
736.507	474.29
736.835	428.33
737.163	367.05
737.491	395.14
737.819	349.17
738.147	415.56
738.474	474.29
738.802	443.65
739.13	410.46
739.457	423.22
739.785	369.6
740.112	425.78
740.44	410.46
740.767	397.69
741.094	425.78
741.422	464.08
741.749	481.95
742.076	479.4
742.403	494.72
742.73	461.52
743.057	451.31
743.384	458.97
743.711	407.9
744.038	410.46
744.365	438.54
744.692	433.44
745.018	423.22
745.345	438.54
745.672	464.08
745.998	458.97
746.325	441.1
746.651	344.07
746.978	438.54
747.304	481.95
747.631	387.48
747.957	413.01
748.283	476.84
748.61	469.18
748.936	351.73
749.262	438.54
749.588	374.71
749.914	384.92
750.24	423.22
750.566	430.88
750.892	423.22
751.218	415.56
751.543	395.14
751.869	441.1
752.195	397.69
752.521	446.2
752.846	456.42
753.172	502.38
753.497	413.01
753.823	392.58
754.148	425.78
754.473	456.42
754.799	448.76
755.124	471.74
755.449	420.67
755.774	415.56
756.1	364.49
756.425	428.33
756.75	407.9
757.075	464.08
757.4	533.02
757.724	461.52
758.049	464.08
758.374	453.86
758.699	430.88
759.024	428.33
759.348	469.18
759.673	405.35
759.997	379.81
760.322	423.22
760.646	443.65
760.971	464.08
761.295	461.52
761.619	423.22
761.944	390.03
762.268	492.16
762.592	451.31
762.916	510.04
763.24	471.74
763.564	586.64
763.888	693.88
764.212	719.41
764.536	729.63
764.86	729.63
765.184	834.32
765.508	867.51
765.831	916.02
766.155	1145.83
766.478	870.06
766.802	839.42
767.126	862.4
767.449	849.64
767.772	811.34
768.096	785.8
768.419	673.45
768.742	599.41
769.066	663.24
769.389	599.41
769.712	612.17
770.035	668.35
770.358	721.97
770.681	877.72
771.004	1048.8
771.327	1184.13
771.65	1324.56
771.972	1554.37
772.295	1893.97
772.618	2218.25
772.941	2496.57
773.263	2749.35
773.586	3262.58
773.908	3648.14
774.231	3594.52
774.553	3755.38
774.875	4094.98
775.198	4036.25
775.52	3711.97
775.842	3579.2
776.164	3336.63
776.487	3185.98
776.809	3042.99
777.131	2963.83
777.453	2805.52
777.775	2499.12
778.096	2374
778.418	2072.7
778.74	1674.38
779.062	1370.53
779.384	1258.18
779.705	1043.69
780.027	1071.78
780.348	959.43
780.67	1061.57
780.991	1112.63
781.313	1475.21
781.634	1771.41
781.955	2169.73
782.277	2690.62
782.598	3119.59
782.919	3494.94
783.24	3913.69
783.561	4424.37
783.882	4832.91
784.203	5088.24
784.524	5136.76
784.845	5545.3
785.166	5872.13
785.487	6536.01
785.807	6607.5
786.128	6597.29
786.449	6663.68
786.769	6418.55
787.09	6469.62
787.41	6776.03
787.731	6724.96
788.051	6850.07
788.372	6640.7
788.692	6405.79
789.012	5792.98
789.332	4797.16
789.653	4613.32
789.973	4289.04
790.293	3563.88
790.613	2624.23
790.933	2141.65
791.253	1855.67
791.573	1536.5
791.893	1189.24
792.212	995.18
792.532	916.02
792.852	916.02
793.171	1079.44
793.491	1278.6
793.811	1738.21
794.13	2044.62
794.45	2499.12
794.769	3020.01
795.088	3650.69
795.408	4197.12
795.727	5392.1
796.046	6354.72
796.365	7559.91
796.684	7886.75
797.004	7981.22
797.323	8343.8
797.642	9569.42
797.96	9293.66
798.279	8864.69
798.598	8734.47
798.917	9114.92
799.236	8767.66
799.554	8369.33
799.873	7909.73
800.192	7470.55
800.51	7233.08
800.829	6783.69
