Data from 2025-12-03_xpw_interference_micrometer_631_FLMS141361__88__638.txt Node

Date: Wed Dec 03 15:54:13 MST 2025
User: james
Spectrometer: FLMS14136
Trigger mode: 0
Integration Time (sec): 1.000000E-1
Scans to average: 1
Electric dark correction enabled: true
Nonlinearity correction enabled: false
Boxcar width: 0
XAxis mode: Wavelengths
Number of Pixels in Spectrum: 2048
>>>>>Begin Spectral Data<<<<<
339.315	-112.03
339.697	-112.03
340.079	-112.03
340.461	-94.16
340.843	-112.03
341.225	-48.2
341.607	-114.58
341.989	-96.71
342.371	-99.26
342.752	-53.3
343.134	-66.07
343.516	-12.45
343.897	-30.32
344.279	0.32
344.661	13.09
345.042	10.53
345.423	23.3
345.805	79.47
346.186	150.97
346.567	122.88
346.949	120.33
347.33	148.42
347.711	196.93
348.092	258.21
348.473	227.57
348.854	248
349.235	250.55
349.616	240.34
349.997	281.19
350.378	327.15
350.758	270.98
351.139	362.9
351.52	373.11
351.9	398.65
352.281	350.13
352.661	316.94
353.042	327.15
353.422	403.75
353.803	396.09
354.183	398.65
354.563	421.63
354.943	345.03
355.324	301.62
355.704	355.24
356.084	345.03
356.464	398.65
356.844	380.77
357.224	434.39
357.603	339.92
357.983	370.56
358.363	370.56
358.743	357.79
359.122	373.11
359.502	454.82
359.882	388.43
360.261	378.22
360.641	329.7
361.02	306.72
361.399	393.54
361.779	370.56
362.158	370.56
362.537	332.26
362.916	309.28
363.296	322.04
363.675	357.79
364.054	286.3
364.433	301.62
364.812	286.3
365.19	368.01
365.569	304.17
365.948	304.17
366.327	342.47
366.705	299.06
367.084	314.38
367.463	288.85
367.841	339.92
368.22	373.11
368.598	255.66
368.977	339.92
369.355	352.69
369.733	296.51
370.111	362.9
370.49	314.38
370.868	332.26
371.246	352.69
371.624	309.28
372.002	347.58
372.38	324.6
372.758	311.83
373.136	291.4
373.513	332.26
373.891	334.81
374.269	350.13
374.646	368.01
375.024	347.58
375.402	311.83
375.779	360.35
376.157	311.83
376.534	355.24
376.911	314.38
377.289	281.19
377.666	393.54
378.043	342.47
378.42	411.41
378.797	304.17
379.175	347.58
379.552	383.33
379.929	347.58
380.305	327.15
380.682	426.73
381.059	380.77
381.436	368.01
381.813	304.17
382.189	293.96
382.566	309.28
382.943	286.3
383.319	360.35
383.696	288.85
384.072	345.03
384.448	306.72
384.825	355.24
385.201	378.22
385.577	362.9
385.953	314.38
386.329	355.24
386.706	401.2
387.082	375.67
387.458	276.08
387.834	339.92
388.209	309.28
388.585	373.11
388.961	396.09
389.337	375.67
389.713	352.69
390.088	403.75
390.464	337.37
390.839	314.38
391.215	370.56
391.59	327.15
391.966	342.47
392.341	421.63
392.716	416.52
393.092	368.01
393.467	329.7
393.842	327.15
394.217	393.54
394.592	329.7
394.967	350.13
395.342	291.4
395.717	421.63
396.092	403.75
396.467	378.22
396.841	378.22
397.216	368.01
397.591	296.51
397.965	444.61
398.34	314.38
398.714	421.63
399.089	355.24
399.463	360.35
399.838	301.62
400.212	345.03
400.586	342.47
400.961	370.56
401.335	337.37
401.709	352.69
402.083	370.56
402.457	337.37
402.831	362.9
403.205	334.81
403.579	373.11
403.953	352.69
404.326	360.35
404.7	378.22
405.074	334.81
405.447	347.58
405.821	373.11
406.195	286.3
406.568	339.92
406.942	477.8
407.315	385.88
407.688	429.29
408.062	319.49
408.435	413.97
408.808	442.05
409.181	360.35
409.554	360.35
409.927	383.33
410.3	383.33
410.673	373.11
411.046	403.75
411.419	419.07
411.792	327.15
412.165	342.47
412.537	378.22
412.91	368.01
413.283	406.31
413.655	324.6
414.028	276.08
414.4	350.13
414.773	334.81
415.145	406.31
415.517	339.92
415.889	375.67
416.262	337.37
416.634	396.09
417.006	375.67
417.378	342.47
417.75	370.56
418.122	350.13
418.494	360.35
418.866	288.85
419.238	311.83
419.609	388.43
419.981	398.65
420.353	342.47
420.725	332.26
421.096	362.9
421.468	365.45
421.839	350.13
422.211	383.33
422.582	439.5
422.953	403.75
423.325	339.92
423.696	342.47
424.067	373.11
424.438	370.56
424.809	368.01
425.18	413.97
425.551	378.22
425.922	368.01
426.293	357.79
426.664	452.27
427.035	383.33
427.406	472.69
427.776	426.73
428.147	375.67
428.518	393.54
428.888	388.43
429.259	337.37
429.629	355.24
429.999	380.77
430.37	362.9
430.74	380.77
431.11	390.99
431.481	380.77
431.851	327.15
432.221	424.18
432.591	393.54
432.961	357.79
433.331	454.82
433.701	385.88
434.071	362.9
434.441	357.79
434.81	334.81
435.18	357.79
435.55	375.67
435.919	388.43
436.289	345.03
436.658	390.99
437.028	339.92
437.397	350.13
437.767	406.31
438.136	416.52
438.505	327.15
438.875	337.37
439.244	413.97
439.613	401.2
439.982	426.73
440.351	380.77
440.72	431.84
441.089	373.11
441.458	383.33
441.827	345.03
442.196	449.71
442.564	500.78
442.933	383.33
443.302	357.79
443.67	360.35
444.039	380.77
444.407	390.99
444.776	357.79
445.144	436.95
445.513	398.65
445.881	398.65
446.249	378.22
446.617	385.88
446.986	411.41
447.354	385.88
447.722	273.53
448.09	411.41
448.458	309.28
448.826	444.61
449.194	457.37
449.561	390.99
449.929	378.22
450.297	337.37
450.665	449.71
451.032	396.09
451.4	403.75
451.767	355.24
452.135	411.41
452.502	375.67
452.87	334.81
453.237	347.58
453.604	345.03
453.971	403.75
454.339	360.35
454.706	370.56
455.073	355.24
455.44	401.2
455.807	393.54
456.174	373.11
456.541	337.37
456.908	447.16
457.274	408.86
457.641	383.33
458.008	398.65
458.374	411.41
458.741	406.31
459.108	411.41
459.474	500.78
459.841	390.99
460.207	408.86
460.573	416.52
460.94	434.39
461.306	385.88
461.672	362.9
462.038	345.03
462.404	447.16
462.771	378.22
463.137	396.09
463.503	403.75
463.868	431.84
464.234	375.67
464.6	416.52
464.966	396.09
465.332	327.15
465.697	419.07
466.063	431.84
466.429	396.09
466.794	365.45
467.16	304.17
467.525	385.88
467.89	337.37
468.256	375.67
468.621	421.63
468.986	390.99
469.351	339.92
469.717	416.52
470.082	355.24
470.447	383.33
470.812	398.65
471.177	332.26
471.542	406.31
471.906	385.88
472.271	383.33
472.636	416.52
473.001	368.01
473.365	401.2
473.73	431.84
474.094	398.65
474.459	380.77
474.823	431.84
475.188	398.65
475.552	393.54
475.917	390.99
476.281	444.61
476.645	419.07
477.009	467.59
477.373	439.5
477.737	388.43
478.101	439.5
478.465	411.41
478.829	339.92
479.193	385.88
479.557	416.52
479.921	350.13
480.284	383.33
480.648	373.11
481.012	421.63
481.375	401.2
481.739	449.71
482.102	352.69
482.466	383.33
482.829	403.75
483.193	383.33
483.556	370.56
483.919	413.97
484.282	408.86
484.645	388.43
485.009	419.07
485.372	408.86
485.735	393.54
486.098	360.35
486.46	396.09
486.823	375.67
487.186	401.2
487.549	388.43
487.912	373.11
488.274	345.03
488.637	365.45
488.999	383.33
489.362	370.56
489.724	378.22
490.087	350.13
490.449	421.63
490.811	419.07
491.174	403.75
491.536	390.99
491.898	424.18
492.26	357.79
492.622	426.73
492.984	378.22
493.346	383.33
493.708	408.86
494.07	406.31
494.432	411.41
494.794	314.38
495.155	332.26
495.517	329.7
495.879	426.73
496.24	439.5
496.602	411.41
496.963	454.82
497.325	408.86
497.686	390.99
498.048	442.05
498.409	383.33
498.77	311.83
499.131	390.99
499.492	424.18
499.854	408.86
500.215	388.43
500.576	449.71
500.937	337.37
501.298	419.07
501.658	421.63
502.019	411.41
502.38	431.84
502.741	339.92
503.101	365.45
503.462	403.75
503.823	383.33
504.183	398.65
504.543	413.97
504.904	406.31
505.264	413.97
505.625	383.33
505.985	360.35
506.345	398.65
506.705	350.13
507.065	434.39
507.426	393.54
507.786	347.58
508.146	375.67
508.505	306.72
508.865	362.9
509.225	383.33
509.585	396.09
509.945	426.73
510.304	385.88
510.664	383.33
511.024	337.37
511.383	390.99
511.743	350.13
512.102	411.41
512.462	403.75
512.821	426.73
513.18	459.93
513.539	403.75
513.899	398.65
514.258	398.65
514.617	380.77
514.976	339.92
515.335	388.43
515.694	406.31
516.053	416.52
516.412	429.29
516.771	398.65
517.129	385.88
517.488	442.05
517.847	365.45
518.205	355.24
518.564	355.24
518.922	390.99
519.281	439.5
519.639	370.56
519.998	426.73
520.356	350.13
520.714	388.43
521.073	385.88
521.431	424.18
521.789	390.99
522.147	362.9
522.505	411.41
522.863	436.95
523.221	373.11
523.579	378.22
523.937	368.01
524.295	413.97
524.652	401.2
525.01	393.54
525.368	426.73
525.725	442.05
526.083	383.33
526.44	398.65
526.798	419.07
527.155	442.05
527.513	439.5
527.87	398.65
528.227	385.88
528.584	416.52
528.942	342.47
529.299	370.56
529.656	385.88
530.013	375.67
530.37	370.56
530.727	357.79
531.083	403.75
531.44	396.09
531.797	329.7
532.154	332.26
532.511	457.37
532.867	388.43
533.224	375.67
533.58	495.67
533.937	413.97
534.293	380.77
534.65	477.8
535.006	401.2
535.362	362.9
535.718	434.39
536.075	439.5
536.431	390.99
536.787	449.71
537.143	449.71
537.499	352.69
537.855	457.37
538.211	383.33
538.567	329.7
538.923	406.31
539.278	408.86
539.634	334.81
539.99	393.54
540.345	342.47
540.701	355.24
541.056	345.03
541.412	334.81
541.767	439.5
542.123	388.43
542.478	375.67
542.833	431.84
543.188	360.35
543.544	436.95
543.899	406.31
544.254	370.56
544.609	368.01
544.964	485.46
545.319	380.77
545.674	421.63
546.029	419.07
546.383	370.56
546.738	403.75
547.093	398.65
547.447	368.01
547.802	436.95
548.157	449.71
548.511	403.75
548.866	293.96
549.22	375.67
549.574	431.84
549.929	380.77
550.283	281.19
550.637	365.45
550.991	457.37
551.345	362.9
551.699	429.29
552.053	413.97
552.407	380.77
552.761	447.16
553.115	413.97
553.469	436.95
553.823	368.01
554.176	403.75
554.53	401.2
554.884	383.33
555.237	579.94
555.591	436.95
555.944	424.18
556.298	429.29
556.651	362.9
557.005	401.2
557.358	309.28
557.711	388.43
558.064	365.45
558.417	398.65
558.771	429.29
559.124	444.61
559.477	350.13
559.83	416.52
560.182	401.2
560.535	370.56
560.888	403.75
561.241	337.37
561.594	442.05
561.946	362.9
562.299	439.5
562.651	357.79
563.004	375.67
563.356	449.71
563.709	352.69
564.061	360.35
564.413	385.88
564.766	390.99
565.118	375.67
565.47	347.58
565.822	316.94
566.174	345.03
566.526	332.26
566.878	396.09
567.23	385.88
567.582	339.92
567.934	360.35
568.286	352.69
568.638	396.09
568.989	436.95
569.341	454.82
569.693	424.18
570.044	434.39
570.396	406.31
570.747	406.31
571.098	362.9
571.45	429.29
571.801	306.72
572.152	411.41
572.504	360.35
572.855	378.22
573.206	390.99
573.557	406.31
573.908	383.33
574.259	408.86
574.61	360.35
574.961	434.39
575.311	401.2
575.662	419.07
576.013	365.45
576.364	398.65
576.714	429.29
577.065	373.11
577.415	385.88
577.766	426.73
578.116	304.17
578.467	396.09
578.817	444.61
579.167	380.77
579.518	421.63
579.868	380.77
580.218	426.73
580.568	413.97
580.918	383.33
581.268	327.15
581.618	347.58
581.968	375.67
582.318	398.65
582.668	413.97
583.017	396.09
583.367	385.88
583.717	355.24
584.066	355.24
584.416	393.54
584.765	375.67
585.115	411.41
585.464	401.2
585.814	385.88
586.163	495.67
586.512	406.31
586.862	419.07
587.211	327.15
587.56	411.41
587.909	419.07
588.258	370.56
588.607	350.13
588.956	401.2
589.305	378.22
589.654	385.88
590.002	373.11
590.351	408.86
590.7	444.61
591.048	421.63
591.397	345.03
591.746	393.54
592.094	345.03
592.443	383.33
592.791	337.37
593.139	411.41
593.488	403.75
593.836	401.2
594.184	490.57
594.532	462.48
594.88	439.5
595.228	419.07
595.576	413.97
595.924	385.88
596.272	434.39
596.62	406.31
596.968	355.24
597.316	388.43
597.664	380.77
598.011	373.11
598.359	365.45
598.706	401.2
599.054	339.92
599.402	383.33
599.749	388.43
600.096	385.88
600.444	408.86
600.791	398.65
601.138	485.46
601.485	334.81
601.833	406.31
602.18	421.63
602.527	385.88
602.874	454.82
603.221	452.27
603.568	360.35
603.914	378.22
604.261	345.03
604.608	424.18
604.955	357.79
605.301	347.58
605.648	365.45
605.995	421.63
606.341	352.69
606.688	390.99
607.034	365.45
607.38	375.67
607.727	357.79
608.073	357.79
608.419	373.11
608.765	396.09
609.112	452.27
609.458	411.41
609.804	390.99
610.15	444.61
610.496	447.16
610.842	311.83
611.187	306.72
611.533	378.22
611.879	429.29
612.225	370.56
612.57	393.54
612.916	380.77
613.261	334.81
613.607	396.09
613.952	388.43
614.298	337.37
614.643	419.07
614.989	396.09
615.334	355.24
615.679	299.06
616.024	436.95
616.369	401.2
616.714	396.09
617.059	442.05
617.404	347.58
617.749	380.77
618.094	327.15
618.439	350.13
618.784	347.58
619.129	380.77
619.473	378.22
619.818	385.88
620.163	398.65
620.507	396.09
620.852	408.86
621.196	355.24
621.54	375.67
621.885	380.77
622.229	360.35
622.573	319.49
622.918	421.63
623.262	447.16
623.606	424.18
623.95	459.93
624.294	429.29
624.638	429.29
624.982	375.67
625.326	368.01
625.67	334.81
626.013	375.67
626.357	426.73
626.701	416.52
627.044	426.73
627.388	411.41
627.731	416.52
628.075	360.35
628.418	390.99
628.762	401.2
629.105	393.54
629.448	406.31
629.792	327.15
630.135	337.37
630.478	311.83
630.821	439.5
631.164	380.77
631.507	467.59
631.85	452.27
632.193	439.5
632.536	401.2
632.879	393.54
633.221	350.13
633.564	403.75
633.907	390.99
634.249	475.25
634.592	393.54
634.935	296.51
635.277	342.47
635.619	388.43
635.962	403.75
636.304	419.07
636.646	360.35
636.989	398.65
637.331	375.67
637.673	439.5
638.015	385.88
638.357	362.9
638.699	385.88
639.041	385.88
639.383	396.09
639.725	365.45
640.067	470.14
640.408	370.56
640.75	396.09
641.092	380.77
641.433	319.49
641.775	360.35
642.116	403.75
642.458	396.09
642.799	362.9
643.141	378.22
643.482	388.43
643.823	368.01
644.164	375.67
644.506	439.5
644.847	390.99
645.188	324.6
645.529	370.56
645.87	416.52
646.211	411.41
646.552	373.11
646.893	345.03
647.233	383.33
647.574	431.84
647.915	398.65
648.255	383.33
648.596	375.67
648.937	352.69
649.277	378.22
649.618	421.63
649.958	429.29
650.298	329.7
650.639	388.43
650.979	319.49
651.319	408.86
651.659	350.13
651.999	393.54
652.339	334.81
652.679	434.39
653.019	416.52
653.359	419.07
653.699	388.43
654.039	370.56
654.379	362.9
654.719	329.7
655.058	360.35
655.398	360.35
655.737	383.33
656.077	327.15
656.416	398.65
656.756	347.58
657.095	408.86
657.435	449.71
657.774	416.52
658.113	385.88
658.452	375.67
658.792	385.88
659.131	375.67
659.47	370.56
659.809	309.28
660.148	329.7
660.487	375.67
660.826	380.77
661.164	378.22
661.503	388.43
661.842	419.07
662.181	396.09
662.519	291.4
662.858	401.2
663.196	339.92
663.535	385.88
663.873	385.88
664.212	378.22
664.55	383.33
664.888	444.61
665.226	350.13
665.565	401.2
665.903	574.83
666.241	373.11
666.579	373.11
666.917	419.07
667.255	296.51
667.593	408.86
667.931	327.15
668.268	373.11
668.606	304.17
668.944	390.99
669.282	375.67
669.619	411.41
669.957	429.29
670.294	406.31
670.632	408.86
670.969	355.24
671.307	316.94
671.644	345.03
671.981	385.88
672.318	314.38
672.656	385.88
672.993	370.56
673.33	360.35
673.667	370.56
674.004	421.63
674.341	385.88
674.678	378.22
675.015	439.5
675.351	424.18
675.688	316.94
676.025	390.99
676.362	385.88
676.698	375.67
677.035	368.01
677.371	406.31
677.708	413.97
678.044	426.73
678.38	431.84
678.717	442.05
679.053	401.2
679.389	352.69
679.725	370.56
680.062	373.11
680.398	337.37
680.734	388.43
681.07	357.79
681.406	373.11
681.742	419.07
682.077	416.52
682.413	365.45
682.749	396.09
683.085	322.04
683.42	355.24
683.756	436.95
684.091	421.63
684.427	436.95
684.762	424.18
685.098	355.24
685.433	421.63
685.768	357.79
686.104	350.13
686.439	316.94
686.774	380.77
687.109	373.11
687.444	339.92
687.779	357.79
688.114	396.09
688.449	398.65
688.784	378.22
689.119	301.62
689.454	390.99
689.789	385.88
690.123	411.41
690.458	345.03
690.792	424.18
691.127	362.9
691.461	380.77
691.796	373.11
692.13	334.81
692.465	398.65
692.799	429.29
693.133	347.58
693.467	368.01
693.802	375.67
694.136	324.6
694.47	350.13
694.804	375.67
695.138	436.95
695.472	334.81
695.806	436.95
696.139	393.54
696.473	406.31
696.807	467.59
697.141	268.42
697.474	350.13
697.808	368.01
698.141	447.16
698.475	503.33
698.808	408.86
699.142	403.75
699.475	385.88
699.808	436.95
700.142	419.07
700.475	360.35
700.808	362.9
701.141	319.49
701.474	299.06
701.807	375.67
702.14	403.75
702.473	424.18
702.806	357.79
703.139	342.47
703.472	375.67
703.804	383.33
704.137	362.9
704.47	380.77
704.802	419.07
705.135	390.99
705.467	388.43
705.8	383.33
706.132	434.39
706.464	416.52
706.797	378.22
707.129	380.77
707.461	378.22
707.793	398.65
708.125	447.16
708.457	334.81
708.789	352.69
709.121	365.45
709.453	319.49
709.785	401.2
710.117	411.41
710.449	383.33
710.781	426.73
711.112	347.58
711.444	424.18
711.775	419.07
712.107	429.29
712.438	462.48
712.77	426.73
713.101	408.86
713.433	401.2
713.764	411.41
714.095	398.65
714.426	370.56
714.757	401.2
715.089	444.61
715.42	378.22
715.751	411.41
716.082	388.43
716.412	383.33
716.743	398.65
717.074	380.77
717.405	368.01
717.736	421.63
718.066	337.37
718.397	396.09
718.727	383.33
719.058	339.92
719.388	373.11
719.719	462.48
720.049	401.2
720.38	413.97
720.71	434.39
721.04	357.79
721.37	403.75
721.7	352.69
722.031	403.75
722.361	398.65
722.691	334.81
723.021	383.33
723.35	419.07
723.68	368.01
724.01	396.09
724.34	385.88
724.67	480.35
724.999	375.67
725.329	385.88
725.658	411.41
725.988	390.99
726.317	334.81
726.647	396.09
726.976	411.41
727.306	393.54
727.635	373.11
727.964	401.2
728.293	385.88
728.622	332.26
728.952	352.69
729.281	398.65
729.61	357.79
729.939	426.73
730.267	413.97
730.596	403.75
730.925	370.56
731.254	416.52
731.583	452.27
731.911	373.11
732.24	352.69
732.568	342.47
732.897	334.81
733.225	429.29
733.554	393.54
733.882	327.15
734.21	373.11
734.539	426.73
734.867	375.67
735.195	352.69
735.523	355.24
735.851	393.54
736.179	401.2
736.507	339.92
736.835	398.65
737.163	406.31
737.491	347.58
737.819	388.43
738.147	398.65
738.474	334.81
738.802	401.2
739.13	319.49
739.457	345.03
739.785	329.7
740.112	375.67
740.44	368.01
740.767	383.33
741.094	431.84
741.422	347.58
741.749	365.45
742.076	329.7
742.403	352.69
742.73	352.69
743.057	375.67
743.384	339.92
743.711	357.79
744.038	368.01
744.365	510.99
744.692	406.31
745.018	383.33
745.345	339.92
745.672	339.92
745.998	304.17
746.325	345.03
746.651	413.97
746.978	424.18
747.304	357.79
747.631	411.41
747.957	350.13
748.283	429.29
748.61	342.47
748.936	334.81
749.262	352.69
749.588	408.86
749.914	375.67
750.24	398.65
750.566	390.99
750.892	378.22
751.218	350.13
751.543	334.81
751.869	411.41
752.195	378.22
752.521	406.31
752.846	368.01
753.172	396.09
753.497	388.43
753.823	401.2
754.148	345.03
754.473	329.7
754.799	390.99
755.124	370.56
755.449	434.39
755.774	472.69
756.1	408.86
756.425	357.79
756.75	347.58
757.075	505.89
757.4	510.99
757.724	375.67
758.049	401.2
758.374	385.88
758.699	388.43
759.024	416.52
759.348	345.03
759.673	342.47
759.997	375.67
760.322	370.56
760.646	350.13
760.971	365.45
761.295	403.75
761.619	396.09
761.944	413.97
762.268	490.57
762.592	421.63
762.916	505.89
763.24	528.87
763.564	541.64
763.888	579.94
764.212	664.2
764.536	710.16
764.86	758.67
765.184	748.46
765.508	738.25
765.831	748.46
766.155	1072.74
766.478	812.29
766.802	766.33
767.126	771.44
767.449	756.12
767.772	779.1
768.096	771.44
768.419	615.68
768.742	531.42
769.066	539.08
769.389	582.49
769.712	613.13
770.035	618.24
770.358	738.25
770.681	896.55
771.004	1070.18
771.327	1187.64
771.65	1348.5
771.972	1562.99
772.295	2030.25
772.618	2351.98
772.941	2630.3
773.263	2969.9
773.586	3424.4
773.908	3643.99
774.231	3779.32
774.553	3738.46
774.875	3981.04
775.198	4172.54
775.52	3827.83
775.842	3409.08
776.164	3082.25
776.487	3010.75
776.809	2967.34
777.131	2847.34
777.453	2673.71
777.775	2474.54
778.096	2254.95
778.418	1986.85
778.74	1534.9
779.062	1340.84
779.384	1103.38
779.705	1019.12
780.027	939.96
780.348	985.92
780.67	1128.91
780.991	1305.1
781.313	1626.82
781.634	1958.76
781.955	2456.67
782.277	2900.96
782.598	3444.83
782.919	3774.21
783.24	4226.16
783.561	4724.07
783.882	5124.95
784.203	5347.09
784.524	5469.65
784.845	5507.96
785.166	6000.76
785.487	6524.2
785.807	6766.77
786.128	6700.38
786.449	6404.19
786.769	6199.92
787.09	6309.72
787.41	6526.75
787.731	6452.71
788.051	6498.67
788.372	6345.46
788.692	6136.09
789.012	5380.29
789.332	4522.35
789.653	4126.58
789.973	3886.56
790.293	3209.92
790.613	2372.41
790.933	1938.33
791.253	1734.06
791.573	1414.89
791.893	1113.59
792.212	934.86
792.532	865.91
792.852	962.94
793.171	1154.45
793.491	1545.11
793.811	1930.67
794.13	2413.26
794.45	2763.07
794.769	3352.9
795.088	3891.67
795.408	4420.22
795.727	5510.51
796.046	6771.88
796.365	8048.57
796.684	8040.91
797.004	7984.73
797.323	8559.24
797.642	9618.89
797.96	9475.9
798.279	8957.57
798.598	8776.28
798.917	8806.92
799.236	8454.55
799.554	8372.85
799.873	7545.55
