Data from 2025-12-03_xpw_interference_micrometer_631_FLMS141361__95__645.txt Node

Date: Wed Dec 03 15:54:13 MST 2025
User: james
Spectrometer: FLMS14136
Trigger mode: 0
Integration Time (sec): 1.000000E-1
Scans to average: 1
Electric dark correction enabled: true
Nonlinearity correction enabled: false
Boxcar width: 0
XAxis mode: Wavelengths
Number of Pixels in Spectrum: 2048
>>>>>Begin Spectral Data<<<<<
339.315	19.95
339.697	19.95
340.079	19.95
340.461	-115.38
340.843	-56.65
341.225	-128.15
341.607	-107.72
341.989	-100.06
342.371	-89.85
342.752	-115.38
343.134	-64.31
343.516	-59.21
343.897	-36.23
344.279	-15.8
344.661	17.39
345.042	27.61
345.423	106.76
345.805	114.42
346.186	114.42
346.567	191.02
346.949	145.06
347.33	216.56
347.711	173.15
348.092	214
348.473	236.99
348.854	214
349.235	224.22
349.616	300.82
349.997	280.39
350.378	326.35
350.758	346.78
351.139	382.53
351.52	339.12
351.9	436.15
352.281	392.74
352.661	392.74
353.042	420.83
353.422	413.17
353.803	436.15
354.183	379.97
354.563	369.76
354.943	413.17
355.324	405.51
355.704	395.29
356.084	397.85
356.464	382.53
356.844	446.36
357.224	395.29
357.603	405.51
357.983	356.99
358.363	420.83
358.743	282.95
359.122	369.76
359.502	405.51
359.882	402.95
360.261	448.92
360.641	374.87
361.02	387.63
361.399	451.47
361.779	354.44
362.158	351.89
362.537	385.08
362.916	316.14
363.296	382.53
363.675	308.48
364.054	308.48
364.433	390.19
364.812	402.95
365.19	364.65
365.569	356.99
365.948	341.67
366.327	387.63
366.705	359.55
367.084	385.08
367.463	351.89
367.841	339.12
368.22	402.95
368.598	341.67
368.977	364.65
369.355	328.91
369.733	351.89
370.111	323.8
370.49	400.4
370.868	400.4
371.246	356.99
371.624	344.23
372.002	359.55
372.38	300.82
372.758	336.57
373.136	397.85
373.513	390.19
373.891	392.74
374.269	395.29
374.646	387.63
375.024	433.6
375.402	351.89
375.779	339.12
376.157	323.8
376.534	341.67
376.911	385.08
377.289	410.62
377.666	336.57
378.043	425.94
378.42	374.87
378.797	344.23
379.175	428.49
379.552	367.21
379.929	390.19
380.305	385.08
380.682	379.97
381.059	336.57
381.436	362.1
381.813	397.85
382.189	339.12
382.566	367.21
382.943	392.74
383.319	395.29
383.696	372.31
384.072	351.89
384.448	392.74
384.825	374.87
385.201	328.91
385.577	359.55
385.953	359.55
386.329	415.72
386.706	410.62
387.082	377.42
387.458	346.78
387.834	377.42
388.209	441.26
388.585	438.7
388.961	423.38
389.337	392.74
389.713	402.95
390.088	382.53
390.464	341.67
390.839	431.04
391.215	461.68
391.59	349.33
391.966	431.04
392.341	385.08
392.716	402.95
393.092	392.74
393.467	418.28
393.842	418.28
394.217	431.04
394.592	441.26
394.967	364.65
395.342	413.17
395.717	448.92
396.092	402.95
396.467	341.67
396.841	323.8
397.216	410.62
397.591	367.21
397.965	339.12
398.34	405.51
398.714	354.44
399.089	367.21
399.463	418.28
399.838	438.7
400.212	385.08
400.586	390.19
400.961	479.56
401.335	356.99
401.709	408.06
402.083	461.68
402.457	438.7
402.831	372.31
403.205	408.06
403.579	336.57
403.953	402.95
404.326	341.67
404.7	405.51
405.074	367.21
405.447	356.99
405.821	410.62
406.195	420.83
406.568	308.48
406.942	438.7
407.315	392.74
407.688	448.92
408.062	346.78
408.435	408.06
408.808	382.53
409.181	446.36
409.554	336.57
409.927	382.53
410.3	423.38
410.673	446.36
411.046	420.83
411.419	362.1
411.792	415.72
412.165	425.94
412.537	431.04
412.91	438.7
413.283	431.04
413.655	359.55
414.028	410.62
414.4	423.38
414.773	454.02
415.145	382.53
415.517	408.06
415.889	413.17
416.262	415.72
416.634	369.76
417.006	328.91
417.378	377.42
417.75	436.15
418.122	374.87
418.494	392.74
418.866	408.06
419.238	448.92
419.609	446.36
419.981	385.08
420.353	400.4
420.725	428.49
421.096	418.28
421.468	379.97
421.839	425.94
422.211	402.95
422.582	448.92
422.953	408.06
423.325	387.63
423.696	349.33
424.067	425.94
424.438	362.1
424.809	372.31
425.18	356.99
425.551	397.85
425.922	420.83
426.293	441.26
426.664	369.76
427.035	418.28
427.406	418.28
427.776	382.53
428.147	418.28
428.518	423.38
428.888	418.28
429.259	397.85
429.629	436.15
429.999	418.28
430.37	420.83
430.74	443.81
431.11	387.63
431.481	441.26
431.851	423.38
432.221	459.13
432.591	441.26
432.961	469.34
433.331	428.49
433.701	349.33
434.071	356.99
434.441	423.38
434.81	433.6
435.18	372.31
435.55	443.81
435.919	397.85
436.289	354.44
436.658	400.4
437.028	431.04
437.397	385.08
437.767	443.81
438.136	415.72
438.505	423.38
438.875	433.6
439.244	446.36
439.613	456.58
439.982	436.15
440.351	456.58
440.72	405.51
441.089	379.97
441.458	425.94
441.827	374.87
442.196	344.23
442.564	461.68
442.933	448.92
443.302	441.26
443.67	344.23
444.039	379.97
444.407	443.81
444.776	428.49
445.144	392.74
445.513	354.44
445.881	448.92
446.249	410.62
446.617	402.95
446.986	374.87
447.354	415.72
447.722	351.89
448.09	443.81
448.458	354.44
448.826	405.51
449.194	420.83
449.561	395.29
449.929	405.51
450.297	420.83
450.665	431.04
451.032	377.42
451.4	369.76
451.767	431.04
452.135	382.53
452.502	438.7
452.87	428.49
453.237	448.92
453.604	413.17
453.971	374.87
454.339	459.13
454.706	484.66
455.073	387.63
455.44	400.4
455.807	385.08
456.174	351.89
456.541	344.23
456.908	392.74
457.274	428.49
457.641	446.36
458.008	436.15
458.374	385.08
458.741	400.4
459.108	428.49
459.474	415.72
459.841	456.58
460.207	390.19
460.573	321.25
460.94	413.17
461.306	328.91
461.672	461.68
462.038	397.85
462.404	466.79
462.771	374.87
463.137	367.21
463.503	402.95
463.868	423.38
464.234	441.26
464.6	369.76
464.966	464.24
465.332	461.68
465.697	436.15
466.063	454.02
466.429	397.85
466.794	471.9
467.16	428.49
467.525	415.72
467.89	431.04
468.256	402.95
468.621	423.38
468.986	454.02
469.351	548.5
469.717	428.49
470.082	420.83
470.447	410.62
470.812	400.4
471.177	415.72
471.542	423.38
471.906	474.45
472.271	464.24
472.636	408.06
473.001	425.94
473.365	354.44
473.73	359.55
474.094	364.65
474.459	454.02
474.823	431.04
475.188	431.04
475.552	438.7
475.917	405.51
476.281	410.62
476.645	413.17
477.009	387.63
477.373	464.24
477.737	441.26
478.101	387.63
478.465	410.62
478.829	413.17
479.193	431.04
479.557	346.78
479.921	489.77
480.284	433.6
480.648	451.47
481.012	382.53
481.375	443.81
481.739	433.6
482.102	425.94
482.466	454.02
482.829	446.36
483.193	379.97
483.556	379.97
483.919	420.83
484.282	405.51
484.645	410.62
485.009	459.13
485.372	346.78
485.735	438.7
486.098	354.44
486.46	408.06
486.823	408.06
487.186	413.17
487.549	423.38
487.912	451.47
488.274	356.99
488.637	423.38
488.999	410.62
489.362	497.43
489.724	418.28
490.087	423.38
490.449	405.51
490.811	505.09
491.174	420.83
491.536	356.99
491.898	369.76
492.26	431.04
492.622	415.72
492.984	433.6
493.346	438.7
493.708	382.53
494.07	408.06
494.432	446.36
494.794	436.15
495.155	433.6
495.517	390.19
495.879	423.38
496.24	420.83
496.602	385.08
496.963	425.94
497.325	387.63
497.686	431.04
498.048	377.42
498.409	456.58
498.77	431.04
499.131	479.56
499.492	418.28
499.854	397.85
500.215	395.29
500.576	499.98
500.937	448.92
501.298	464.24
501.658	382.53
502.019	471.9
502.38	408.06
502.741	474.45
503.101	441.26
503.462	431.04
503.823	474.45
504.183	469.34
504.543	400.4
504.904	402.95
505.264	413.17
505.625	410.62
505.985	438.7
506.345	428.49
506.705	354.44
507.065	446.36
507.426	428.49
507.786	454.02
508.146	428.49
508.505	446.36
508.865	446.36
509.225	423.38
509.585	533.18
509.945	494.88
510.304	390.19
510.664	436.15
511.024	477
511.383	454.02
511.743	385.08
512.102	351.89
512.462	425.94
512.821	405.51
513.18	420.83
513.539	425.94
513.899	461.68
514.258	431.04
514.617	431.04
514.976	489.77
515.335	446.36
515.694	423.38
516.053	459.13
516.412	397.85
516.771	433.6
517.129	431.04
517.488	441.26
517.847	454.02
518.205	479.56
518.564	461.68
518.922	413.17
519.281	428.49
519.639	425.94
519.998	402.95
520.356	433.6
520.714	436.15
521.073	418.28
521.431	466.79
521.789	451.47
522.147	395.29
522.505	410.62
522.863	362.1
523.221	431.04
523.579	428.49
523.937	456.58
524.295	438.7
524.652	395.29
525.01	382.53
525.368	464.24
525.725	436.15
526.083	372.31
526.44	446.36
526.798	436.15
527.155	405.51
527.513	410.62
527.87	425.94
528.227	400.4
528.584	425.94
528.942	339.12
529.299	402.95
529.656	359.55
530.013	438.7
530.37	431.04
530.727	377.42
531.083	441.26
531.44	494.88
531.797	423.38
532.154	423.38
532.511	428.49
532.867	382.53
533.224	461.68
533.58	446.36
533.937	456.58
534.293	351.89
534.65	405.51
535.006	372.31
535.362	410.62
535.718	446.36
536.075	451.47
536.431	441.26
536.787	420.83
537.143	408.06
537.499	400.4
537.855	443.81
538.211	418.28
538.567	382.53
538.923	413.17
539.278	418.28
539.634	420.83
539.99	459.13
540.345	471.9
540.701	436.15
541.056	418.28
541.412	377.42
541.767	494.88
542.123	418.28
542.478	436.15
542.833	454.02
543.188	387.63
543.544	415.72
543.899	448.92
544.254	446.36
544.609	400.4
544.964	392.74
545.319	466.79
545.674	418.28
546.029	395.29
546.383	377.42
546.738	477
547.093	395.29
547.447	397.85
547.802	420.83
548.157	382.53
548.511	379.97
548.866	436.15
549.22	392.74
549.574	423.38
549.929	374.87
550.283	428.49
550.637	436.15
550.991	405.51
551.345	385.08
551.699	441.26
552.053	367.21
552.407	431.04
552.761	461.68
553.115	507.64
553.469	494.88
553.823	454.02
554.176	459.13
554.53	510.2
554.884	425.94
555.237	660.85
555.591	420.83
555.944	423.38
556.298	443.81
556.651	461.68
557.005	487.22
557.358	397.85
557.711	395.29
558.064	400.4
558.417	433.6
558.771	517.86
559.124	469.34
559.477	410.62
559.83	367.21
560.182	431.04
560.535	374.87
560.888	438.7
561.241	459.13
561.594	397.85
561.946	438.7
562.299	420.83
562.651	392.74
563.004	418.28
563.356	433.6
563.709	402.95
564.061	464.24
564.413	456.58
564.766	413.17
565.118	431.04
565.47	390.19
565.822	420.83
566.174	431.04
566.526	446.36
566.878	443.81
567.23	438.7
567.582	336.57
567.934	392.74
568.286	390.19
568.638	385.08
568.989	382.53
569.341	336.57
569.693	385.08
570.044	382.53
570.396	410.62
570.747	446.36
571.098	448.92
571.45	405.51
571.801	441.26
572.152	454.02
572.504	405.51
572.855	387.63
573.206	400.4
573.557	438.7
573.908	436.15
574.259	431.04
574.61	367.21
574.961	454.02
575.311	479.56
575.662	446.36
576.013	423.38
576.364	428.49
576.714	415.72
577.065	494.88
577.415	364.65
577.766	374.87
578.116	454.02
578.467	477
578.817	471.9
579.167	390.19
579.518	379.97
579.868	379.97
580.218	415.72
580.568	454.02
580.918	428.49
581.268	448.92
581.618	438.7
581.968	466.79
582.318	395.29
582.668	392.74
583.017	382.53
583.367	438.7
583.717	446.36
584.066	415.72
584.416	395.29
584.765	446.36
585.115	438.7
585.464	405.51
585.814	354.44
586.163	446.36
586.512	431.04
586.862	397.85
587.211	349.33
587.56	354.44
587.909	400.4
588.258	428.49
588.607	392.74
588.956	408.06
589.305	410.62
589.654	397.85
590.002	438.7
590.351	441.26
590.7	382.53
591.048	438.7
591.397	413.17
591.746	443.81
592.094	469.34
592.443	364.65
592.791	428.49
593.139	405.51
593.488	395.29
593.836	428.49
594.184	359.55
594.532	377.42
594.88	471.9
595.228	451.47
595.576	351.89
595.924	423.38
596.272	433.6
596.62	413.17
596.968	423.38
597.316	410.62
597.664	415.72
598.011	436.15
598.359	400.4
598.706	456.58
599.054	510.2
599.402	425.94
599.749	405.51
600.096	351.89
600.444	390.19
600.791	377.42
601.138	415.72
601.485	415.72
601.833	461.68
602.18	448.92
602.527	484.66
602.874	395.29
603.221	410.62
603.568	438.7
603.914	438.7
604.261	405.51
604.608	415.72
604.955	418.28
605.301	423.38
605.648	423.38
605.995	395.29
606.341	385.08
606.688	418.28
607.034	349.33
607.38	385.08
607.727	390.19
608.073	451.47
608.419	428.49
608.765	423.38
609.112	420.83
609.458	392.74
609.804	428.49
610.15	423.38
610.496	451.47
610.842	464.24
611.187	420.83
611.533	408.06
611.879	420.83
612.225	387.63
612.57	466.79
612.916	372.31
613.261	382.53
613.607	418.28
613.952	392.74
614.298	369.76
614.643	410.62
614.989	374.87
615.334	351.89
615.679	385.08
616.024	397.85
616.369	387.63
616.714	364.65
617.059	420.83
617.404	461.68
617.749	448.92
618.094	428.49
618.439	410.62
618.784	438.7
619.129	433.6
619.473	418.28
619.818	392.74
620.163	418.28
620.507	428.49
620.852	461.68
621.196	377.42
621.54	385.08
621.885	408.06
622.229	413.17
622.573	392.74
622.918	438.7
623.262	379.97
623.606	438.7
623.95	431.04
624.294	405.51
624.638	362.1
624.982	433.6
625.326	408.06
625.67	402.95
626.013	436.15
626.357	425.94
626.701	420.83
627.044	392.74
627.388	400.4
627.731	410.62
628.075	415.72
628.418	418.28
628.762	436.15
629.105	408.06
629.448	382.53
629.792	420.83
630.135	351.89
630.478	313.59
630.821	367.21
631.164	461.68
631.507	464.24
631.85	400.4
632.193	390.19
632.536	489.77
632.879	438.7
633.221	385.08
633.564	423.38
633.907	428.49
634.249	489.77
634.592	423.38
634.935	390.19
635.277	425.94
635.619	402.95
635.962	413.17
636.304	451.47
636.646	397.85
636.989	410.62
637.331	379.97
637.673	471.9
638.015	474.45
638.357	413.17
638.699	356.99
639.041	382.53
639.383	454.02
639.725	436.15
640.067	390.19
640.408	443.81
640.75	451.47
641.092	369.76
641.433	415.72
641.775	448.92
642.116	385.08
642.458	392.74
642.799	346.78
643.141	456.58
643.482	448.92
643.823	420.83
644.164	431.04
644.506	530.62
644.847	446.36
645.188	494.88
645.529	397.85
645.87	438.7
646.211	454.02
646.552	436.15
646.893	385.08
647.233	418.28
647.574	387.63
647.915	436.15
648.255	349.33
648.596	374.87
648.937	423.38
649.277	433.6
649.618	431.04
649.958	484.66
650.298	466.79
650.639	456.58
650.979	410.62
651.319	433.6
651.659	349.33
651.999	425.94
652.339	420.83
652.679	438.7
653.019	405.51
653.359	387.63
653.699	446.36
654.039	397.85
654.379	356.99
654.719	441.26
655.058	356.99
655.398	446.36
655.737	515.3
656.077	438.7
656.416	433.6
656.756	418.28
657.095	441.26
657.435	395.29
657.774	382.53
658.113	369.76
658.452	438.7
658.792	402.95
659.131	451.47
659.47	410.62
659.809	346.78
660.148	402.95
660.487	497.43
660.826	392.74
661.164	408.06
661.503	438.7
661.842	466.79
662.181	431.04
662.519	425.94
662.858	408.06
663.196	367.21
663.535	395.29
663.873	331.46
664.212	441.26
664.55	413.17
664.888	443.81
665.226	359.55
665.565	456.58
665.903	581.69
666.241	364.65
666.579	405.51
666.917	433.6
667.255	420.83
667.593	377.42
667.931	471.9
668.268	410.62
668.606	420.83
668.944	418.28
669.282	392.74
669.619	402.95
669.957	397.85
670.294	397.85
670.632	382.53
670.969	405.51
671.307	441.26
671.644	413.17
671.981	454.02
672.318	477
672.656	415.72
672.993	433.6
673.33	379.97
673.667	420.83
674.004	456.58
674.341	441.26
674.678	410.62
675.015	428.49
675.351	428.49
675.688	415.72
676.025	433.6
676.362	402.95
676.698	479.56
677.035	377.42
677.371	395.29
677.708	420.83
678.044	425.94
678.38	346.78
678.717	341.67
679.053	344.23
679.389	321.25
679.725	379.97
680.062	454.02
680.398	415.72
680.734	390.19
681.07	441.26
681.406	402.95
681.742	487.22
682.077	425.94
682.413	377.42
682.749	402.95
683.085	379.97
683.42	400.4
683.756	400.4
684.091	428.49
684.427	431.04
684.762	321.25
685.098	362.1
685.433	418.28
685.768	408.06
686.104	387.63
686.439	385.08
686.774	400.4
687.109	418.28
687.444	382.53
687.779	311.03
688.114	415.72
688.449	397.85
688.784	433.6
689.119	410.62
689.454	420.83
689.789	390.19
690.123	443.81
690.458	482.11
690.792	433.6
691.127	459.13
691.461	505.09
691.796	385.08
692.13	418.28
692.465	390.19
692.799	372.31
693.133	420.83
693.467	431.04
693.802	438.7
694.136	433.6
694.47	364.65
694.804	423.38
695.138	377.42
695.472	387.63
695.806	420.83
696.139	425.94
696.473	431.04
696.807	464.24
697.141	428.49
697.474	418.28
697.808	446.36
698.141	438.7
698.475	410.62
698.808	438.7
699.142	423.38
699.475	405.51
699.808	377.42
700.142	351.89
700.475	382.53
700.808	364.65
701.141	400.4
701.474	418.28
701.807	400.4
702.14	390.19
702.473	379.97
702.806	316.14
703.139	459.13
703.472	499.98
703.804	454.02
704.137	356.99
704.47	377.42
704.802	402.95
705.135	341.67
705.467	395.29
705.8	351.89
706.132	408.06
706.464	410.62
706.797	410.62
707.129	405.51
707.461	364.65
707.793	382.53
708.125	367.21
708.457	367.21
708.789	461.68
709.121	400.4
709.453	395.29
709.785	443.81
710.117	484.66
710.449	362.1
710.781	413.17
711.112	420.83
711.444	477
711.775	446.36
712.107	466.79
712.438	471.9
712.77	469.34
713.101	446.36
713.433	390.19
713.764	400.4
714.095	448.92
714.426	397.85
714.757	390.19
715.089	377.42
715.42	418.28
715.751	428.49
716.082	377.42
716.412	402.95
716.743	418.28
717.074	408.06
717.405	367.21
717.736	423.38
718.066	385.08
718.397	428.49
718.727	362.1
719.058	443.81
719.388	400.4
719.719	349.33
720.049	448.92
720.38	466.79
720.71	446.36
721.04	382.53
721.37	438.7
721.7	402.95
722.031	364.65
722.361	303.37
722.691	374.87
723.021	402.95
723.35	385.08
723.68	390.19
724.01	456.58
724.34	405.51
724.67	400.4
724.999	390.19
725.329	428.49
725.658	446.36
725.988	497.43
726.317	454.02
726.647	464.24
726.976	367.21
727.306	390.19
727.635	451.47
727.964	410.62
728.293	461.68
728.622	346.78
728.952	392.74
729.281	464.24
729.61	520.41
729.939	464.24
730.267	413.17
730.596	395.29
730.925	431.04
731.254	372.31
731.583	385.08
731.911	364.65
732.24	441.26
732.568	428.49
732.897	379.97
733.225	400.4
733.554	379.97
733.882	351.89
734.21	428.49
734.539	418.28
734.867	408.06
735.195	423.38
735.523	395.29
735.851	413.17
736.179	356.99
736.507	408.06
736.835	477
737.163	446.36
737.491	425.94
737.819	397.85
738.147	397.85
738.474	405.51
738.802	425.94
739.13	390.19
739.457	326.35
739.785	397.85
740.112	420.83
740.44	415.72
740.767	362.1
741.094	377.42
741.422	423.38
741.749	382.53
742.076	420.83
742.403	441.26
742.73	438.7
743.057	420.83
743.384	400.4
743.711	418.28
744.038	382.53
744.365	459.13
744.692	408.06
745.018	408.06
745.345	418.28
745.672	354.44
745.998	377.42
746.325	372.31
746.651	397.85
746.978	428.49
747.304	395.29
747.631	408.06
747.957	471.9
748.283	474.45
748.61	382.53
748.936	354.44
749.262	402.95
749.588	356.99
749.914	431.04
750.24	436.15
750.566	425.94
750.892	405.51
751.218	408.06
751.543	382.53
751.869	425.94
752.195	390.19
752.521	425.94
752.846	428.49
753.172	415.72
753.497	369.76
753.823	428.49
754.148	374.87
754.473	351.89
754.799	405.51
755.124	382.53
755.449	402.95
755.774	400.4
756.1	451.47
756.425	466.79
756.75	471.9
757.075	451.47
757.4	545.94
757.724	469.34
758.049	431.04
758.374	418.28
758.699	382.53
759.024	446.36
759.348	402.95
759.673	413.17
759.997	367.21
760.322	431.04
760.646	461.68
760.971	374.87
761.295	446.36
761.619	408.06
761.944	459.13
762.268	443.81
762.592	548.5
762.916	533.18
763.24	551.05
763.564	597.01
763.888	701.7
764.212	773.19
764.536	780.85
764.86	821.71
765.184	967.25
765.508	900.86
765.831	921.29
766.155	1125.56
766.478	921.29
766.802	895.76
767.126	898.31
767.449	857.46
767.772	867.67
768.096	806.39
768.419	665.95
768.742	617.44
769.066	632.76
769.389	545.94
769.712	561.26
770.035	648.08
770.358	635.31
770.681	903.42
771.004	1033.64
771.327	1194.5
771.65	1437.07
771.972	1587.72
772.295	1917.11
772.618	2266.92
772.941	2481.4
773.263	2851.64
773.586	3469.56
773.908	3638.08
774.231	3763.2
774.553	3844.91
774.875	4003.22
775.198	4337.71
775.52	4018.54
775.842	3699.37
776.164	3489.99
776.487	3298.49
776.809	3290.83
777.131	3066.13
777.453	2941.01
777.775	2688.23
778.096	2573.33
778.418	2190.32
778.74	1791.99
779.062	1449.84
779.384	1296.64
779.705	1163.86
780.027	1094.92
780.348	1054.07
780.67	1020.87
780.991	1199.61
781.313	1470.27
781.634	1751.14
781.955	2241.39
782.277	2660.14
782.598	3183.58
782.919	3610
783.24	4031.31
783.561	4536.87
783.882	5062.87
784.203	5486.73
784.524	5328.42
784.845	5685.89
785.166	5938.68
785.487	6691.93
785.807	6903.86
786.128	7003.44
786.449	6845.13
786.769	6528.51
787.09	6653.62
787.41	6827.25
787.731	7248.56
788.051	7169.41
788.372	7072.38
788.692	6804.27
789.012	6145.5
789.332	5210.97
789.653	4764.12
789.973	4552.19
790.293	3722.35
790.613	2769.94
790.933	2282.24
791.253	1922.21
791.573	1615.81
791.893	1140.88
792.212	1031.09
792.532	829.37
792.852	928.95
793.171	1168.97
793.491	1355.36
793.811	1822.63
794.13	2159.68
794.45	2563.11
794.769	3188.69
795.088	3862.78
795.408	4347.92
795.727	5476.52
796.046	6566.81
796.365	7925.21
796.684	7874.14
797.004	8045.22
797.323	8619.73
797.642	9947.48
797.96	9635.97
798.279	9355.1
798.598	9311.69
798.917	9452.13
799.236	8818.89
799.554	8647.81
799.873	8129.48
800.192	7815.41
800.51	7580.5
