Data from 2025-12-03_xpw_interference_micrometer_631_FLMS141361__8__558.txt Node

Date: Wed Dec 03 15:54:05 MST 2025
User: james
Spectrometer: FLMS14136
Trigger mode: 0
Integration Time (sec): 1.000000E-1
Scans to average: 1
Electric dark correction enabled: true
Nonlinearity correction enabled: false
Boxcar width: 0
XAxis mode: Wavelengths
Number of Pixels in Spectrum: 2048
>>>>>Begin Spectral Data<<<<<
339.315	-45
339.697	-45
340.079	-45
340.461	-116.5
340.843	-96.07
341.225	-126.71
341.607	-65.43
341.989	-85.86
342.371	-65.43
342.752	-65.43
343.134	-80.75
343.516	-34.79
343.897	-4.15
344.279	-39.9
344.661	-4.15
345.042	39.26
345.423	6.06
345.805	6.06
346.186	166.93
346.567	220.55
346.949	133.73
347.33	149.05
347.711	133.73
348.092	238.42
348.473	256.3
348.854	299.7
349.235	286.94
349.616	197.57
349.997	217.99
350.378	238.42
350.758	299.7
351.139	330.34
351.52	366.09
351.9	330.34
352.281	330.34
352.661	340.56
353.042	401.84
353.422	348.22
353.803	396.73
354.183	391.62
354.563	427.37
354.943	320.13
355.324	376.3
355.704	363.54
356.084	345.66
356.464	419.71
356.844	417.16
357.224	338
357.603	338
357.983	348.22
358.363	442.69
358.743	348.22
359.122	371.2
359.502	350.77
359.882	366.09
360.261	473.33
360.641	360.98
361.02	355.88
361.399	360.98
361.779	378.86
362.158	345.66
362.537	381.41
362.916	261.4
363.296	325.24
363.675	325.24
364.054	399.28
364.433	335.45
364.812	373.75
365.19	368.64
365.569	363.54
365.948	279.28
366.327	322.68
366.705	297.15
367.084	309.92
367.463	307.36
367.841	279.28
368.22	332.9
368.598	350.77
368.977	381.41
369.355	330.34
369.733	340.56
370.111	338
370.49	340.56
370.868	330.34
371.246	304.81
371.624	360.98
372.002	315.02
372.38	376.3
372.758	309.92
373.136	327.79
373.513	371.2
373.891	368.64
374.269	343.11
374.646	355.88
375.024	315.02
375.402	320.13
375.779	417.16
376.157	307.36
376.534	363.54
376.911	317.58
377.289	320.13
377.666	343.11
378.043	320.13
378.42	378.86
378.797	381.41
379.175	381.41
379.552	353.32
379.929	360.98
380.305	355.88
380.682	391.62
381.059	391.62
381.436	332.9
381.813	345.66
382.189	409.5
382.566	355.88
382.943	335.45
383.319	292.04
383.696	373.75
384.072	412.05
384.448	404.39
384.825	363.54
385.201	445.25
385.577	317.58
385.953	320.13
386.329	399.28
386.706	378.86
387.082	383.96
387.458	412.05
387.834	345.66
388.209	391.62
388.585	376.3
388.961	373.75
389.337	412.05
389.713	389.07
390.088	355.88
390.464	378.86
390.839	327.79
391.215	340.56
391.59	335.45
391.966	389.07
392.341	345.66
392.716	401.84
393.092	391.62
393.467	373.75
393.842	335.45
394.217	363.54
394.592	366.09
394.967	340.56
395.342	353.32
395.717	399.28
396.092	394.18
396.467	363.54
396.841	345.66
397.216	348.22
397.591	320.13
397.965	363.54
398.34	389.07
398.714	348.22
399.089	401.84
399.463	417.16
399.838	414.6
400.212	371.2
400.586	355.88
400.961	427.37
401.335	368.64
401.709	389.07
402.083	406.94
402.457	353.32
402.831	368.64
403.205	406.94
403.579	401.84
403.953	394.18
404.326	424.82
404.7	371.2
405.074	343.11
405.447	335.45
405.821	383.96
406.195	378.86
406.568	381.41
406.942	419.71
407.315	404.39
407.688	435.03
408.062	386.52
408.435	391.62
408.808	432.48
409.181	429.93
409.554	419.71
409.927	343.11
410.3	360.98
410.673	304.81
411.046	371.2
411.419	412.05
411.792	322.68
412.165	366.09
412.537	378.86
412.91	360.98
413.283	320.13
413.655	348.22
414.028	363.54
414.4	376.3
414.773	427.37
415.145	396.73
415.517	325.24
415.889	322.68
416.262	394.18
416.634	424.82
417.006	404.39
417.378	414.6
417.75	409.5
418.122	404.39
418.494	429.93
418.866	373.75
419.238	363.54
419.609	350.77
419.981	378.86
420.353	335.45
420.725	409.5
421.096	353.32
421.468	396.73
421.839	432.48
422.211	424.82
422.582	396.73
422.953	424.82
423.325	399.28
423.696	401.84
424.067	368.64
424.438	409.5
424.809	378.86
425.18	401.84
425.551	432.48
425.922	396.73
426.293	391.62
426.664	366.09
427.035	468.23
427.406	371.2
427.776	368.64
428.147	396.73
428.518	409.5
428.888	389.07
429.259	478.44
429.629	452.91
429.999	389.07
430.37	452.91
430.74	473.33
431.11	394.18
431.481	396.73
431.851	376.3
432.221	386.52
432.591	371.2
432.961	389.07
433.331	338
433.701	389.07
434.071	383.96
434.441	391.62
434.81	406.94
435.18	350.77
435.55	381.41
435.919	373.75
436.289	391.62
436.658	378.86
437.028	391.62
437.397	381.41
437.767	409.5
438.136	391.62
438.505	437.59
438.875	401.84
439.244	437.59
439.613	376.3
439.982	376.3
440.351	358.43
440.72	396.73
441.089	424.82
441.458	404.39
441.827	389.07
442.196	406.94
442.564	532.06
442.933	445.25
443.302	343.11
443.67	391.62
444.039	409.5
444.407	391.62
444.776	368.64
445.144	383.96
445.513	330.34
445.881	371.2
446.249	350.77
446.617	427.37
446.986	419.71
447.354	335.45
447.722	320.13
448.09	386.52
448.458	343.11
448.826	412.05
449.194	409.5
449.561	396.73
449.929	343.11
450.297	338
450.665	406.94
451.032	437.59
451.4	429.93
451.767	440.14
452.135	366.09
452.502	383.96
452.87	389.07
453.237	427.37
453.604	432.48
453.971	399.28
454.339	394.18
454.706	396.73
455.073	460.57
455.44	386.52
455.807	335.45
456.174	322.68
456.541	429.93
456.908	452.91
457.274	465.67
457.641	409.5
458.008	424.82
458.374	432.48
458.741	432.48
459.108	389.07
459.474	391.62
459.841	414.6
460.207	432.48
460.573	417.16
460.94	422.26
461.306	483.55
461.672	414.6
462.038	452.91
462.404	429.93
462.771	406.94
463.137	371.2
463.503	491.21
463.868	412.05
464.234	417.16
464.6	445.25
464.966	458.01
465.332	412.05
465.697	422.26
466.063	435.03
466.429	435.03
466.794	450.35
467.16	468.23
467.525	422.26
467.89	414.6
468.256	378.86
468.621	406.94
468.986	363.54
469.351	452.91
469.717	470.78
470.082	422.26
470.447	378.86
470.812	389.07
471.177	452.91
471.542	442.69
471.906	315.02
472.271	376.3
472.636	396.73
473.001	335.45
473.365	396.73
473.73	404.39
474.094	429.93
474.459	455.46
474.823	429.93
475.188	338
475.552	353.32
475.917	396.73
476.281	363.54
476.645	396.73
477.009	350.77
477.373	389.07
477.737	353.32
478.101	373.75
478.465	368.64
478.829	412.05
479.193	330.34
479.557	409.5
479.921	373.75
480.284	376.3
480.648	427.37
481.012	381.41
481.375	463.12
481.739	358.43
482.102	414.6
482.466	378.86
482.829	386.52
483.193	371.2
483.556	401.84
483.919	414.6
484.282	396.73
484.645	389.07
485.009	396.73
485.372	396.73
485.735	338
486.098	394.18
486.46	391.62
486.823	414.6
487.186	394.18
487.549	391.62
487.912	404.39
488.274	417.16
488.637	424.82
488.999	435.03
489.362	406.94
489.724	465.67
490.087	404.39
490.449	338
490.811	404.39
491.174	404.39
491.536	399.28
491.898	409.5
492.26	468.23
492.622	399.28
492.984	399.28
493.346	350.77
493.708	483.55
494.07	409.5
494.432	427.37
494.794	386.52
495.155	412.05
495.517	360.98
495.879	401.84
496.24	429.93
496.602	373.75
496.963	473.33
497.325	309.92
497.686	432.48
498.048	371.2
498.409	435.03
498.77	452.91
499.131	493.76
499.492	401.84
499.854	406.94
500.215	378.86
500.576	432.48
500.937	401.84
501.298	406.94
501.658	450.35
502.019	422.26
502.38	376.3
502.741	447.8
503.101	450.35
503.462	468.23
503.823	437.59
504.183	399.28
504.543	404.39
504.904	381.41
505.264	358.43
505.625	414.6
505.985	371.2
506.345	394.18
506.705	371.2
507.065	473.33
507.426	394.18
507.786	427.37
508.146	419.71
508.505	412.05
508.865	468.23
509.225	404.39
509.585	491.21
509.945	401.84
510.304	391.62
510.664	363.54
511.024	368.64
511.383	381.41
511.743	350.77
512.102	360.98
512.462	327.79
512.821	304.81
513.18	432.48
513.539	371.2
513.899	442.69
514.258	427.37
514.617	445.25
514.976	371.2
515.335	391.62
515.694	386.52
516.053	399.28
516.412	424.82
516.771	452.91
517.129	417.16
517.488	409.5
517.847	386.52
518.205	383.96
518.564	386.52
518.922	389.07
519.281	452.91
519.639	414.6
519.998	409.5
520.356	399.28
520.714	366.09
521.073	401.84
521.431	368.64
521.789	345.66
522.147	406.94
522.505	383.96
522.863	432.48
523.221	427.37
523.579	399.28
523.937	307.36
524.295	404.39
524.652	427.37
525.01	383.96
525.368	406.94
525.725	396.73
526.083	409.5
526.44	404.39
526.798	414.6
527.155	435.03
527.513	440.14
527.87	463.12
528.227	460.57
528.584	460.57
528.942	429.93
529.299	381.41
529.656	452.91
530.013	386.52
530.37	437.59
530.727	498.87
531.083	463.12
531.44	376.3
531.797	429.93
532.154	389.07
532.511	363.54
532.867	396.73
533.224	470.78
533.58	473.33
533.937	427.37
534.293	389.07
534.65	409.5
535.006	386.52
535.362	366.09
535.718	394.18
536.075	406.94
536.431	442.69
536.787	378.86
537.143	368.64
537.499	378.86
537.855	383.96
538.211	386.52
538.567	417.16
538.923	417.16
539.278	422.26
539.634	343.11
539.99	358.43
540.345	399.28
540.701	424.82
541.056	401.84
541.412	353.32
541.767	442.69
542.123	401.84
542.478	450.35
542.833	401.84
543.188	424.82
543.544	437.59
543.899	381.41
544.254	396.73
544.609	458.01
544.964	404.39
545.319	389.07
545.674	376.3
546.029	414.6
546.383	435.03
546.738	429.93
547.093	468.23
547.447	399.28
547.802	414.6
548.157	399.28
548.511	381.41
548.866	389.07
549.22	386.52
549.574	292.04
549.929	371.2
550.283	396.73
550.637	412.05
550.991	455.46
551.345	424.82
551.699	452.91
552.053	368.64
552.407	422.26
552.761	404.39
553.115	404.39
553.469	422.26
553.823	412.05
554.176	417.16
554.53	383.96
554.884	368.64
555.237	621.43
555.591	447.8
555.944	486.1
556.298	470.78
556.651	488.65
557.005	414.6
557.358	363.54
557.711	378.86
558.064	371.2
558.417	424.82
558.771	475.89
559.124	440.14
559.477	381.41
559.83	406.94
560.182	404.39
560.535	353.32
560.888	386.52
561.241	442.69
561.594	363.54
561.946	409.5
562.299	404.39
562.651	378.86
563.004	330.34
563.356	419.71
563.709	427.37
564.061	343.11
564.413	381.41
564.766	401.84
565.118	386.52
565.47	332.9
565.822	394.18
566.174	371.2
566.526	406.94
566.878	419.71
567.23	322.68
567.582	429.93
567.934	366.09
568.286	424.82
568.638	422.26
568.989	373.75
569.341	422.26
569.693	445.25
570.044	414.6
570.396	406.94
570.747	378.86
571.098	478.44
571.45	394.18
571.801	383.96
572.152	348.22
572.504	366.09
572.855	389.07
573.206	383.96
573.557	363.54
573.908	335.45
574.259	429.93
574.61	396.73
574.961	373.75
575.311	435.03
575.662	332.9
576.013	401.84
576.364	399.28
576.714	440.14
577.065	363.54
577.415	343.11
577.766	412.05
578.116	417.16
578.467	366.09
578.817	409.5
579.167	491.21
579.518	366.09
579.868	455.46
580.218	399.28
580.568	396.73
580.918	468.23
581.268	409.5
581.618	455.46
581.968	447.8
582.318	358.43
582.668	399.28
583.017	396.73
583.367	409.5
583.717	424.82
584.066	406.94
584.416	396.73
584.765	404.39
585.115	396.73
585.464	409.5
585.814	368.64
586.163	368.64
586.512	440.14
586.862	404.39
587.211	401.84
587.56	447.8
587.909	432.48
588.258	391.62
588.607	389.07
588.956	391.62
589.305	297.15
589.654	360.98
590.002	422.26
590.351	396.73
590.7	401.84
591.048	442.69
591.397	437.59
591.746	371.2
592.094	414.6
592.443	381.41
592.791	432.48
593.139	424.82
593.488	406.94
593.836	394.18
594.184	371.2
594.532	437.59
594.88	429.93
595.228	373.75
595.576	383.96
595.924	391.62
596.272	383.96
596.62	401.84
596.968	419.71
597.316	389.07
597.664	401.84
598.011	424.82
598.359	371.2
598.706	422.26
599.054	330.34
599.402	473.33
599.749	424.82
600.096	386.52
600.444	360.98
600.791	391.62
601.138	427.37
601.485	414.6
601.833	383.96
602.18	350.77
602.527	437.59
602.874	332.9
603.221	419.71
603.568	440.14
603.914	432.48
604.261	424.82
604.608	419.71
604.955	386.52
605.301	401.84
605.648	386.52
605.995	348.22
606.341	463.12
606.688	424.82
607.034	371.2
607.38	363.54
607.727	406.94
608.073	340.56
608.419	383.96
608.765	412.05
609.112	363.54
609.458	353.32
609.804	417.16
610.15	368.64
610.496	401.84
610.842	399.28
611.187	363.54
611.533	343.11
611.879	437.59
612.225	371.2
612.57	376.3
612.916	414.6
613.261	475.89
613.607	394.18
613.952	340.56
614.298	419.71
614.643	389.07
614.989	373.75
615.334	317.58
615.679	422.26
616.024	340.56
616.369	335.45
616.714	383.96
617.059	320.13
617.404	396.73
617.749	427.37
618.094	383.96
618.439	383.96
618.784	478.44
619.129	455.46
619.473	435.03
619.818	394.18
620.163	338
620.507	440.14
620.852	343.11
621.196	399.28
621.54	394.18
621.885	437.59
622.229	376.3
622.573	414.6
622.918	371.2
623.262	440.14
623.606	394.18
623.95	383.96
624.294	414.6
624.638	432.48
624.982	381.41
625.326	399.28
625.67	383.96
626.013	450.35
626.357	360.98
626.701	401.84
627.044	412.05
627.388	338
627.731	386.52
628.075	366.09
628.418	381.41
628.762	391.62
629.105	366.09
629.448	368.64
629.792	424.82
630.135	381.41
630.478	335.45
630.821	424.82
631.164	391.62
631.507	445.25
631.85	386.52
632.193	332.9
632.536	394.18
632.879	386.52
633.221	383.96
633.564	358.43
633.907	440.14
634.249	373.75
634.592	378.86
634.935	378.86
635.277	478.44
635.619	478.44
635.962	429.93
636.304	376.3
636.646	330.34
636.989	327.79
637.331	332.9
637.673	417.16
638.015	414.6
638.357	401.84
638.699	371.2
639.041	409.5
639.383	358.43
639.725	383.96
640.067	320.13
640.408	401.84
640.75	350.77
641.092	345.66
641.433	332.9
641.775	422.26
642.116	442.69
642.458	350.77
642.799	368.64
643.141	404.39
643.482	360.98
643.823	330.34
644.164	335.45
644.506	463.12
644.847	409.5
645.188	366.09
645.529	406.94
645.87	414.6
646.211	468.23
646.552	417.16
646.893	338
647.233	343.11
647.574	348.22
647.915	419.71
648.255	414.6
648.596	376.3
648.937	383.96
649.277	350.77
649.618	406.94
649.958	455.46
650.298	409.5
650.639	373.75
650.979	371.2
651.319	429.93
651.659	419.71
651.999	381.41
652.339	409.5
652.679	371.2
653.019	417.16
653.359	427.37
653.699	412.05
654.039	391.62
654.379	447.8
654.719	429.93
655.058	414.6
655.398	412.05
655.737	463.12
656.077	394.18
656.416	406.94
656.756	404.39
657.095	401.84
657.435	381.41
657.774	348.22
658.113	429.93
658.452	435.03
658.792	442.69
659.131	437.59
659.47	381.41
659.809	381.41
660.148	399.28
660.487	396.73
660.826	373.75
661.164	360.98
661.503	366.09
661.842	401.84
662.181	450.35
662.519	455.46
662.858	406.94
663.196	317.58
663.535	412.05
663.873	468.23
664.212	414.6
664.55	435.03
664.888	335.45
665.226	386.52
665.565	358.43
665.903	588.23
666.241	378.86
666.579	414.6
666.917	404.39
667.255	371.2
667.593	394.18
667.931	427.37
668.268	373.75
668.606	378.86
668.944	401.84
669.282	373.75
669.619	378.86
669.957	338
670.294	345.66
670.632	422.26
670.969	424.82
671.307	412.05
671.644	386.52
671.981	383.96
672.318	422.26
672.656	409.5
672.993	396.73
673.33	368.64
673.667	435.03
674.004	386.52
674.341	350.77
674.678	368.64
675.015	340.56
675.351	399.28
675.688	404.39
676.025	386.52
676.362	406.94
676.698	371.2
677.035	381.41
677.371	389.07
677.708	399.28
678.044	399.28
678.38	406.94
678.717	386.52
679.053	427.37
679.389	422.26
679.725	391.62
680.062	435.03
680.398	399.28
680.734	399.28
681.07	335.45
681.406	442.69
681.742	419.71
682.077	366.09
682.413	406.94
682.749	470.78
683.085	396.73
683.42	437.59
683.756	404.39
684.091	424.82
684.427	406.94
684.762	332.9
685.098	317.58
685.433	358.43
685.768	343.11
686.104	353.32
686.439	353.32
686.774	437.59
687.109	406.94
687.444	348.22
687.779	378.86
688.114	348.22
688.449	368.64
688.784	389.07
689.119	452.91
689.454	412.05
689.789	355.88
690.123	401.84
690.458	422.26
690.792	432.48
691.127	366.09
691.461	358.43
691.796	371.2
692.13	452.91
692.465	325.24
692.799	394.18
693.133	473.33
693.467	386.52
693.802	458.01
694.136	378.86
694.47	389.07
694.804	376.3
695.138	424.82
695.472	383.96
695.806	360.98
696.139	401.84
696.473	419.71
696.807	317.58
697.141	394.18
697.474	350.77
697.808	473.33
698.141	366.09
698.475	396.73
698.808	419.71
699.142	371.2
699.475	406.94
699.808	332.9
700.142	383.96
700.475	381.41
700.808	340.56
701.141	450.35
701.474	378.86
701.807	383.96
702.14	360.98
702.473	315.02
702.806	376.3
703.139	386.52
703.472	414.6
703.804	406.94
704.137	358.43
704.47	383.96
704.802	358.43
705.135	389.07
705.467	368.64
705.8	376.3
706.132	378.86
706.464	396.73
706.797	483.55
707.129	406.94
707.461	404.39
707.793	355.88
708.125	332.9
708.457	335.45
708.789	501.42
709.121	383.96
709.453	368.64
709.785	394.18
710.117	440.14
710.449	406.94
710.781	419.71
711.112	422.26
711.444	424.82
711.775	381.41
712.107	383.96
712.438	360.98
712.77	396.73
713.101	373.75
713.433	391.62
713.764	435.03
714.095	417.16
714.426	404.39
714.757	378.86
715.089	396.73
715.42	358.43
715.751	358.43
716.082	322.68
716.412	340.56
716.743	343.11
717.074	417.16
717.405	406.94
717.736	373.75
718.066	345.66
718.397	368.64
718.727	429.93
719.058	317.58
719.388	435.03
719.719	363.54
720.049	406.94
720.38	320.13
720.71	473.33
721.04	399.28
721.37	399.28
721.7	363.54
722.031	335.45
722.361	381.41
722.691	355.88
723.021	360.98
723.35	338
723.68	399.28
724.01	376.3
724.34	378.86
724.67	345.66
724.999	391.62
725.329	422.26
725.658	363.54
725.988	345.66
726.317	322.68
726.647	325.24
726.976	345.66
727.306	343.11
727.635	373.75
727.964	353.32
728.293	373.75
728.622	409.5
728.952	353.32
729.281	363.54
729.61	368.64
729.939	327.79
730.267	386.52
730.596	470.78
730.925	414.6
731.254	386.52
731.583	422.26
731.911	394.18
732.24	386.52
732.568	440.14
732.897	470.78
733.225	406.94
733.554	373.75
733.882	399.28
734.21	340.56
734.539	401.84
734.867	429.93
735.195	450.35
735.523	340.56
735.851	396.73
736.179	391.62
736.507	432.48
736.835	350.77
737.163	366.09
737.491	327.79
737.819	330.34
738.147	315.02
738.474	371.2
738.802	399.28
739.13	401.84
739.457	320.13
739.785	368.64
740.112	427.37
740.44	422.26
740.767	396.73
741.094	401.84
741.422	366.09
741.749	394.18
742.076	412.05
742.403	348.22
742.73	350.77
743.057	312.47
743.384	399.28
743.711	391.62
744.038	386.52
744.365	427.37
744.692	419.71
745.018	371.2
745.345	360.98
745.672	399.28
745.998	378.86
746.325	335.45
746.651	412.05
746.978	442.69
747.304	427.37
747.631	401.84
747.957	394.18
748.283	386.52
748.61	386.52
748.936	389.07
749.262	371.2
749.588	332.9
749.914	363.54
750.24	383.96
750.566	432.48
750.892	412.05
751.218	358.43
751.543	414.6
751.869	450.35
752.195	447.8
752.521	304.81
752.846	412.05
753.172	440.14
753.497	376.3
753.823	378.86
754.148	358.43
754.473	350.77
754.799	442.69
755.124	343.11
755.449	412.05
755.774	458.01
756.1	458.01
756.425	447.8
756.75	368.64
757.075	386.52
757.4	547.38
757.724	465.67
758.049	445.25
758.374	406.94
758.699	404.39
759.024	399.28
759.348	435.03
759.673	327.79
759.997	389.07
760.322	322.68
760.646	371.2
760.971	409.5
761.295	442.69
761.619	458.01
761.944	440.14
762.268	406.94
762.592	371.2
762.916	458.01
763.24	572.91
763.564	590.79
763.888	608.66
764.212	657.18
764.536	715.9
764.86	713.35
765.184	756.76
765.508	756.76
765.831	830.81
766.155	1070.82
766.478	899.75
766.802	866.55
767.126	871.66
767.449	779.74
767.772	818.04
768.096	728.67
768.419	649.52
768.742	621.43
769.066	595.89
769.389	611.21
769.712	611.21
770.035	649.52
770.358	721.01
770.681	866.55
771.004	1032.52
771.327	1104.02
771.65	1272.54
771.972	1492.13
772.295	1859.82
772.618	2209.63
772.941	2459.86
773.263	2549.23
773.586	3087.99
773.908	3430.14
774.231	3583.35
774.553	3493.98
774.875	3754.42
775.198	4037.85
775.52	3723.78
775.842	3458.23
776.164	3220.77
776.487	3167.15
776.809	3016.5
777.131	3090.54
777.453	2727.97
777.775	2618.17
778.096	2367.94
778.418	2020.68
778.74	1696.4
779.062	1484.47
779.384	1249.56
779.705	1160.19
780.027	1098.91
780.348	978.9
780.67	1035.08
780.991	1188.28
781.313	1502.34
781.634	1778.11
781.955	2176.44
782.277	2664.13
782.598	3093.1
782.919	3680.38
783.24	3935.71
783.561	4461.71
783.882	4826.84
784.203	5123.03
784.524	5355.39
784.845	5498.38
785.166	5955.44
785.487	6450.79
785.807	6752.09
786.128	6535.05
786.449	6586.12
786.769	6310.35
787.09	6348.66
787.41	6616.76
787.731	6706.13
788.051	6736.77
788.372	6532.5
788.692	6190.35
789.012	5638.82
789.332	4755.35
789.653	4448.94
789.973	4076.15
790.293	3603.77
790.613	2597.74
790.933	2242.82
791.253	1864.92
791.573	1510
791.893	1170.4
792.212	978.9
792.532	874.21
792.852	930.39
793.171	1027.42
793.491	1349.14
793.811	1844.5
794.13	2166.22
794.45	2607.96
794.769	3238.64
795.088	3762.08
795.408	4311.06
795.727	5421.78
796.046	6759.75
796.365	7847.49
796.684	8046.65
797.004	8113.04
797.323	8713.08
797.642	9862.1
797.96	9323.34
798.279	8968.42
798.598	9098.64
798.917	9359.09
799.236	8876.5
799.554	8406.68
799.873	7913.88
800.192	7732.59
800.51	7270.42
800.829	6912.95
801.147	6238.86
801.466	5434.55
801.784	5217.51
