Data from 2025-12-03_xpw_interference_micrometer_631_FLMS141361__72__622.txt Node

Date: Wed Dec 03 15:54:11 MST 2025
User: james
Spectrometer: FLMS14136
Trigger mode: 0
Integration Time (sec): 1.000000E-1
Scans to average: 1
Electric dark correction enabled: true
Nonlinearity correction enabled: false
Boxcar width: 0
XAxis mode: Wavelengths
Number of Pixels in Spectrum: 2048
>>>>>Begin Spectral Data<<<<<
339.315	-49.79
339.697	-49.79
340.079	-49.79
340.461	-75.32
340.843	-34.47
341.225	-44.68
341.607	-108.52
341.989	-88.09
342.371	-123.84
342.752	-77.88
343.134	-52.34
343.516	-49.79
343.897	-44.68
344.279	-6.38
344.661	11.49
345.042	3.83
345.423	67.66
345.805	44.68
346.186	113.63
346.567	144.27
346.949	210.65
347.33	192.78
347.711	215.76
348.092	174.91
348.473	256.61
348.854	208.1
349.235	264.27
349.616	231.08
349.997	225.97
350.378	307.68
350.758	241.29
351.139	345.98
351.52	391.94
351.9	338.32
352.281	328.11
352.661	361.3
353.042	356.2
353.422	358.75
353.803	420.03
354.183	333.22
354.563	363.86
354.943	320.45
355.324	338.32
355.704	368.96
356.084	345.98
356.464	340.88
356.844	379.18
357.224	333.22
357.603	368.96
357.983	361.3
358.363	435.35
358.743	348.54
359.122	376.62
359.502	368.96
359.882	343.43
360.261	320.45
360.641	358.75
361.02	345.98
361.399	287.26
361.779	335.77
362.158	333.22
362.537	323
362.916	248.95
363.296	374.07
363.675	391.94
364.054	289.81
364.433	361.3
364.812	353.64
365.19	356.2
365.569	374.07
365.948	374.07
366.327	384.28
366.705	386.84
367.084	335.77
367.463	320.45
367.841	310.24
368.22	310.24
368.598	289.81
368.977	325.56
369.355	333.22
369.733	323
370.111	287.26
370.49	333.22
370.868	320.45
371.246	340.88
371.624	335.77
372.002	307.68
372.38	417.48
372.758	389.39
373.136	317.9
373.513	310.24
373.891	338.32
374.269	335.77
374.646	353.64
375.024	312.79
375.402	323
375.779	409.82
376.157	351.09
376.534	351.09
376.911	325.56
377.289	361.3
377.666	348.54
378.043	399.6
378.42	348.54
378.797	356.2
379.175	409.82
379.552	343.43
379.929	374.07
380.305	363.86
380.682	320.45
381.059	297.47
381.436	356.2
381.813	320.45
382.189	356.2
382.566	297.47
382.943	277.04
383.319	300.02
383.696	353.64
384.072	351.09
384.448	348.54
384.825	348.54
385.201	317.9
385.577	345.98
385.953	374.07
386.329	297.47
386.706	343.43
387.082	368.96
387.458	345.98
387.834	320.45
388.209	374.07
388.585	371.52
388.961	389.39
389.337	310.24
389.713	343.43
390.088	366.41
390.464	338.32
390.839	430.24
391.215	312.79
391.59	412.37
391.966	422.58
392.341	384.28
392.716	302.58
393.092	351.09
393.467	384.28
393.842	358.75
394.217	361.3
394.592	366.41
394.967	404.71
395.342	310.24
395.717	338.32
396.092	389.39
396.467	340.88
396.841	422.58
397.216	384.28
397.591	389.39
397.965	409.82
398.34	358.75
398.714	353.64
399.089	412.37
399.463	374.07
399.838	333.22
400.212	323
400.586	366.41
400.961	399.6
401.335	407.26
401.709	386.84
402.083	432.8
402.457	345.98
402.831	425.14
403.205	412.37
403.579	315.34
403.953	358.75
404.326	371.52
404.7	417.48
405.074	363.86
405.447	330.66
405.821	353.64
406.195	435.35
406.568	412.37
406.942	432.8
407.315	353.64
407.688	422.58
408.062	325.56
408.435	358.75
408.808	312.79
409.181	422.58
409.554	496.63
409.927	386.84
410.3	374.07
410.673	335.77
411.046	414.92
411.419	315.34
411.792	437.9
412.165	412.37
412.537	437.9
412.91	315.34
413.283	391.94
413.655	366.41
414.028	425.14
414.4	397.05
414.773	366.41
415.145	379.18
415.517	366.41
415.889	376.62
416.262	310.24
416.634	361.3
417.006	358.75
417.378	381.73
417.75	351.09
418.122	414.92
418.494	379.18
418.866	384.28
419.238	374.07
419.609	455.78
419.981	376.62
420.353	379.18
420.725	376.62
421.096	407.26
421.468	417.48
421.839	417.48
422.211	374.07
422.582	391.94
422.953	356.2
423.325	381.73
423.696	356.2
424.067	397.05
424.438	404.71
424.809	402.16
425.18	338.32
425.551	376.62
425.922	417.48
426.293	310.24
426.664	394.5
427.035	399.6
427.406	335.77
427.776	310.24
428.147	404.71
428.518	340.88
428.888	394.5
429.259	345.98
429.629	389.39
429.999	417.48
430.37	323
430.74	402.16
431.11	345.98
431.481	368.96
431.851	361.3
432.221	407.26
432.591	348.54
432.961	402.16
433.331	348.54
433.701	333.22
434.071	300.02
434.441	404.71
434.81	343.43
435.18	358.75
435.55	340.88
435.919	379.18
436.289	391.94
436.658	351.09
437.028	440.46
437.397	384.28
437.767	333.22
438.136	353.64
438.505	323
438.875	384.28
439.244	417.48
439.613	381.73
439.982	417.48
440.351	417.48
440.72	376.62
441.089	386.84
441.458	440.46
441.827	402.16
442.196	417.48
442.564	432.8
442.933	397.05
443.302	445.56
443.67	420.03
444.039	402.16
444.407	394.5
444.776	417.48
445.144	448.12
445.513	420.03
445.881	389.39
446.249	381.73
446.617	417.48
446.986	417.48
447.354	363.86
447.722	389.39
448.09	363.86
448.458	397.05
448.826	371.52
449.194	417.48
449.561	379.18
449.929	351.09
450.297	356.2
450.665	394.5
451.032	422.58
451.4	394.5
451.767	353.64
452.135	412.37
452.502	366.41
452.87	389.39
453.237	422.58
453.604	351.09
453.971	368.96
454.339	412.37
454.706	338.32
455.073	368.96
455.44	399.6
455.807	420.03
456.174	394.5
456.541	404.71
456.908	404.71
457.274	343.43
457.641	399.6
458.008	417.48
458.374	386.84
458.741	361.3
459.108	407.26
459.474	445.56
459.841	335.77
460.207	356.2
460.573	425.14
460.94	412.37
461.306	448.12
461.672	351.09
462.038	427.69
462.404	366.41
462.771	384.28
463.137	345.98
463.503	425.14
463.868	397.05
464.234	371.52
464.6	340.88
464.966	381.73
465.332	407.26
465.697	422.58
466.063	323
466.429	435.35
466.794	425.14
467.16	376.62
467.525	394.5
467.89	381.73
468.256	397.05
468.621	437.9
468.986	483.87
469.351	437.9
469.717	471.1
470.082	422.58
470.447	437.9
470.812	379.18
471.177	376.62
471.542	384.28
471.906	414.92
472.271	453.22
472.636	409.82
473.001	443.01
473.365	391.94
473.73	294.92
474.094	399.6
474.459	404.71
474.823	409.82
475.188	333.22
475.552	397.05
475.917	460.88
476.281	407.26
476.645	414.92
477.009	458.33
477.373	427.69
477.737	440.46
478.101	407.26
478.465	366.41
478.829	397.05
479.193	381.73
479.557	302.58
479.921	361.3
480.284	381.73
480.648	412.37
481.012	430.24
481.375	417.48
481.739	399.6
482.102	363.86
482.466	389.39
482.829	409.82
483.193	371.52
483.556	374.07
483.919	366.41
484.282	384.28
484.645	343.43
485.009	399.6
485.372	417.48
485.735	432.8
486.098	417.48
486.46	345.98
486.823	460.88
487.186	453.22
487.549	425.14
487.912	443.01
488.274	345.98
488.637	379.18
488.999	363.86
489.362	402.16
489.724	404.71
490.087	391.94
490.449	440.46
490.811	417.48
491.174	471.1
491.536	483.87
491.898	317.9
492.26	420.03
492.622	345.98
492.984	430.24
493.346	425.14
493.708	420.03
494.07	379.18
494.432	376.62
494.794	394.5
495.155	381.73
495.517	445.56
495.879	414.92
496.24	381.73
496.602	422.58
496.963	409.82
497.325	351.09
497.686	453.22
498.048	348.54
498.409	404.71
498.77	374.07
499.131	333.22
499.492	384.28
499.854	409.82
500.215	376.62
500.576	422.58
500.937	427.69
501.298	391.94
501.658	358.75
502.019	488.97
502.38	363.86
502.741	412.37
503.101	404.71
503.462	414.92
503.823	417.48
504.183	386.84
504.543	379.18
504.904	391.94
505.264	427.69
505.625	448.12
505.985	366.41
506.345	430.24
506.705	430.24
507.065	402.16
507.426	417.48
507.786	371.52
508.146	425.14
508.505	440.46
508.865	358.75
509.225	412.37
509.585	465.99
509.945	458.33
510.304	399.6
510.664	353.64
511.024	404.71
511.383	356.2
511.743	391.94
512.102	394.5
512.462	453.22
512.821	391.94
513.18	417.48
513.539	389.39
513.899	412.37
514.258	409.82
514.617	450.67
514.976	402.16
515.335	368.96
515.694	343.43
516.053	389.39
516.412	399.6
516.771	465.99
517.129	450.67
517.488	351.09
517.847	368.96
518.205	384.28
518.564	417.48
518.922	404.71
519.281	368.96
519.639	368.96
519.998	376.62
520.356	371.52
520.714	478.76
521.073	496.63
521.431	394.5
521.789	345.98
522.147	409.82
522.505	417.48
522.863	407.26
523.221	407.26
523.579	412.37
523.937	404.71
524.295	386.84
524.652	345.98
525.01	386.84
525.368	384.28
525.725	422.58
526.083	412.37
526.44	361.3
526.798	402.16
527.155	402.16
527.513	420.03
527.87	394.5
528.227	353.64
528.584	440.46
528.942	404.71
529.299	389.39
529.656	345.98
530.013	483.87
530.37	425.14
530.727	386.84
531.083	450.67
531.44	432.8
531.797	394.5
532.154	468.54
532.511	381.73
532.867	374.07
533.224	353.64
533.58	371.52
533.937	412.37
534.293	420.03
534.65	427.69
535.006	376.62
535.362	476.2
535.718	409.82
536.075	409.82
536.431	366.41
536.787	376.62
537.143	453.22
537.499	317.9
537.855	399.6
538.211	443.01
538.567	407.26
538.923	363.86
539.278	409.82
539.634	374.07
539.99	409.82
540.345	397.05
540.701	437.9
541.056	394.5
541.412	397.05
541.767	348.54
542.123	412.37
542.478	432.8
542.833	473.65
543.188	371.52
543.544	420.03
543.899	511.95
544.254	404.71
544.609	430.24
544.964	384.28
545.319	389.39
545.674	420.03
546.029	397.05
546.383	440.46
546.738	443.01
547.093	394.5
547.447	404.71
547.802	351.09
548.157	389.39
548.511	353.64
548.866	422.58
549.22	427.69
549.574	399.6
549.929	450.67
550.283	391.94
550.637	425.14
550.991	397.05
551.345	425.14
551.699	394.5
552.053	420.03
552.407	417.48
552.761	412.37
553.115	381.73
553.469	427.69
553.823	343.43
554.176	386.84
554.53	404.71
554.884	363.86
555.237	657.49
555.591	437.9
555.944	391.94
556.298	407.26
556.651	325.56
557.005	409.82
557.358	391.94
557.711	353.64
558.064	422.58
558.417	391.94
558.771	450.67
559.124	399.6
559.477	407.26
559.83	471.1
560.182	414.92
560.535	409.82
560.888	374.07
561.241	407.26
561.594	440.46
561.946	473.65
562.299	343.43
562.651	397.05
563.004	443.01
563.356	394.5
563.709	328.11
564.061	402.16
564.413	437.9
564.766	384.28
565.118	443.01
565.47	394.5
565.822	435.35
566.174	417.48
566.526	371.52
566.878	435.35
567.23	412.37
567.582	325.56
567.934	432.8
568.286	420.03
568.638	371.52
568.989	435.35
569.341	468.54
569.693	440.46
570.044	384.28
570.396	358.75
570.747	417.48
571.098	335.77
571.45	420.03
571.801	407.26
572.152	435.35
572.504	432.8
572.855	417.48
573.206	476.2
573.557	407.26
573.908	422.58
574.259	471.1
574.61	356.2
574.961	320.45
575.311	381.73
575.662	348.54
576.013	363.86
576.364	443.01
576.714	420.03
577.065	440.46
577.415	455.78
577.766	386.84
578.116	379.18
578.467	440.46
578.817	404.71
579.167	376.62
579.518	335.77
579.868	465.99
580.218	363.86
580.568	376.62
580.918	417.48
581.268	463.44
581.618	402.16
581.968	453.22
582.318	407.26
582.668	417.48
583.017	394.5
583.367	409.82
583.717	409.82
584.066	407.26
584.416	376.62
584.765	340.88
585.115	399.6
585.464	399.6
585.814	417.48
586.163	340.88
586.512	394.5
586.862	409.82
587.211	430.24
587.56	407.26
587.909	394.5
588.258	315.34
588.607	394.5
588.956	389.39
589.305	351.09
589.654	422.58
590.002	453.22
590.351	453.22
590.7	440.46
591.048	389.39
591.397	409.82
591.746	414.92
592.094	430.24
592.443	445.56
592.791	409.82
593.139	297.47
593.488	351.09
593.836	394.5
594.184	381.73
594.532	409.82
594.88	394.5
595.228	363.86
595.576	371.52
595.924	358.75
596.272	404.71
596.62	391.94
596.968	412.37
597.316	389.39
597.664	404.71
598.011	376.62
598.359	312.79
598.706	384.28
599.054	425.14
599.402	402.16
599.749	386.84
600.096	371.52
600.444	381.73
600.791	376.62
601.138	328.11
601.485	371.52
601.833	414.92
602.18	414.92
602.527	448.12
602.874	389.39
603.221	425.14
603.568	432.8
603.914	376.62
604.261	356.2
604.608	384.28
604.955	381.73
605.301	409.82
605.648	391.94
605.995	371.52
606.341	376.62
606.688	333.22
607.034	420.03
607.38	384.28
607.727	440.46
608.073	407.26
608.419	356.2
608.765	323
609.112	366.41
609.458	343.43
609.804	391.94
610.15	422.58
610.496	391.94
610.842	427.69
611.187	473.65
611.533	399.6
611.879	445.56
612.225	471.1
612.57	381.73
612.916	409.82
613.261	420.03
613.607	407.26
613.952	409.82
614.298	440.46
614.643	323
614.989	363.86
615.334	391.94
615.679	420.03
616.024	384.28
616.369	412.37
616.714	407.26
617.059	384.28
617.404	379.18
617.749	371.52
618.094	409.82
618.439	422.58
618.784	386.84
619.129	394.5
619.473	404.71
619.818	404.71
620.163	465.99
620.507	463.44
620.852	468.54
621.196	371.52
621.54	407.26
621.885	356.2
622.229	404.71
622.573	402.16
622.918	394.5
623.262	391.94
623.606	397.05
623.95	376.62
624.294	430.24
624.638	397.05
624.982	394.5
625.326	422.58
625.67	391.94
626.013	333.22
626.357	381.73
626.701	412.37
627.044	440.46
627.388	404.71
627.731	325.56
628.075	379.18
628.418	425.14
628.762	389.39
629.105	361.3
629.448	417.48
629.792	338.32
630.135	371.52
630.478	425.14
630.821	420.03
631.164	391.94
631.507	384.28
631.85	455.78
632.193	386.84
632.536	374.07
632.879	404.71
633.221	340.88
633.564	407.26
633.907	366.41
634.249	335.77
634.592	412.37
634.935	440.46
635.277	340.88
635.619	427.69
635.962	325.56
636.304	409.82
636.646	323
636.989	363.86
637.331	458.33
637.673	427.69
638.015	425.14
638.357	427.69
638.699	448.12
639.041	397.05
639.383	371.52
639.725	402.16
640.067	376.62
640.408	437.9
640.75	412.37
641.092	312.79
641.433	404.71
641.775	381.73
642.116	320.45
642.458	338.32
642.799	361.3
643.141	381.73
643.482	430.24
643.823	384.28
644.164	363.86
644.506	425.14
644.847	471.1
645.188	363.86
645.529	366.41
645.87	417.48
646.211	366.41
646.552	394.5
646.893	391.94
647.233	371.52
647.574	468.54
647.915	432.8
648.255	427.69
648.596	374.07
648.937	414.92
649.277	366.41
649.618	399.6
649.958	412.37
650.298	397.05
650.639	356.2
650.979	345.98
651.319	430.24
651.659	379.18
651.999	351.09
652.339	422.58
652.679	519.61
653.019	374.07
653.359	430.24
653.699	404.71
654.039	343.43
654.379	300.02
654.719	351.09
655.058	363.86
655.398	356.2
655.737	422.58
656.077	353.64
656.416	379.18
656.756	397.05
657.095	402.16
657.435	399.6
657.774	407.26
658.113	399.6
658.452	432.8
658.792	420.03
659.131	399.6
659.47	402.16
659.809	374.07
660.148	389.39
660.487	379.18
660.826	323
661.164	333.22
661.503	345.98
661.842	425.14
662.181	379.18
662.519	417.48
662.858	330.66
663.196	356.2
663.535	417.48
663.873	420.03
664.212	402.16
664.55	440.46
664.888	366.41
665.226	335.77
665.565	435.35
665.903	578.34
666.241	338.32
666.579	335.77
666.917	345.98
667.255	289.81
667.593	335.77
667.931	414.92
668.268	397.05
668.606	371.52
668.944	338.32
669.282	397.05
669.619	391.94
669.957	427.69
670.294	368.96
670.632	328.11
670.969	305.13
671.307	353.64
671.644	361.3
671.981	338.32
672.318	450.67
672.656	432.8
672.993	402.16
673.33	425.14
673.667	379.18
674.004	353.64
674.341	312.79
674.678	414.92
675.015	417.48
675.351	425.14
675.688	371.52
676.025	351.09
676.362	361.3
676.698	397.05
677.035	397.05
677.371	338.32
677.708	368.96
678.044	384.28
678.38	417.48
678.717	402.16
679.053	384.28
679.389	379.18
679.725	422.58
680.062	407.26
680.398	394.5
680.734	381.73
681.07	363.86
681.406	399.6
681.742	407.26
682.077	402.16
682.413	435.35
682.749	386.84
683.085	358.75
683.42	351.09
683.756	368.96
684.091	361.3
684.427	453.22
684.762	435.35
685.098	399.6
685.433	384.28
685.768	338.32
686.104	353.64
686.439	345.98
686.774	338.32
687.109	356.2
687.444	343.43
687.779	391.94
688.114	437.9
688.449	343.43
688.784	351.09
689.119	310.24
689.454	338.32
689.789	351.09
690.123	386.84
690.458	425.14
690.792	409.82
691.127	389.39
691.461	353.64
691.796	366.41
692.13	371.52
692.465	414.92
692.799	368.96
693.133	371.52
693.467	402.16
693.802	394.5
694.136	366.41
694.47	425.14
694.804	384.28
695.138	363.86
695.472	305.13
695.806	345.98
696.139	397.05
696.473	371.52
696.807	371.52
697.141	448.12
697.474	412.37
697.808	402.16
698.141	374.07
698.475	358.75
698.808	366.41
699.142	368.96
699.475	404.71
699.808	407.26
700.142	399.6
700.475	345.98
700.808	389.39
701.141	381.73
701.474	402.16
701.807	338.32
702.14	386.84
702.473	394.5
702.806	374.07
703.139	404.71
703.472	425.14
703.804	402.16
704.137	361.3
704.47	386.84
704.802	468.54
705.135	305.13
705.467	394.5
705.8	394.5
706.132	402.16
706.464	432.8
706.797	310.24
707.129	356.2
707.461	366.41
707.793	404.71
708.125	430.24
708.457	394.5
708.789	402.16
709.121	407.26
709.453	361.3
709.785	409.82
710.117	351.09
710.449	312.79
710.781	386.84
711.112	430.24
711.444	389.39
711.775	384.28
712.107	412.37
712.438	381.73
712.77	353.64
713.101	353.64
713.433	320.45
713.764	409.82
714.095	409.82
714.426	412.37
714.757	412.37
715.089	358.75
715.42	358.75
715.751	414.92
716.082	379.18
716.412	368.96
716.743	420.03
717.074	455.78
717.405	361.3
717.736	399.6
718.066	389.39
718.397	384.28
718.727	381.73
719.058	384.28
719.388	353.64
719.719	425.14
720.049	437.9
720.38	358.75
720.71	417.48
721.04	432.8
721.37	340.88
721.7	366.41
722.031	404.71
722.361	376.62
722.691	394.5
723.021	348.54
723.35	356.2
723.68	376.62
724.01	432.8
724.34	412.37
724.67	374.07
724.999	386.84
725.329	402.16
725.658	389.39
725.988	353.64
726.317	402.16
726.647	356.2
726.976	399.6
727.306	343.43
727.635	371.52
727.964	394.5
728.293	371.52
728.622	394.5
728.952	335.77
729.281	399.6
729.61	361.3
729.939	384.28
730.267	361.3
730.596	437.9
730.925	353.64
731.254	353.64
731.583	351.09
731.911	302.58
732.24	351.09
732.568	397.05
732.897	391.94
733.225	343.43
733.554	335.77
733.882	420.03
734.21	402.16
734.539	440.46
734.867	381.73
735.195	351.09
735.523	368.96
735.851	399.6
736.179	445.56
736.507	404.71
736.835	430.24
737.163	455.78
737.491	323
737.819	320.45
738.147	335.77
738.474	348.54
738.802	351.09
739.13	437.9
739.457	460.88
739.785	463.44
740.112	389.39
740.44	471.1
740.767	366.41
741.094	404.71
741.422	409.82
741.749	471.1
742.076	353.64
742.403	417.48
742.73	427.69
743.057	363.86
743.384	317.9
743.711	381.73
744.038	397.05
744.365	427.69
744.692	376.62
745.018	445.56
745.345	343.43
745.672	381.73
745.998	407.26
746.325	376.62
746.651	386.84
746.978	345.98
747.304	420.03
747.631	386.84
747.957	381.73
748.283	402.16
748.61	397.05
748.936	389.39
749.262	356.2
749.588	338.32
749.914	368.96
750.24	417.48
750.566	389.39
750.892	422.58
751.218	414.92
751.543	430.24
751.869	422.58
752.195	363.86
752.521	384.28
752.846	432.8
753.172	404.71
753.497	394.5
753.823	453.22
754.148	448.12
754.473	420.03
754.799	448.12
755.124	443.01
755.449	363.86
755.774	386.84
756.1	353.64
756.425	381.73
756.75	368.96
757.075	305.13
757.4	488.97
757.724	437.9
758.049	404.71
758.374	333.22
758.699	366.41
759.024	427.69
759.348	356.2
759.673	381.73
759.997	345.98
760.322	437.9
760.646	417.48
760.971	386.84
761.295	455.78
761.619	443.01
761.944	402.16
762.268	402.16
762.592	443.01
762.916	509.4
763.24	511.95
763.564	583.45
763.888	706.01
764.212	700.9
764.536	677.92
764.86	767.29
765.184	772.4
765.508	803.04
765.831	754.52
766.155	1027.73
766.478	905.17
766.802	800.48
767.126	744.31
767.449	826.02
767.772	728.99
768.096	703.46
768.419	578.34
768.742	586
769.066	504.29
769.389	460.88
769.712	550.25
770.035	606.43
770.358	690.69
770.681	864.32
771.004	1022.63
771.327	1198.81
771.65	1344.35
771.972	1520.54
772.295	1959.72
772.618	2186.97
772.941	2585.3
773.263	2746.16
773.586	3287.47
773.908	3588.77
774.231	3438.12
774.553	3632.18
774.875	3716.44
775.198	3930.93
775.52	3601.54
775.842	3256.83
776.164	2975.96
776.487	2924.89
776.809	2832.97
777.131	2674.66
777.453	2506.14
777.775	2314.64
778.096	2110.37
778.418	1798.85
778.74	1479.68
779.062	1247.33
779.384	1004.75
779.705	994.54
780.027	910.28
780.348	917.94
780.67	1094.12
780.991	1252.43
781.313	1599.69
781.634	1967.38
781.955	2281.44
782.277	2845.74
782.598	3318.11
782.919	3634.73
783.24	4007.53
783.561	4668.85
783.882	4712.26
784.203	5090.16
784.524	5268.9
784.845	5271.45
785.166	5756.59
785.487	6246.84
785.807	6563.46
786.128	6448.56
786.449	6236.63
786.769	5978.73
787.09	6004.27
787.41	6254.5
787.731	6185.56
788.051	6142.15
788.372	6042.57
788.692	5682.54
789.012	5046.75
789.332	4237.33
789.653	3877.3
789.973	3598.99
790.293	2942.77
790.613	2176.75
790.933	1842.26
791.253	1530.75
791.573	1247.33
791.893	1027.73
792.212	808.14
792.532	843.89
792.852	912.83
793.171	1104.34
793.491	1418.4
793.811	1880.56
794.13	2373.36
794.45	2687.43
794.769	3106.18
795.088	3844.11
795.408	4260.31
795.727	5394.01
796.046	6594.1
796.365	7441.82
796.684	7743.12
797.004	7809.51
797.323	8498.92
797.642	9441.12
797.96	8945.76
798.279	8662.33
798.598	8690.42
798.917	8621.48
799.236	8141.45
799.554	8092.93
799.873	7344.79
800.192	6882.63
800.51	6706.45
800.829	6185.56
801.147	5593.17
801.466	4883.34
801.784	4625.44
