Data from 2025-12-03_xpw_interference_micrometer_631_FLMS141361__36__586.txt Node

Date: Wed Dec 03 15:54:08 MST 2025
User: james
Spectrometer: FLMS14136
Trigger mode: 0
Integration Time (sec): 1.000000E-1
Scans to average: 1
Electric dark correction enabled: true
Nonlinearity correction enabled: false
Boxcar width: 0
XAxis mode: Wavelengths
Number of Pixels in Spectrum: 2048
>>>>>Begin Spectral Data<<<<<
339.315	-0.8
339.697	-0.8
340.079	-0.8
340.461	-118.25
340.843	-85.06
341.225	-46.76
341.607	-59.53
341.989	-100.38
342.371	-110.59
342.752	-39.1
343.134	-39.1
343.516	-31.44
343.897	-36.55
344.279	-36.55
344.661	45.16
345.042	34.95
345.423	40.06
345.805	22.18
346.186	57.93
346.567	119.21
346.949	180.49
347.33	152.4
347.711	137.08
348.092	236.67
348.473	190.71
348.854	257.09
349.235	310.71
349.616	262.2
349.997	305.61
350.378	308.16
350.758	274.97
351.139	313.27
351.52	313.27
351.9	310.71
352.281	366.89
352.661	387.32
353.042	349.01
353.422	323.48
353.803	451.15
354.183	428.17
354.563	392.42
354.943	377.1
355.324	349.01
355.704	397.53
356.084	433.28
356.464	410.3
356.844	417.96
357.224	417.96
357.603	356.67
357.983	384.76
358.363	412.85
358.743	387.32
359.122	264.75
359.502	346.46
359.882	257.09
360.261	400.08
360.641	397.53
361.02	387.32
361.399	346.46
361.779	346.46
362.158	351.57
362.537	433.28
362.916	372
363.296	372
363.675	351.57
364.054	338.8
364.433	420.51
364.812	394.98
365.19	292.84
365.569	420.51
365.948	382.21
366.327	326.03
366.705	338.8
367.084	364.34
367.463	387.32
367.841	369.44
368.22	392.42
368.598	382.21
368.977	343.91
369.355	290.29
369.733	331.14
370.111	333.69
370.49	267.31
370.868	328.59
371.246	308.16
371.624	343.91
372.002	343.91
372.38	285.18
372.758	356.67
373.136	351.57
373.513	379.66
373.891	323.48
374.269	320.93
374.646	377.1
375.024	405.19
375.402	382.21
375.779	394.98
376.157	313.27
376.534	361.78
376.911	338.8
377.289	379.66
377.666	292.84
378.043	354.12
378.42	374.55
378.797	397.53
379.175	346.46
379.552	318.37
379.929	277.52
380.305	359.23
380.682	320.93
381.059	366.89
381.436	372
381.813	402.64
382.189	428.17
382.566	364.34
382.943	382.21
383.319	323.48
383.696	343.91
384.072	295.39
384.448	323.48
384.825	333.69
385.201	389.87
385.577	349.01
385.953	331.14
386.329	338.8
386.706	359.23
387.082	428.17
387.458	428.17
387.834	328.59
388.209	372
388.585	361.78
388.961	346.46
389.337	402.64
389.713	305.61
390.088	384.76
390.464	343.91
390.839	382.21
391.215	384.76
391.59	387.32
391.966	415.4
392.341	410.3
392.716	415.4
393.092	343.91
393.467	423.06
393.842	440.94
394.217	412.85
394.592	343.91
394.967	354.12
395.342	318.37
395.717	382.21
396.092	333.69
396.467	400.08
396.841	410.3
397.216	382.21
397.591	435.83
397.965	349.01
398.34	397.53
398.714	372
399.089	359.23
399.463	333.69
399.838	336.25
400.212	392.42
400.586	369.44
400.961	407.74
401.335	292.84
401.709	336.25
402.083	379.66
402.457	433.28
402.831	382.21
403.205	400.08
403.579	397.53
403.953	331.14
404.326	466.47
404.7	364.34
405.074	315.82
405.447	361.78
405.821	338.8
406.195	374.55
406.568	420.51
406.942	402.64
407.315	415.4
407.688	377.1
408.062	410.3
408.435	387.32
408.808	338.8
409.181	374.55
409.554	382.21
409.927	392.42
410.3	463.92
410.673	433.28
411.046	430.72
411.419	415.4
411.792	400.08
412.165	405.19
412.537	318.37
412.91	407.74
413.283	349.01
413.655	361.78
414.028	420.51
414.4	356.67
414.773	407.74
415.145	407.74
415.517	364.34
415.889	351.57
416.262	346.46
416.634	387.32
417.006	341.35
417.378	420.51
417.75	389.87
418.122	377.1
418.494	402.64
418.866	446.04
419.238	397.53
419.609	402.64
419.981	366.89
420.353	440.94
420.725	451.15
421.096	402.64
421.468	287.73
421.839	407.74
422.211	402.64
422.582	392.42
422.953	420.51
423.325	443.49
423.696	377.1
424.067	318.37
424.438	343.91
424.809	397.53
425.18	354.12
425.551	382.21
425.922	382.21
426.293	349.01
426.664	407.74
427.035	430.72
427.406	384.76
427.776	394.98
428.147	356.67
428.518	392.42
428.888	448.6
429.259	481.79
429.629	415.4
429.999	423.06
430.37	364.34
430.74	458.81
431.11	402.64
431.481	384.76
431.851	369.44
432.221	405.19
432.591	341.35
432.961	354.12
433.331	451.15
433.701	443.49
434.071	379.66
434.441	400.08
434.81	410.3
435.18	417.96
435.55	400.08
435.919	458.81
436.289	402.64
436.658	361.78
437.028	387.32
437.397	433.28
437.767	372
438.136	338.8
438.505	420.51
438.875	428.17
439.244	456.26
439.613	435.83
439.982	402.64
440.351	382.21
440.72	423.06
441.089	349.01
441.458	440.94
441.827	374.55
442.196	420.51
442.564	476.68
442.933	407.74
443.302	351.57
443.67	364.34
444.039	300.5
444.407	328.59
444.776	285.18
445.144	374.55
445.513	405.19
445.881	425.62
446.249	382.21
446.617	366.89
446.986	430.72
447.354	420.51
447.722	410.3
448.09	400.08
448.458	433.28
448.826	361.78
449.194	469.02
449.561	377.1
449.929	351.57
450.297	435.83
450.665	440.94
451.032	417.96
451.4	438.38
451.767	374.55
452.135	451.15
452.502	428.17
452.87	448.6
453.237	412.85
453.604	359.23
453.971	366.89
454.339	382.21
454.706	397.53
455.073	471.58
455.44	438.38
455.807	484.34
456.174	446.04
456.541	336.25
456.908	397.53
457.274	392.42
457.641	420.51
458.008	364.34
458.374	458.81
458.741	382.21
459.108	451.15
459.474	397.53
459.841	440.94
460.207	433.28
460.573	425.62
460.94	356.67
461.306	377.1
461.672	433.28
462.038	415.4
462.404	364.34
462.771	382.21
463.137	372
463.503	349.01
463.868	400.08
464.234	400.08
464.6	343.91
464.966	308.16
465.332	320.93
465.697	392.42
466.063	366.89
466.429	430.72
466.794	417.96
467.16	430.72
467.525	446.04
467.89	397.53
468.256	428.17
468.621	387.32
468.986	402.64
469.351	369.44
469.717	351.57
470.082	438.38
470.447	397.53
470.812	405.19
471.177	443.49
471.542	389.87
471.906	377.1
472.271	428.17
472.636	410.3
473.001	415.4
473.365	407.74
473.73	443.49
474.094	423.06
474.459	387.32
474.823	451.15
475.188	433.28
475.552	461.36
475.917	405.19
476.281	412.85
476.645	407.74
477.009	471.58
477.373	433.28
477.737	379.66
478.101	410.3
478.465	392.42
478.829	453.7
479.193	400.08
479.557	412.85
479.921	326.03
480.284	349.01
480.648	394.98
481.012	438.38
481.375	394.98
481.739	387.32
482.102	443.49
482.466	374.55
482.829	417.96
483.193	394.98
483.556	382.21
483.919	420.51
484.282	323.48
484.645	320.93
485.009	430.72
485.372	313.27
485.735	423.06
486.098	415.4
486.46	384.76
486.823	407.74
487.186	384.76
487.549	343.91
487.912	440.94
488.274	364.34
488.637	402.64
488.999	374.55
489.362	389.87
489.724	377.1
490.087	379.66
490.449	405.19
490.811	425.62
491.174	433.28
491.536	443.49
491.898	382.21
492.26	435.83
492.622	394.98
492.984	364.34
493.346	405.19
493.708	374.55
494.07	369.44
494.432	466.47
494.794	451.15
495.155	394.98
495.517	405.19
495.879	423.06
496.24	456.26
496.602	412.85
496.963	430.72
497.325	451.15
497.686	481.79
498.048	481.79
498.409	471.58
498.77	387.32
499.131	407.74
499.492	412.85
499.854	412.85
500.215	423.06
500.576	392.42
500.937	351.57
501.298	384.76
501.658	394.98
502.019	440.94
502.38	425.62
502.741	308.16
503.101	400.08
503.462	405.19
503.823	407.74
504.183	456.26
504.543	423.06
504.904	377.1
505.264	389.87
505.625	407.74
505.985	405.19
506.345	364.34
506.705	361.78
507.065	382.21
507.426	387.32
507.786	400.08
508.146	440.94
508.505	415.4
508.865	354.12
509.225	382.21
509.585	504.77
509.945	428.17
510.304	486.9
510.664	451.15
511.024	405.19
511.383	343.91
511.743	341.35
512.102	359.23
512.462	423.06
512.821	394.98
513.18	430.72
513.539	400.08
513.899	469.02
514.258	359.23
514.617	440.94
514.976	423.06
515.335	397.53
515.694	428.17
516.053	428.17
516.412	387.32
516.771	430.72
517.129	387.32
517.488	423.06
517.847	469.02
518.205	423.06
518.564	377.1
518.922	397.53
519.281	507.32
519.639	417.96
519.998	440.94
520.356	392.42
520.714	402.64
521.073	415.4
521.431	377.1
521.789	356.67
522.147	497.11
522.505	497.11
522.863	481.79
523.221	402.64
523.579	361.78
523.937	389.87
524.295	415.4
524.652	412.85
525.01	415.4
525.368	389.87
525.725	453.7
526.083	430.72
526.44	430.72
526.798	354.12
527.155	433.28
527.513	394.98
527.87	361.78
528.227	382.21
528.584	430.72
528.942	369.44
529.299	349.01
529.656	359.23
530.013	343.91
530.37	438.38
530.727	443.49
531.083	433.28
531.44	372
531.797	384.76
532.154	423.06
532.511	456.26
532.867	420.51
533.224	440.94
533.58	415.4
533.937	379.66
534.293	343.91
534.65	453.7
535.006	407.74
535.362	430.72
535.718	382.21
536.075	456.26
536.431	471.58
536.787	448.6
537.143	448.6
537.499	405.19
537.855	430.72
538.211	443.49
538.567	397.53
538.923	402.64
539.278	471.58
539.634	412.85
539.99	405.19
540.345	433.28
540.701	369.44
541.056	479.24
541.412	394.98
541.767	394.98
542.123	410.3
542.478	423.06
542.833	382.21
543.188	410.3
543.544	435.83
543.899	489.45
544.254	394.98
544.609	430.72
544.964	428.17
545.319	369.44
545.674	392.42
546.029	430.72
546.383	346.46
546.738	377.1
547.093	428.17
547.447	481.79
547.802	402.64
548.157	356.67
548.511	438.38
548.866	397.53
549.22	331.14
549.574	461.36
549.929	372
550.283	392.42
550.637	392.42
550.991	364.34
551.345	372
551.699	440.94
552.053	430.72
552.407	440.94
552.761	425.62
553.115	440.94
553.469	417.96
553.823	382.21
554.176	412.85
554.53	430.72
554.884	372
555.237	668.19
555.591	440.94
555.944	456.26
556.298	402.64
556.651	492
557.005	440.94
557.358	443.49
557.711	420.51
558.064	374.55
558.417	377.1
558.771	453.7
559.124	466.47
559.477	438.38
559.83	420.51
560.182	469.02
560.535	461.36
560.888	364.34
561.241	382.21
561.594	433.28
561.946	346.46
562.299	443.49
562.651	446.04
563.004	333.69
563.356	405.19
563.709	412.85
564.061	405.19
564.413	405.19
564.766	461.36
565.118	435.83
565.47	415.4
565.822	379.66
566.174	389.87
566.526	397.53
566.878	394.98
567.23	384.76
567.582	366.89
567.934	469.02
568.286	361.78
568.638	379.66
568.989	379.66
569.341	428.17
569.693	428.17
570.044	466.47
570.396	402.64
570.747	387.32
571.098	300.5
571.45	412.85
571.801	446.04
572.152	476.68
572.504	346.46
572.855	415.4
573.206	425.62
573.557	394.98
573.908	369.44
574.259	417.96
574.61	410.3
574.961	277.52
575.311	446.04
575.662	479.24
576.013	372
576.364	412.85
576.714	433.28
577.065	379.66
577.415	392.42
577.766	349.01
578.116	410.3
578.467	425.62
578.817	392.42
579.167	394.98
579.518	397.53
579.868	412.85
580.218	400.08
580.568	405.19
580.918	333.69
581.268	428.17
581.618	471.58
581.968	377.1
582.318	389.87
582.668	456.26
583.017	387.32
583.367	392.42
583.717	438.38
584.066	433.28
584.416	389.87
584.765	397.53
585.115	364.34
585.464	417.96
585.814	446.04
586.163	351.57
586.512	417.96
586.862	420.51
587.211	387.32
587.56	415.4
587.909	410.3
588.258	377.1
588.607	402.64
588.956	382.21
589.305	451.15
589.654	387.32
590.002	453.7
590.351	451.15
590.7	435.83
591.048	448.6
591.397	417.96
591.746	451.15
592.094	407.74
592.443	405.19
592.791	412.85
593.139	423.06
593.488	387.32
593.836	392.42
594.184	425.62
594.532	451.15
594.88	410.3
595.228	387.32
595.576	394.98
595.924	394.98
596.272	351.57
596.62	397.53
596.968	392.42
597.316	451.15
597.664	384.76
598.011	425.62
598.359	377.1
598.706	349.01
599.054	412.85
599.402	379.66
599.749	384.76
600.096	377.1
600.444	377.1
600.791	359.23
601.138	458.81
601.485	415.4
601.833	453.7
602.18	423.06
602.527	397.53
602.874	377.1
603.221	400.08
603.568	430.72
603.914	359.23
604.261	397.53
604.608	361.78
604.955	397.53
605.301	326.03
605.648	382.21
605.995	372
606.341	318.37
606.688	351.57
607.034	382.21
607.38	502.22
607.727	349.01
608.073	372
608.419	400.08
608.765	364.34
609.112	346.46
609.458	346.46
609.804	410.3
610.15	397.53
610.496	410.3
610.842	417.96
611.187	443.49
611.533	361.78
611.879	351.57
612.225	417.96
612.57	320.93
612.916	435.83
613.261	374.55
613.607	349.01
613.952	423.06
614.298	394.98
614.643	364.34
614.989	415.4
615.334	366.89
615.679	323.48
616.024	405.19
616.369	389.87
616.714	379.66
617.059	361.78
617.404	410.3
617.749	354.12
618.094	463.92
618.439	361.78
618.784	369.44
619.129	417.96
619.473	369.44
619.818	369.44
620.163	374.55
620.507	463.92
620.852	387.32
621.196	356.67
621.54	412.85
621.885	405.19
622.229	349.01
622.573	351.57
622.918	346.46
623.262	456.26
623.606	354.12
623.95	382.21
624.294	379.66
624.638	423.06
624.982	435.83
625.326	400.08
625.67	446.04
626.013	407.74
626.357	410.3
626.701	471.58
627.044	469.02
627.388	374.55
627.731	387.32
628.075	428.17
628.418	443.49
628.762	387.32
629.105	384.76
629.448	346.46
629.792	392.42
630.135	405.19
630.478	407.74
630.821	410.3
631.164	320.93
631.507	400.08
631.85	389.87
632.193	310.71
632.536	361.78
632.879	313.27
633.221	392.42
633.564	448.6
633.907	466.47
634.249	451.15
634.592	435.83
634.935	461.36
635.277	402.64
635.619	374.55
635.962	392.42
636.304	394.98
636.646	336.25
636.989	379.66
637.331	349.01
637.673	466.47
638.015	384.76
638.357	387.32
638.699	433.28
639.041	382.21
639.383	374.55
639.725	446.04
640.067	417.96
640.408	420.51
640.75	415.4
641.092	379.66
641.433	405.19
641.775	377.1
642.116	377.1
642.458	420.51
642.799	377.1
643.141	425.62
643.482	377.1
643.823	402.64
644.164	387.32
644.506	438.38
644.847	338.8
645.188	366.89
645.529	349.01
645.87	382.21
646.211	402.64
646.552	443.49
646.893	479.24
647.233	392.42
647.574	430.72
647.915	481.79
648.255	394.98
648.596	412.85
648.937	410.3
649.277	407.74
649.618	361.78
649.958	481.79
650.298	425.62
650.639	356.67
650.979	453.7
651.319	440.94
651.659	417.96
651.999	384.76
652.339	438.38
652.679	435.83
653.019	392.42
653.359	397.53
653.699	379.66
654.039	336.25
654.379	338.8
654.719	374.55
655.058	387.32
655.398	402.64
655.737	463.92
656.077	397.53
656.416	374.55
656.756	387.32
657.095	446.04
657.435	425.62
657.774	428.17
658.113	379.66
658.452	387.32
658.792	389.87
659.131	415.4
659.47	392.42
659.809	423.06
660.148	336.25
660.487	382.21
660.826	415.4
661.164	379.66
661.503	379.66
661.842	351.57
662.181	338.8
662.519	354.12
662.858	417.96
663.196	423.06
663.535	425.62
663.873	474.13
664.212	410.3
664.55	428.17
664.888	527.75
665.226	405.19
665.565	461.36
665.903	652.87
666.241	412.85
666.579	359.23
666.917	410.3
667.255	356.67
667.593	417.96
667.931	425.62
668.268	443.49
668.606	463.92
668.944	397.53
669.282	351.57
669.619	354.12
669.957	379.66
670.294	389.87
670.632	356.67
670.969	456.26
671.307	379.66
671.644	458.81
671.981	407.74
672.318	463.92
672.656	461.36
672.993	423.06
673.33	387.32
673.667	392.42
674.004	384.76
674.341	392.42
674.678	420.51
675.015	402.64
675.351	461.36
675.688	400.08
676.025	420.51
676.362	366.89
676.698	364.34
677.035	412.85
677.371	331.14
677.708	407.74
678.044	346.46
678.38	369.44
678.717	405.19
679.053	486.9
679.389	428.17
679.725	397.53
680.062	412.85
680.398	400.08
680.734	420.51
681.07	428.17
681.406	423.06
681.742	359.23
682.077	448.6
682.413	433.28
682.749	356.67
683.085	354.12
683.42	407.74
683.756	443.49
684.091	420.51
684.427	387.32
684.762	461.36
685.098	428.17
685.433	440.94
685.768	366.89
686.104	356.67
686.439	377.1
686.774	382.21
687.109	366.89
687.444	453.7
687.779	433.28
688.114	372
688.449	369.44
688.784	377.1
689.119	435.83
689.454	394.98
689.789	394.98
690.123	402.64
690.458	397.53
690.792	389.87
691.127	359.23
691.461	379.66
691.796	405.19
692.13	397.53
692.465	494.56
692.799	412.85
693.133	382.21
693.467	354.12
693.802	402.64
694.136	410.3
694.47	415.4
694.804	379.66
695.138	415.4
695.472	400.08
695.806	428.17
696.139	328.59
696.473	382.21
696.807	359.23
697.141	417.96
697.474	402.64
697.808	407.74
698.141	308.16
698.475	356.67
698.808	412.85
699.142	389.87
699.475	392.42
699.808	387.32
700.142	412.85
700.475	369.44
700.808	372
701.141	343.91
701.474	387.32
701.807	425.62
702.14	438.38
702.473	410.3
702.806	430.72
703.139	423.06
703.472	440.94
703.804	346.46
704.137	402.64
704.47	361.78
704.802	394.98
705.135	402.64
705.467	412.85
705.8	359.23
706.132	379.66
706.464	374.55
706.797	379.66
707.129	369.44
707.461	356.67
707.793	417.96
708.125	389.87
708.457	351.57
708.789	412.85
709.121	392.42
709.453	407.74
709.785	412.85
710.117	369.44
710.449	359.23
710.781	394.98
711.112	372
711.444	394.98
711.775	336.25
712.107	377.1
712.438	405.19
712.77	415.4
713.101	379.66
713.433	387.32
713.764	402.64
714.095	415.4
714.426	364.34
714.757	417.96
715.089	341.35
715.42	364.34
715.751	410.3
716.082	440.94
716.412	315.82
716.743	400.08
717.074	374.55
717.405	397.53
717.736	402.64
718.066	351.57
718.397	387.32
718.727	349.01
719.058	366.89
719.388	451.15
719.719	435.83
720.049	397.53
720.38	423.06
720.71	417.96
721.04	463.92
721.37	400.08
721.7	326.03
722.031	359.23
722.361	361.78
722.691	374.55
723.021	341.35
723.35	336.25
723.68	336.25
724.01	364.34
724.34	430.72
724.67	497.11
724.999	387.32
725.329	412.85
725.658	405.19
725.988	428.17
726.317	410.3
726.647	361.78
726.976	359.23
727.306	405.19
727.635	387.32
727.964	346.46
728.293	410.3
728.622	417.96
728.952	486.9
729.281	479.24
729.61	479.24
729.939	428.17
730.267	417.96
730.596	471.58
730.925	448.6
731.254	372
731.583	463.92
731.911	387.32
732.24	326.03
732.568	407.74
732.897	384.76
733.225	374.55
733.554	407.74
733.882	361.78
734.21	341.35
734.539	379.66
734.867	420.51
735.195	412.85
735.523	420.51
735.851	425.62
736.179	336.25
736.507	351.57
736.835	303.05
737.163	356.67
737.491	364.34
737.819	331.14
738.147	374.55
738.474	440.94
738.802	417.96
739.13	374.55
739.457	379.66
739.785	451.15
740.112	356.67
740.44	356.67
740.767	354.12
741.094	423.06
741.422	463.92
741.749	392.42
742.076	387.32
742.403	405.19
742.73	497.11
743.057	359.23
743.384	389.87
743.711	417.96
744.038	364.34
744.365	435.83
744.692	433.28
745.018	402.64
745.345	377.1
745.672	369.44
745.998	440.94
746.325	394.98
746.651	343.91
746.978	331.14
747.304	346.46
747.631	382.21
747.957	400.08
748.283	338.8
748.61	349.01
748.936	423.06
749.262	369.44
749.588	392.42
749.914	351.57
750.24	423.06
750.566	389.87
750.892	397.53
751.218	359.23
751.543	369.44
751.869	379.66
752.195	341.35
752.521	407.74
752.846	346.46
753.172	397.53
753.497	377.1
753.823	379.66
754.148	387.32
754.473	417.96
754.799	412.85
755.124	397.53
755.449	351.57
755.774	417.96
756.1	407.74
756.425	476.68
756.75	377.1
757.075	415.4
757.4	540.52
757.724	448.6
758.049	440.94
758.374	315.82
758.699	425.62
759.024	392.42
759.348	377.1
759.673	423.06
759.997	351.57
760.322	440.94
760.646	384.76
760.971	382.21
761.295	384.76
761.619	466.47
761.944	448.6
762.268	435.83
762.592	481.79
762.916	512.43
763.24	568.61
763.564	555.84
763.888	640.1
764.212	714.15
764.536	775.43
764.86	721.81
765.184	829.05
765.508	803.52
765.831	744.79
766.155	989.91
766.478	885.22
766.802	790.75
767.126	721.81
767.449	770.32
767.772	770.32
768.096	721.81
768.419	645.21
768.742	537.96
769.066	583.93
769.389	609.46
769.712	522.64
770.035	647.76
770.358	711.59
770.681	897.99
771.004	1023.11
771.327	1153.33
771.65	1329.51
771.972	1508.25
772.295	1914.24
772.618	2246.17
772.941	2511.73
773.263	2802.81
773.586	3264.97
773.908	3617.34
774.231	3512.65
774.553	3762.88
774.875	3867.57
775.198	4112.69
775.52	3584.14
775.842	3436.05
776.164	3137.3
776.487	3055.6
776.809	2953.46
777.131	2899.84
777.453	2641.95
777.775	2302.35
778.096	2276.82
778.418	1990.84
778.74	1546.55
779.062	1176.31
779.384	1125.24
779.705	1025.66
780.027	928.63
780.348	956.72
780.67	1020.55
780.991	1342.28
781.313	1564.42
781.634	1904.02
781.955	2330.44
782.277	2848.77
782.598	3321.15
782.919	3681.17
783.24	4056.52
783.561	4702.52
783.882	4973.18
784.203	5213.2
784.524	5363.85
784.845	5514.5
785.166	5838.78
785.487	6403.07
785.807	6604.79
786.128	6643.09
786.449	6428.61
786.769	6175.82
787.09	6183.48
787.41	6262.64
787.731	6405.63
788.051	6242.21
788.372	5956.23
788.692	5813.24
789.012	5187.67
789.332	4447.19
789.653	4002.9
789.973	3788.42
790.293	3180.71
790.613	2399.38
790.933	1972.96
791.253	1582.3
791.573	1378.03
791.893	1038.43
792.212	872.46
792.532	933.74
792.852	969.49
793.171	1209.5
793.491	1544
793.811	1927
794.13	2345.76
794.45	2777.28
794.769	3413.07
795.088	3788.42
795.408	4408.89
795.727	5481.3
796.046	6898.43
796.365	7996.38
796.684	8083.2
797.004	7963.19
797.323	8422.8
797.642	9556.5
797.96	9267.96
798.279	8775.16
798.598	8606.64
798.917	8683.24
799.236	8458.54
799.554	8029.58
799.873	7485.71
800.192	7166.53
800.51	6791.19
800.829	6474.57
801.147	5815.8
801.466	4886.37
801.784	4730.61
