Data from 2025-11-25_spectrum_FLMS141361__0__14-23-47-836.txt Node

Date: Tue Nov 25 14:23:47 MST 2025
User: james
Spectrometer: FLMS14136
Trigger mode: 0
Integration Time (sec): 1.000000E-1
Scans to average: 1
Electric dark correction enabled: true
Nonlinearity correction enabled: false
Boxcar width: 0
XAxis mode: Wavelengths
Number of Pixels in Spectrum: 2048
>>>>>Begin Spectral Data<<<<<
339.315	-4.31
339.697	-4.31
340.079	-4.31
340.461	-126.87
340.843	-50.27
341.225	-93.68
341.607	-80.91
341.989	-109
342.371	-78.36
342.752	-86.02
343.134	-73.25
343.516	-9.42
343.897	-45.16
344.279	62.08
344.661	39.1
345.042	59.53
345.423	21.22
345.805	28.89
346.186	82.51
346.567	131.02
346.949	151.45
347.33	169.32
347.711	217.84
348.092	230.6
348.473	238.26
348.854	263.8
349.235	263.8
349.616	261.24
349.997	279.12
350.378	261.24
350.758	268.9
351.139	299.54
351.52	299.54
351.9	281.67
352.281	355.72
352.661	348.06
353.042	337.84
353.422	332.74
353.803	447.64
354.183	376.14
354.563	429.77
354.943	337.84
355.324	376.14
355.704	360.82
356.084	309.76
356.464	363.38
356.844	399.12
357.224	391.46
357.603	424.66
357.983	358.27
358.363	422.11
358.743	424.66
359.122	348.06
359.502	314.86
359.882	307.2
360.261	388.91
360.641	381.25
361.02	394.02
361.399	350.61
361.779	414.45
362.158	409.34
362.537	358.27
362.916	350.61
363.296	378.7
363.675	355.72
364.054	404.23
364.433	373.59
364.812	322.52
365.19	353.16
365.569	345.5
365.948	376.14
366.327	345.5
366.705	304.65
367.084	345.5
367.463	406.79
367.841	330.18
368.22	319.97
368.598	314.86
368.977	391.46
369.355	350.61
369.733	332.74
370.111	337.84
370.49	381.25
370.868	363.38
371.246	337.84
371.624	314.86
372.002	337.84
372.38	317.42
372.758	319.97
373.136	342.95
373.513	345.5
373.891	353.16
374.269	322.52
374.646	383.8
375.024	304.65
375.402	365.93
375.779	345.5
376.157	319.97
376.534	381.25
376.911	437.43
377.289	335.29
377.666	345.5
378.043	353.16
378.42	404.23
378.797	355.72
379.175	406.79
379.552	325.08
379.929	371.04
380.305	360.82
380.682	376.14
381.059	360.82
381.436	360.82
381.813	378.7
382.189	348.06
382.566	294.44
382.943	394.02
383.319	342.95
383.696	353.16
384.072	353.16
384.448	401.68
384.825	391.46
385.201	345.5
385.577	330.18
385.953	360.82
386.329	383.8
386.706	383.8
387.082	294.44
387.458	394.02
387.834	394.02
388.209	391.46
388.585	381.25
388.961	376.14
389.337	355.72
389.713	396.57
390.088	327.63
390.464	353.16
390.839	371.04
391.215	360.82
391.59	391.46
391.966	404.23
392.341	365.93
392.716	348.06
393.092	307.2
393.467	291.88
393.842	406.79
394.217	325.08
394.592	312.31
394.967	378.7
395.342	350.61
395.717	345.5
396.092	355.72
396.467	371.04
396.841	337.84
397.216	353.16
397.591	340.4
397.965	422.11
398.34	399.12
398.714	373.59
399.089	309.76
399.463	363.38
399.838	368.48
400.212	378.7
400.586	422.11
400.961	404.23
401.335	411.89
401.709	404.23
402.083	429.77
402.457	388.91
402.831	345.5
403.205	439.98
403.579	360.82
403.953	383.8
404.326	429.77
404.7	437.43
405.074	409.34
405.447	394.02
405.821	396.57
406.195	404.23
406.568	319.97
406.942	429.77
407.315	396.57
407.688	340.4
408.062	371.04
408.435	383.8
408.808	358.27
409.181	411.89
409.554	404.23
409.927	399.12
410.3	381.25
410.673	394.02
411.046	373.59
411.419	396.57
411.792	373.59
412.165	455.3
412.537	376.14
412.91	442.53
413.283	350.61
413.655	360.82
414.028	386.36
414.4	411.89
414.773	368.48
415.145	378.7
415.517	363.38
415.889	314.86
416.262	353.16
416.634	404.23
417.006	353.16
417.378	314.86
417.75	427.21
418.122	365.93
418.494	365.93
418.866	437.43
419.238	401.68
419.609	350.61
419.981	335.29
420.353	406.79
420.725	396.57
421.096	368.48
421.468	348.06
421.839	411.89
422.211	401.68
422.582	386.36
422.953	465.51
423.325	388.91
423.696	388.91
424.067	368.48
424.438	381.25
424.809	406.79
425.18	455.3
425.551	424.66
425.922	455.3
426.293	353.16
426.664	457.85
427.035	468.07
427.406	422.11
427.776	411.89
428.147	376.14
428.518	391.46
428.888	411.89
429.259	388.91
429.629	419.55
429.999	462.96
430.37	394.02
430.74	327.63
431.11	296.99
431.481	373.59
431.851	378.7
432.221	381.25
432.591	353.16
432.961	348.06
433.331	391.46
433.701	419.55
434.071	363.38
434.441	386.36
434.81	383.8
435.18	455.3
435.55	409.34
435.919	401.68
436.289	365.93
436.658	376.14
437.028	417
437.397	419.55
437.767	414.45
438.136	386.36
438.505	381.25
438.875	396.57
439.244	465.51
439.613	386.36
439.982	396.57
440.351	363.38
440.72	427.21
441.089	417
441.458	386.36
441.827	411.89
442.196	442.53
442.564	432.32
442.933	442.53
443.302	447.64
443.67	450.19
444.039	439.98
444.407	404.23
444.776	368.48
445.144	432.32
445.513	378.7
445.881	434.87
446.249	355.72
446.617	373.59
446.986	455.3
447.354	404.23
447.722	411.89
448.09	447.64
448.458	406.79
448.826	437.43
449.194	417
449.561	424.66
449.929	422.11
450.297	422.11
450.665	473.17
451.032	406.79
451.4	432.32
451.767	414.45
452.135	373.59
452.502	394.02
452.87	427.21
453.237	414.45
453.604	473.17
453.971	371.04
454.339	432.32
454.706	371.04
455.073	457.85
455.44	424.66
455.807	399.12
456.174	394.02
456.541	414.45
456.908	483.39
457.274	365.93
457.641	383.8
458.008	432.32
458.374	442.53
458.741	450.19
459.108	401.68
459.474	386.36
459.841	409.34
460.207	394.02
460.573	470.62
460.94	404.23
461.306	386.36
461.672	409.34
462.038	381.25
462.404	450.19
462.771	396.57
463.137	432.32
463.503	399.12
463.868	394.02
464.234	373.59
464.6	417
464.966	455.3
465.332	424.66
465.697	345.5
466.063	406.79
466.429	432.32
466.794	452.75
467.16	406.79
467.525	350.61
467.89	355.72
468.256	388.91
468.621	378.7
468.986	391.46
469.351	445.09
469.717	417
470.082	388.91
470.447	378.7
470.812	399.12
471.177	427.21
471.542	447.64
471.906	383.8
472.271	450.19
472.636	378.7
473.001	376.14
473.365	365.93
473.73	376.14
474.094	465.51
474.459	337.84
474.823	411.89
475.188	376.14
475.552	437.43
475.917	350.61
476.281	368.48
476.645	373.59
477.009	411.89
477.373	371.04
477.737	399.12
478.101	373.59
478.465	422.11
478.829	419.55
479.193	368.48
479.557	388.91
479.921	401.68
480.284	388.91
480.648	470.62
481.012	394.02
481.375	399.12
481.739	439.98
482.102	434.87
482.466	429.77
482.829	442.53
483.193	394.02
483.556	419.55
483.919	406.79
484.282	399.12
484.645	383.8
485.009	396.57
485.372	394.02
485.735	422.11
486.098	399.12
486.46	365.93
486.823	365.93
487.186	289.33
487.549	383.8
487.912	342.95
488.274	468.07
488.637	468.07
488.999	409.34
489.362	447.64
489.724	386.36
490.087	447.64
490.449	478.28
490.811	445.09
491.174	376.14
491.536	468.07
491.898	452.75
492.26	442.53
492.622	493.6
492.984	437.43
493.346	462.96
493.708	439.98
494.07	409.34
494.432	404.23
494.794	371.04
495.155	414.45
495.517	414.45
495.879	404.23
496.24	401.68
496.602	394.02
496.963	442.53
497.325	457.85
497.686	417
498.048	439.98
498.409	365.93
498.77	414.45
499.131	406.79
499.492	437.43
499.854	399.12
500.215	411.89
500.576	483.39
500.937	422.11
501.298	468.07
501.658	455.3
502.019	409.34
502.38	378.7
502.741	465.51
503.101	442.53
503.462	406.79
503.823	460.41
504.183	378.7
504.543	355.72
504.904	368.48
505.264	381.25
505.625	383.8
505.985	475.73
506.345	406.79
506.705	414.45
507.065	409.34
507.426	386.36
507.786	391.46
508.146	350.61
508.505	411.89
508.865	424.66
509.225	473.17
509.585	470.62
509.945	434.87
510.304	399.12
510.664	386.36
511.024	445.09
511.383	450.19
511.743	401.68
512.102	414.45
512.462	457.85
512.821	417
513.18	445.09
513.539	404.23
513.899	442.53
514.258	442.53
514.617	427.21
514.976	371.04
515.335	396.57
515.694	419.55
516.053	394.02
516.412	411.89
516.771	439.98
517.129	468.07
517.488	455.3
517.847	396.57
518.205	445.09
518.564	450.19
518.922	447.64
519.281	365.93
519.639	391.46
519.998	396.57
520.356	409.34
520.714	452.75
521.073	457.85
521.431	445.09
521.789	381.25
522.147	399.12
522.505	404.23
522.863	437.43
523.221	483.39
523.579	419.55
523.937	409.34
524.295	473.17
524.652	355.72
525.01	404.23
525.368	429.77
525.725	399.12
526.083	404.23
526.44	401.68
526.798	376.14
527.155	414.45
527.513	383.8
527.87	457.85
528.227	409.34
528.584	488.49
528.942	468.07
529.299	432.32
529.656	396.57
530.013	480.83
530.37	427.21
530.727	381.25
531.083	445.09
531.44	442.53
531.797	419.55
532.154	478.28
532.511	480.83
532.867	462.96
533.224	475.73
533.58	429.77
533.937	417
534.293	475.73
534.65	358.27
535.006	417
535.362	399.12
535.718	468.07
536.075	432.32
536.431	383.8
536.787	417
537.143	404.23
537.499	406.79
537.855	399.12
538.211	360.82
538.567	442.53
538.923	462.96
539.278	483.39
539.634	434.87
539.99	363.38
540.345	404.23
540.701	465.51
541.056	465.51
541.412	457.85
541.767	422.11
542.123	417
542.478	468.07
542.833	437.43
543.188	452.75
543.544	460.41
543.899	452.75
544.254	411.89
544.609	284.22
544.964	378.7
545.319	363.38
545.674	388.91
546.029	450.19
546.383	432.32
546.738	434.87
547.093	304.65
547.447	399.12
547.802	419.55
548.157	491.05
548.511	437.43
548.866	508.92
549.22	506.37
549.574	450.19
549.929	434.87
550.283	427.21
550.637	432.32
550.991	401.68
551.345	399.12
551.699	432.32
552.053	427.21
552.407	450.19
552.761	445.09
553.115	429.77
553.469	439.98
553.823	386.36
554.176	419.55
554.53	371.04
554.884	439.98
555.237	577.86
555.591	452.75
555.944	470.62
556.298	399.12
556.651	409.34
557.005	442.53
557.358	409.34
557.711	363.38
558.064	394.02
558.417	363.38
558.771	501.26
559.124	368.48
559.477	386.36
559.83	411.89
560.182	406.79
560.535	439.98
560.888	439.98
561.241	417
561.594	404.23
561.946	427.21
562.299	394.02
562.651	399.12
563.004	422.11
563.356	457.85
563.709	447.64
564.061	493.6
564.413	506.37
564.766	496.15
565.118	417
565.47	381.25
565.822	419.55
566.174	381.25
566.526	411.89
566.878	473.17
567.23	424.66
567.582	404.23
567.934	450.19
568.286	460.41
568.638	404.23
568.989	447.64
569.341	411.89
569.693	429.77
570.044	445.09
570.396	411.89
570.747	432.32
571.098	434.87
571.45	358.27
571.801	376.14
572.152	394.02
572.504	353.16
572.855	432.32
573.206	348.06
573.557	401.68
573.908	442.53
574.259	468.07
574.61	394.02
574.961	470.62
575.311	480.83
575.662	445.09
576.013	411.89
576.364	457.85
576.714	429.77
577.065	465.51
577.415	411.89
577.766	445.09
578.116	468.07
578.467	445.09
578.817	447.64
579.167	424.66
579.518	483.39
579.868	447.64
580.218	473.17
580.568	493.6
580.918	391.46
581.268	368.48
581.618	406.79
581.968	429.77
582.318	429.77
582.668	445.09
583.017	460.41
583.367	498.71
583.717	394.02
584.066	450.19
584.416	442.53
584.765	419.55
585.115	462.96
585.464	411.89
585.814	404.23
586.163	429.77
586.512	424.66
586.862	485.94
587.211	429.77
587.56	386.36
587.909	450.19
588.258	376.14
588.607	432.32
588.956	475.73
589.305	401.68
589.654	414.45
590.002	447.64
590.351	424.66
590.7	396.57
591.048	399.12
591.397	386.36
591.746	437.43
592.094	381.25
592.443	411.89
592.791	404.23
593.139	457.85
593.488	473.17
593.836	414.45
594.184	409.34
594.532	457.85
594.88	417
595.228	414.45
595.576	422.11
595.924	439.98
596.272	452.75
596.62	422.11
596.968	371.04
597.316	419.55
597.664	424.66
598.011	419.55
598.359	475.73
598.706	491.05
599.054	455.3
599.402	345.5
599.749	455.3
600.096	462.96
600.444	475.73
600.791	422.11
601.138	437.43
601.485	386.36
601.833	399.12
602.18	442.53
602.527	394.02
602.874	411.89
603.221	493.6
603.568	480.83
603.914	439.98
604.261	406.79
604.608	383.8
604.955	404.23
605.301	378.7
605.648	434.87
605.995	432.32
606.341	462.96
606.688	422.11
607.034	414.45
607.38	401.68
607.727	450.19
608.073	445.09
608.419	450.19
608.765	381.25
609.112	404.23
609.458	394.02
609.804	371.04
610.15	383.8
610.496	404.23
610.842	376.14
611.187	422.11
611.533	373.59
611.879	442.53
612.225	462.96
612.57	493.6
612.916	419.55
613.261	447.64
613.607	419.55
613.952	414.45
614.298	419.55
614.643	378.7
614.989	437.43
615.334	404.23
615.679	468.07
616.024	424.66
616.369	414.45
616.714	437.43
617.059	411.89
617.404	427.21
617.749	396.57
618.094	365.93
618.439	391.46
618.784	419.55
619.129	457.85
619.473	462.96
619.818	457.85
620.163	470.62
620.507	394.02
620.852	371.04
621.196	394.02
621.54	401.68
621.885	439.98
622.229	406.79
622.573	424.66
622.918	462.96
623.262	419.55
623.606	424.66
623.95	447.64
624.294	417
624.638	327.63
624.982	383.8
625.326	396.57
625.67	452.75
626.013	340.4
626.357	439.98
626.701	386.36
627.044	386.36
627.388	378.7
627.731	378.7
628.075	358.27
628.418	411.89
628.762	473.17
629.105	409.34
629.448	383.8
629.792	394.02
630.135	439.98
630.478	506.37
630.821	450.19
631.164	386.36
631.507	401.68
631.85	388.91
632.193	391.46
632.536	373.59
632.879	345.5
633.221	445.09
633.564	429.77
633.907	439.98
634.249	391.46
634.592	411.89
634.935	468.07
635.277	399.12
635.619	450.19
635.962	465.51
636.304	424.66
636.646	396.57
636.989	419.55
637.331	388.91
637.673	427.21
638.015	417
638.357	442.53
638.699	439.98
639.041	439.98
639.383	406.79
639.725	401.68
640.067	480.83
640.408	460.41
640.75	368.48
641.092	391.46
641.433	491.05
641.775	439.98
642.116	404.23
642.458	368.48
642.799	404.23
643.141	434.87
643.482	434.87
643.823	503.81
644.164	388.91
644.506	534.45
644.847	452.75
645.188	427.21
645.529	348.06
645.87	383.8
646.211	439.98
646.552	429.77
646.893	452.75
647.233	383.8
647.574	427.21
647.915	409.34
648.255	455.3
648.596	394.02
648.937	376.14
649.277	447.64
649.618	429.77
649.958	417
650.298	473.17
650.639	417
650.979	391.46
651.319	419.55
651.659	381.25
651.999	317.42
652.339	498.71
652.679	450.19
653.019	414.45
653.359	368.48
653.699	358.27
654.039	417
654.379	348.06
654.719	381.25
655.058	439.98
655.398	414.45
655.737	508.92
656.077	475.73
656.416	419.55
656.756	394.02
657.095	350.61
657.435	468.07
657.774	411.89
658.113	358.27
658.452	381.25
658.792	394.02
659.131	371.04
659.47	414.45
659.809	460.41
660.148	465.51
660.487	391.46
660.826	460.41
661.164	417
661.503	424.66
661.842	417
662.181	383.8
662.519	439.98
662.858	411.89
663.196	391.46
663.535	381.25
663.873	411.89
664.212	465.51
664.55	439.98
664.888	460.41
665.226	388.91
665.565	383.8
665.903	595.74
666.241	480.83
666.579	404.23
666.917	429.77
667.255	391.46
667.593	388.91
667.931	419.55
668.268	376.14
668.606	404.23
668.944	358.27
669.282	399.12
669.619	465.51
669.957	411.89
670.294	391.46
670.632	419.55
670.969	414.45
671.307	376.14
671.644	429.77
671.981	465.51
672.318	455.3
672.656	391.46
672.993	371.04
673.33	404.23
673.667	447.64
674.004	417
674.341	414.45
674.678	394.02
675.015	381.25
675.351	365.93
675.688	350.61
676.025	442.53
676.362	376.14
676.698	368.48
677.035	386.36
677.371	445.09
677.708	353.16
678.044	422.11
678.38	409.34
678.717	411.89
679.053	417
679.389	376.14
679.725	496.15
680.062	373.59
680.398	388.91
680.734	386.36
681.07	432.32
681.406	401.68
681.742	376.14
682.077	342.95
682.413	473.17
682.749	404.23
683.085	368.48
683.42	355.72
683.756	406.79
684.091	404.23
684.427	401.68
684.762	394.02
685.098	360.82
685.433	432.32
685.768	411.89
686.104	409.34
686.439	340.4
686.774	480.83
687.109	439.98
687.444	404.23
687.779	399.12
688.114	394.02
688.449	460.41
688.784	445.09
689.119	386.36
689.454	388.91
689.789	386.36
690.123	445.09
690.458	432.32
690.792	442.53
691.127	485.94
691.461	422.11
691.796	401.68
692.13	424.66
692.465	368.48
692.799	376.14
693.133	399.12
693.467	353.16
693.802	335.29
694.136	322.52
694.47	365.93
694.804	368.48
695.138	345.5
695.472	401.68
695.806	401.68
696.139	391.46
696.473	394.02
696.807	406.79
697.141	373.59
697.474	383.8
697.808	465.51
698.141	401.68
698.475	427.21
698.808	437.43
699.142	427.21
699.475	396.57
699.808	353.16
700.142	381.25
700.475	381.25
700.808	442.53
701.141	417
701.474	340.4
701.807	394.02
702.14	388.91
702.473	414.45
702.806	360.82
703.139	342.95
703.472	473.17
703.804	358.27
704.137	360.82
704.47	429.77
704.802	396.57
705.135	445.09
705.467	419.55
705.8	434.87
706.132	404.23
706.464	432.32
706.797	365.93
707.129	373.59
707.461	350.61
707.793	350.61
708.125	348.06
708.457	422.11
708.789	406.79
709.121	491.05
709.453	409.34
709.785	429.77
710.117	429.77
710.449	422.11
710.781	378.7
711.112	506.37
711.444	439.98
711.775	383.8
712.107	388.91
712.438	358.27
712.77	365.93
713.101	353.16
713.433	376.14
713.764	424.66
714.095	332.74
714.426	376.14
714.757	417
715.089	391.46
715.42	371.04
715.751	447.64
716.082	462.96
716.412	396.57
716.743	414.45
717.074	399.12
717.405	406.79
717.736	394.02
718.066	447.64
718.397	391.46
718.727	445.09
719.058	381.25
719.388	381.25
719.719	427.21
720.049	445.09
720.38	371.04
720.71	378.7
721.04	383.8
721.37	365.93
721.7	376.14
722.031	353.16
722.361	429.77
722.691	473.17
723.021	468.07
723.35	406.79
723.68	411.89
724.01	383.8
724.34	342.95
724.67	427.21
724.999	417
725.329	419.55
725.658	432.32
725.988	417
726.317	360.82
726.647	437.43
726.976	332.74
727.306	470.62
727.635	457.85
727.964	399.12
728.293	376.14
728.622	391.46
728.952	439.98
729.281	447.64
729.61	409.34
729.939	452.75
730.267	404.23
730.596	429.77
730.925	396.57
731.254	445.09
731.583	434.87
731.911	411.89
732.24	394.02
732.568	330.18
732.897	442.53
733.225	447.64
733.554	404.23
733.882	350.61
734.21	353.16
734.539	424.66
734.867	406.79
735.195	401.68
735.523	399.12
735.851	462.96
736.179	386.36
736.507	457.85
736.835	383.8
737.163	496.15
737.491	465.51
737.819	376.14
738.147	391.46
738.474	498.71
738.802	514.03
739.13	432.32
739.457	417
739.785	378.7
740.112	447.64
740.44	414.45
740.767	450.19
741.094	427.21
741.422	373.59
741.749	355.72
742.076	381.25
742.403	358.27
742.73	381.25
743.057	452.75
743.384	391.46
743.711	399.12
744.038	399.12
744.365	414.45
744.692	404.23
745.018	404.23
745.345	358.27
745.672	424.66
745.998	360.82
746.325	417
746.651	406.79
746.978	424.66
747.304	462.96
747.631	434.87
747.957	437.43
748.283	406.79
748.61	396.57
748.936	419.55
749.262	432.32
749.588	432.32
749.914	381.25
750.24	427.21
750.566	414.45
750.892	424.66
751.218	363.38
751.543	358.27
751.869	432.32
752.195	422.11
752.521	462.96
752.846	417
753.172	409.34
753.497	409.34
753.823	394.02
754.148	429.77
754.473	432.32
754.799	373.59
755.124	414.45
755.449	422.11
755.774	414.45
756.1	409.34
756.425	432.32
756.75	422.11
757.075	455.3
757.4	452.75
757.724	358.27
758.049	388.91
758.374	363.38
758.699	452.75
759.024	450.19
759.348	399.12
759.673	394.02
759.997	391.46
760.322	434.87
760.646	424.66
760.971	394.02
761.295	417
761.619	394.02
761.944	406.79
762.268	350.61
762.592	396.57
762.916	488.49
763.24	432.32
763.564	417
763.888	409.34
764.212	432.32
764.536	457.85
764.86	445.09
765.184	473.17
765.508	429.77
765.831	404.23
766.155	672.34
766.478	493.6
766.802	450.19
767.126	434.87
767.449	473.17
767.772	478.28
768.096	399.12
768.419	455.3
768.742	457.85
769.066	414.45
769.389	401.68
769.712	434.87
770.035	519.13
770.358	508.92
770.681	447.64
771.004	439.98
771.327	437.43
771.65	519.13
771.972	493.6
772.295	498.71
772.618	501.26
772.941	549.77
773.263	595.74
773.586	567.65
773.908	657.02
774.231	639.14
774.553	651.91
774.875	766.81
775.198	851.07
775.52	838.31
775.842	958.31
776.164	922.57
776.487	960.87
776.809	1006.83
777.131	1037.47
777.453	1055.34
777.775	1098.75
778.096	1063
778.418	1234.08
778.74	1489.42
779.062	1711.56
779.384	2020.52
779.705	2288.62
780.027	2618.01
780.348	3098.05
780.67	3404.45
780.991	3496.37
781.313	3463.18
781.634	3437.64
781.955	3468.29
782.277	3738.94
782.598	3871.72
782.919	3800.22
783.24	3664.9
783.561	3971.3
783.882	4193.44
784.203	4566.24
784.524	5000.31
784.845	5707.6
785.166	6233.59
785.487	6213.17
785.807	6450.63
786.128	6631.92
786.449	6565.53
786.769	6476.16
787.09	6476.16
787.41	7142.6
787.731	7809.03
788.051	8117.99
788.372	8513.76
788.692	8539.29
789.012	9325.73
789.332	10232.18
789.653	11136.08
789.973	12034.87
790.293	13012.81
790.613	12532.78
790.933	12147.22
791.253	11153.95
791.573	10178.56
791.893	10270.48
792.212	10852.65
792.532	11868.9
792.852	12772.79
793.171	13847.77
793.491	14261.41
793.811	14292.05
794.13	14774.64
794.45	16814.79
794.769	18734.93
795.088	21561.52
795.408	21694.3
795.727	23994.89
796.046	24084.26
796.365	24916.66
796.684	23762.53
797.004	22363.28
797.323	22470.52
797.642	23119.08
797.96	22498.61
798.279	22682.45
798.598	22677.35
798.917	23052.69
799.236	24668.98
799.554	27099.8
799.873	26675.94
800.192	26561.04
800.51	26571.25
800.829	28680.34
801.147	30319.61
801.466	31088.18
