Data from 2025-12-03_xpw_interference_FLMS141361__32__14-50-00-180.txt Node

Date: Wed Dec 03 14:50:00 MST 2025
User: james
Spectrometer: FLMS14136
Trigger mode: 0
Integration Time (sec): 1.000000E-1
Scans to average: 1
Electric dark correction enabled: true
Nonlinearity correction enabled: false
Boxcar width: 0
XAxis mode: Wavelengths
Number of Pixels in Spectrum: 2048
>>>>>Begin Spectral Data<<<<<
339.315	-31.12
339.697	-31.12
340.079	-31.12
340.461	-94.95
340.843	-161.34
341.225	-135.81
341.607	-146.02
341.989	-79.63
342.371	-123.04
342.752	-13.25
343.134	-87.29
343.516	-107.72
343.897	-33.67
344.279	37.82
344.661	96.55
345.042	50.59
345.423	25.06
345.805	91.44
346.186	101.66
346.567	173.15
346.949	150.17
347.33	234.43
347.711	226.77
348.092	226.77
348.473	185.92
348.854	239.54
349.235	277.84
349.616	252.31
349.997	277.84
350.378	339.12
350.758	362.1
351.139	328.91
351.52	372.31
351.9	344.23
352.281	277.84
352.661	356.99
353.042	369.76
353.422	413.17
353.803	408.06
354.183	425.94
354.563	441.26
354.943	477
355.324	433.6
355.704	410.62
356.084	336.57
356.464	313.59
356.844	397.85
357.224	443.81
357.603	400.4
357.983	334.01
358.363	433.6
358.743	410.62
359.122	418.28
359.502	400.4
359.882	351.89
360.261	356.99
360.641	369.76
361.02	303.37
361.399	374.87
361.779	382.53
362.158	339.12
362.537	364.65
362.916	372.31
363.296	392.74
363.675	356.99
364.054	369.76
364.433	351.89
364.812	397.85
365.19	316.14
365.569	293.16
365.948	323.8
366.327	331.46
366.705	339.12
367.084	339.12
367.463	382.53
367.841	413.17
368.22	351.89
368.598	328.91
368.977	379.97
369.355	377.42
369.733	341.67
370.111	443.81
370.49	405.51
370.868	369.76
371.246	339.12
371.624	423.38
372.002	372.31
372.38	351.89
372.758	400.4
373.136	349.33
373.513	295.71
373.891	408.06
374.269	321.25
374.646	385.08
375.024	374.87
375.402	405.51
375.779	420.83
376.157	392.74
376.534	331.46
376.911	280.39
377.289	351.89
377.666	303.37
378.043	280.39
378.42	382.53
378.797	362.1
379.175	321.25
379.552	362.1
379.929	356.99
380.305	392.74
380.682	372.31
381.059	362.1
381.436	331.46
381.813	303.37
382.189	387.63
382.566	341.67
382.943	351.89
383.319	362.1
383.696	367.21
384.072	364.65
384.448	377.42
384.825	356.99
385.201	331.46
385.577	349.33
385.953	428.49
386.329	359.55
386.706	400.4
387.082	397.85
387.458	431.04
387.834	390.19
388.209	323.8
388.585	379.97
388.961	328.91
389.337	334.01
389.713	339.12
390.088	387.63
390.464	334.01
390.839	339.12
391.215	367.21
391.59	446.36
391.966	374.87
392.341	418.28
392.716	385.08
393.092	410.62
393.467	428.49
393.842	408.06
394.217	390.19
394.592	351.89
394.967	390.19
395.342	390.19
395.717	318.69
396.092	390.19
396.467	402.95
396.841	349.33
397.216	318.69
397.591	349.33
397.965	390.19
398.34	377.42
398.714	349.33
399.089	339.12
399.463	379.97
399.838	410.62
400.212	334.01
400.586	318.69
400.961	379.97
401.335	374.87
401.709	471.9
402.083	423.38
402.457	359.55
402.831	385.08
403.205	387.63
403.579	390.19
403.953	372.31
404.326	359.55
404.7	413.17
405.074	369.76
405.447	379.97
405.821	372.31
406.195	379.97
406.568	326.35
406.942	471.9
407.315	461.68
407.688	428.49
408.062	379.97
408.435	385.08
408.808	441.26
409.181	420.83
409.554	390.19
409.927	359.55
410.3	341.67
410.673	385.08
411.046	364.65
411.419	405.51
411.792	390.19
412.165	367.21
412.537	469.34
412.91	402.95
413.283	362.1
413.655	400.4
414.028	420.83
414.4	379.97
414.773	387.63
415.145	402.95
415.517	369.76
415.889	410.62
416.262	369.76
416.634	436.15
417.006	428.49
417.378	431.04
417.75	385.08
418.122	431.04
418.494	392.74
418.866	344.23
419.238	334.01
419.609	418.28
419.981	364.65
420.353	311.03
420.725	382.53
421.096	341.67
421.468	385.08
421.839	367.21
422.211	311.03
422.582	341.67
422.953	356.99
423.325	392.74
423.696	359.55
424.067	397.85
424.438	423.38
424.809	425.94
425.18	367.21
425.551	420.83
425.922	420.83
426.293	397.85
426.664	413.17
427.035	390.19
427.406	374.87
427.776	354.44
428.147	410.62
428.518	418.28
428.888	415.72
429.259	438.7
429.629	367.21
429.999	374.87
430.37	451.47
430.74	377.42
431.11	379.97
431.481	390.19
431.851	382.53
432.221	441.26
432.591	379.97
432.961	456.58
433.331	379.97
433.701	382.53
434.071	344.23
434.441	482.11
434.81	362.1
435.18	420.83
435.55	413.17
435.919	418.28
436.289	441.26
436.658	443.81
437.028	431.04
437.397	377.42
437.767	369.76
438.136	461.68
438.505	489.77
438.875	349.33
439.244	395.29
439.613	400.4
439.982	425.94
440.351	441.26
440.72	451.47
441.089	367.21
441.458	390.19
441.827	341.67
442.196	379.97
442.564	410.62
442.933	471.9
443.302	395.29
443.67	443.81
444.039	374.87
444.407	420.83
444.776	379.97
445.144	367.21
445.513	479.56
445.881	382.53
446.249	420.83
446.617	441.26
446.986	410.62
447.354	436.15
447.722	459.13
448.09	364.65
448.458	446.36
448.826	471.9
449.194	474.45
449.561	420.83
449.929	474.45
450.297	418.28
450.665	339.12
451.032	443.81
451.4	385.08
451.767	351.89
452.135	446.36
452.502	436.15
452.87	413.17
453.237	341.67
453.604	448.92
453.971	443.81
454.339	397.85
454.706	448.92
455.073	372.31
455.44	374.87
455.807	387.63
456.174	425.94
456.541	431.04
456.908	387.63
457.274	469.34
457.641	385.08
458.008	382.53
458.374	415.72
458.741	461.68
459.108	410.62
459.474	382.53
459.841	433.6
460.207	418.28
460.573	441.26
460.94	431.04
461.306	428.49
461.672	413.17
462.038	471.9
462.404	425.94
462.771	318.69
463.137	390.19
463.503	413.17
463.868	431.04
464.234	448.92
464.6	323.8
464.966	390.19
465.332	505.09
465.697	385.08
466.063	344.23
466.429	423.38
466.794	425.94
467.16	392.74
467.525	397.85
467.89	443.81
468.256	397.85
468.621	392.74
468.986	402.95
469.351	400.4
469.717	454.02
470.082	379.97
470.447	382.53
470.812	382.53
471.177	471.9
471.542	438.7
471.906	420.83
472.271	418.28
472.636	397.85
473.001	390.19
473.365	425.94
473.73	390.19
474.094	374.87
474.459	400.4
474.823	410.62
475.188	428.49
475.552	385.08
475.917	459.13
476.281	497.43
476.645	436.15
477.009	410.62
477.373	469.34
477.737	471.9
478.101	433.6
478.465	423.38
478.829	400.4
479.193	431.04
479.557	466.79
479.921	402.95
480.284	356.99
480.648	390.19
481.012	431.04
481.375	392.74
481.739	397.85
482.102	364.65
482.466	487.22
482.829	431.04
483.193	443.81
483.556	385.08
483.919	346.78
484.282	372.31
484.645	420.83
485.009	408.06
485.372	351.89
485.735	344.23
486.098	423.38
486.46	405.51
486.823	328.91
487.186	382.53
487.549	387.63
487.912	423.38
488.274	418.28
488.637	436.15
488.999	443.81
489.362	436.15
489.724	459.13
490.087	425.94
490.449	356.99
490.811	489.77
491.174	377.42
491.536	379.97
491.898	448.92
492.26	441.26
492.622	374.87
492.984	369.76
493.346	359.55
493.708	415.72
494.07	374.87
494.432	397.85
494.794	405.51
495.155	451.47
495.517	423.38
495.879	423.38
496.24	415.72
496.602	402.95
496.963	410.62
497.325	464.24
497.686	505.09
498.048	408.06
498.409	351.89
498.77	339.12
499.131	413.17
499.492	408.06
499.854	431.04
500.215	397.85
500.576	395.29
500.937	448.92
501.298	441.26
501.658	420.83
502.019	385.08
502.38	397.85
502.741	471.9
503.101	405.51
503.462	364.65
503.823	377.42
504.183	395.29
504.543	420.83
504.904	382.53
505.264	367.21
505.625	410.62
505.985	367.21
506.345	390.19
506.705	423.38
507.065	405.51
507.426	446.36
507.786	369.76
508.146	334.01
508.505	454.02
508.865	408.06
509.225	469.34
509.585	415.72
509.945	413.17
510.304	418.28
510.664	461.68
511.024	410.62
511.383	372.31
511.743	397.85
512.102	369.76
512.462	385.08
512.821	374.87
513.18	372.31
513.539	390.19
513.899	364.65
514.258	367.21
514.617	402.95
514.976	423.38
515.335	354.44
515.694	413.17
516.053	390.19
516.412	387.63
516.771	408.06
517.129	413.17
517.488	387.63
517.847	395.29
518.205	400.4
518.564	446.36
518.922	474.45
519.281	385.08
519.639	387.63
519.998	461.68
520.356	448.92
520.714	402.95
521.073	484.66
521.431	425.94
521.789	410.62
522.147	436.15
522.505	454.02
522.863	408.06
523.221	351.89
523.579	379.97
523.937	402.95
524.295	433.6
524.652	405.51
525.01	454.02
525.368	441.26
525.725	372.31
526.083	392.74
526.44	392.74
526.798	469.34
527.155	456.58
527.513	484.66
527.87	423.38
528.227	494.88
528.584	436.15
528.942	413.17
529.299	494.88
529.656	454.02
530.013	499.98
530.37	438.7
530.727	387.63
531.083	408.06
531.44	402.95
531.797	446.36
532.154	451.47
532.511	446.36
532.867	410.62
533.224	464.24
533.58	408.06
533.937	441.26
534.293	423.38
534.65	405.51
535.006	438.7
535.362	420.83
535.718	395.29
536.075	346.78
536.431	336.57
536.787	400.4
537.143	410.62
537.499	428.49
537.855	436.15
538.211	395.29
538.567	354.44
538.923	379.97
539.278	415.72
539.634	423.38
539.99	438.7
540.345	428.49
540.701	446.36
541.056	443.81
541.412	443.81
541.767	420.83
542.123	379.97
542.478	372.31
542.833	418.28
543.188	484.66
543.544	451.47
543.899	451.47
544.254	438.7
544.609	405.51
544.964	377.42
545.319	420.83
545.674	364.65
546.029	405.51
546.383	300.82
546.738	374.87
547.093	390.19
547.447	387.63
547.802	367.21
548.157	382.53
548.511	367.21
548.866	436.15
549.22	385.08
549.574	385.08
549.929	474.45
550.283	420.83
550.637	459.13
550.991	392.74
551.345	464.24
551.699	397.85
552.053	374.87
552.407	415.72
552.761	459.13
553.115	469.34
553.469	512.75
553.823	382.53
554.176	413.17
554.53	420.83
554.884	415.72
555.237	609.78
555.591	413.17
555.944	474.45
556.298	369.76
556.651	443.81
557.005	489.77
557.358	413.17
557.711	397.85
558.064	425.94
558.417	454.02
558.771	482.11
559.124	433.6
559.477	359.55
559.83	428.49
560.182	397.85
560.535	482.11
560.888	515.3
561.241	385.08
561.594	354.44
561.946	385.08
562.299	471.9
562.651	367.21
563.004	397.85
563.356	454.02
563.709	326.35
564.061	446.36
564.413	400.4
564.766	436.15
565.118	443.81
565.47	425.94
565.822	423.38
566.174	379.97
566.526	418.28
566.878	397.85
567.23	454.02
567.582	448.92
567.934	436.15
568.286	369.76
568.638	354.44
568.989	423.38
569.341	415.72
569.693	397.85
570.044	446.36
570.396	402.95
570.747	402.95
571.098	382.53
571.45	441.26
571.801	433.6
572.152	423.38
572.504	454.02
572.855	408.06
573.206	364.65
573.557	418.28
573.908	433.6
574.259	413.17
574.61	334.01
574.961	351.89
575.311	390.19
575.662	443.81
576.013	474.45
576.364	392.74
576.714	387.63
577.065	436.15
577.415	372.31
577.766	459.13
578.116	397.85
578.467	415.72
578.817	448.92
579.167	392.74
579.518	420.83
579.868	359.55
580.218	392.74
580.568	354.44
580.918	428.49
581.268	446.36
581.618	436.15
581.968	469.34
582.318	362.1
582.668	420.83
583.017	423.38
583.367	489.77
583.717	420.83
584.066	454.02
584.416	425.94
584.765	356.99
585.115	441.26
585.464	431.04
585.814	433.6
586.163	397.85
586.512	400.4
586.862	456.58
587.211	507.64
587.56	469.34
587.909	492.32
588.258	385.08
588.607	418.28
588.956	397.85
589.305	379.97
589.654	461.68
590.002	459.13
590.351	436.15
590.7	405.51
591.048	385.08
591.397	379.97
591.746	512.75
592.094	372.31
592.443	356.99
592.791	443.81
593.139	446.36
593.488	405.51
593.836	459.13
594.184	400.4
594.532	408.06
594.88	351.89
595.228	459.13
595.576	364.65
595.924	431.04
596.272	390.19
596.62	438.7
596.968	385.08
597.316	356.99
597.664	379.97
598.011	385.08
598.359	323.8
598.706	311.03
599.054	395.29
599.402	415.72
599.749	408.06
600.096	448.92
600.444	382.53
600.791	418.28
601.138	423.38
601.485	405.51
601.833	425.94
602.18	413.17
602.527	364.65
602.874	397.85
603.221	402.95
603.568	362.1
603.914	438.7
604.261	392.74
604.608	344.23
604.955	459.13
605.301	418.28
605.648	461.68
605.995	372.31
606.341	351.89
606.688	390.19
607.034	379.97
607.38	374.87
607.727	362.1
608.073	469.34
608.419	471.9
608.765	436.15
609.112	438.7
609.458	423.38
609.804	420.83
610.15	390.19
610.496	433.6
610.842	451.47
611.187	367.21
611.533	369.76
611.879	420.83
612.225	408.06
612.57	390.19
612.916	405.51
613.261	385.08
613.607	405.51
613.952	466.79
614.298	369.76
614.643	351.89
614.989	326.35
615.334	362.1
615.679	377.42
616.024	446.36
616.369	438.7
616.714	379.97
617.059	351.89
617.404	395.29
617.749	367.21
618.094	471.9
618.439	451.47
618.784	428.49
619.129	423.38
619.473	379.97
619.818	339.12
620.163	390.19
620.507	344.23
620.852	362.1
621.196	446.36
621.54	451.47
621.885	364.65
622.229	459.13
622.573	362.1
622.918	402.95
623.262	436.15
623.606	433.6
623.95	436.15
624.294	418.28
624.638	387.63
624.982	392.74
625.326	469.34
625.67	402.95
626.013	425.94
626.357	349.33
626.701	464.24
627.044	461.68
627.388	408.06
627.731	443.81
628.075	405.51
628.418	423.38
628.762	374.87
629.105	415.72
629.448	397.85
629.792	351.89
630.135	341.67
630.478	367.21
630.821	433.6
631.164	400.4
631.507	377.42
631.85	382.53
632.193	374.87
632.536	438.7
632.879	339.12
633.221	323.8
633.564	387.63
633.907	367.21
634.249	400.4
634.592	405.51
634.935	438.7
635.277	461.68
635.619	385.08
635.962	344.23
636.304	408.06
636.646	379.97
636.989	446.36
637.331	367.21
637.673	377.42
638.015	369.76
638.357	390.19
638.699	443.81
639.041	420.83
639.383	390.19
639.725	395.29
640.067	379.97
640.408	362.1
640.75	359.55
641.092	379.97
641.433	367.21
641.775	395.29
642.116	341.67
642.458	420.83
642.799	420.83
643.141	482.11
643.482	382.53
643.823	418.28
644.164	364.65
644.506	482.11
644.847	400.4
645.188	367.21
645.529	364.65
645.87	336.57
646.211	354.44
646.552	410.62
646.893	379.97
647.233	377.42
647.574	451.47
647.915	413.17
648.255	425.94
648.596	420.83
648.937	405.51
649.277	395.29
649.618	351.89
649.958	367.21
650.298	415.72
650.639	474.45
650.979	392.74
651.319	408.06
651.659	415.72
651.999	382.53
652.339	397.85
652.679	382.53
653.019	456.58
653.359	387.63
653.699	402.95
654.039	385.08
654.379	326.35
654.719	402.95
655.058	431.04
655.398	311.03
655.737	413.17
656.077	420.83
656.416	418.28
656.756	431.04
657.095	362.1
657.435	454.02
657.774	400.4
658.113	369.76
658.452	487.22
658.792	402.95
659.131	438.7
659.47	410.62
659.809	349.33
660.148	387.63
660.487	428.49
660.826	349.33
661.164	369.76
661.503	410.62
661.842	451.47
662.181	379.97
662.519	395.29
662.858	395.29
663.196	441.26
663.535	400.4
663.873	374.87
664.212	382.53
664.55	402.95
664.888	436.15
665.226	461.68
665.565	372.31
665.903	581.69
666.241	413.17
666.579	346.78
666.917	385.08
667.255	423.38
667.593	369.76
667.931	438.7
668.268	431.04
668.606	459.13
668.944	356.99
669.282	420.83
669.619	410.62
669.957	405.51
670.294	415.72
670.632	349.33
670.969	415.72
671.307	369.76
671.644	402.95
671.981	413.17
672.318	420.83
672.656	423.38
672.993	390.19
673.33	331.46
673.667	382.53
674.004	425.94
674.341	382.53
674.678	410.62
675.015	346.78
675.351	392.74
675.688	443.81
676.025	428.49
676.362	410.62
676.698	369.76
677.035	459.13
677.371	351.89
677.708	374.87
678.044	410.62
678.38	420.83
678.717	466.79
679.053	382.53
679.389	408.06
679.725	359.55
680.062	349.33
680.398	464.24
680.734	372.31
681.07	359.55
681.406	405.51
681.742	400.4
682.077	392.74
682.413	372.31
682.749	400.4
683.085	351.89
683.42	349.33
683.756	372.31
684.091	423.38
684.427	420.83
684.762	402.95
685.098	395.29
685.433	397.85
685.768	331.46
686.104	451.47
686.439	413.17
686.774	418.28
687.109	395.29
687.444	413.17
687.779	415.72
688.114	464.24
688.449	410.62
688.784	387.63
689.119	402.95
689.454	402.95
689.789	438.7
690.123	410.62
690.458	379.97
690.792	382.53
691.127	402.95
691.461	359.55
691.796	379.97
692.13	379.97
692.465	459.13
692.799	448.92
693.133	410.62
693.467	354.44
693.802	405.51
694.136	374.87
694.47	385.08
694.804	420.83
695.138	382.53
695.472	479.56
695.806	372.31
696.139	413.17
696.473	369.76
696.807	413.17
697.141	441.26
697.474	382.53
697.808	402.95
698.141	425.94
698.475	392.74
698.808	451.47
699.142	423.38
699.475	454.02
699.808	397.85
700.142	459.13
700.475	441.26
700.808	402.95
701.141	372.31
701.474	364.65
701.807	308.48
702.14	364.65
702.473	397.85
702.806	382.53
703.139	321.25
703.472	390.19
703.804	377.42
704.137	390.19
704.47	402.95
704.802	443.81
705.135	390.19
705.467	456.58
705.8	431.04
706.132	454.02
706.464	356.99
706.797	441.26
707.129	448.92
707.461	364.65
707.793	392.74
708.125	374.87
708.457	415.72
708.789	425.94
709.121	413.17
709.453	428.49
709.785	372.31
710.117	402.95
710.449	346.78
710.781	408.06
711.112	395.29
711.444	423.38
711.775	402.95
712.107	477
712.438	441.26
712.77	397.85
713.101	331.46
713.433	372.31
713.764	392.74
714.095	441.26
714.426	364.65
714.757	443.81
715.089	341.67
715.42	413.17
715.751	339.12
716.082	469.34
716.412	397.85
716.743	392.74
717.074	387.63
717.405	318.69
717.736	328.91
718.066	334.01
718.397	408.06
718.727	425.94
719.058	436.15
719.388	410.62
719.719	423.38
720.049	334.01
720.38	346.78
720.71	382.53
721.04	385.08
721.37	433.6
721.7	397.85
722.031	471.9
722.361	402.95
722.691	397.85
723.021	413.17
723.35	425.94
723.68	425.94
724.01	351.89
724.34	420.83
724.67	448.92
724.999	321.25
725.329	392.74
725.658	377.42
725.988	425.94
726.317	400.4
726.647	387.63
726.976	418.28
727.306	410.62
727.635	428.49
727.964	410.62
728.293	379.97
728.622	344.23
728.952	313.59
729.281	466.79
729.61	441.26
729.939	349.33
730.267	372.31
730.596	397.85
730.925	443.81
731.254	400.4
731.583	385.08
731.911	423.38
732.24	328.91
732.568	443.81
732.897	349.33
733.225	397.85
733.554	443.81
733.882	471.9
734.21	392.74
734.539	420.83
734.867	431.04
735.195	479.56
735.523	420.83
735.851	402.95
736.179	425.94
736.507	446.36
736.835	425.94
737.163	456.58
737.491	428.49
737.819	428.49
738.147	484.66
738.474	423.38
738.802	443.81
739.13	369.76
739.457	410.62
739.785	367.21
740.112	402.95
740.44	397.85
740.767	349.33
741.094	420.83
741.422	344.23
741.749	413.17
742.076	379.97
742.403	425.94
742.73	379.97
743.057	392.74
743.384	362.1
743.711	405.51
744.038	438.7
744.365	410.62
744.692	402.95
745.018	413.17
745.345	459.13
745.672	425.94
745.998	425.94
746.325	413.17
746.651	392.74
746.978	436.15
747.304	382.53
747.631	438.7
747.957	408.06
748.283	423.38
748.61	454.02
748.936	413.17
749.262	410.62
749.588	379.97
749.914	362.1
750.24	443.81
750.566	397.85
750.892	385.08
751.218	374.87
751.543	402.95
751.869	387.63
752.195	334.01
752.521	387.63
752.846	408.06
753.172	377.42
753.497	395.29
753.823	408.06
754.148	400.4
754.473	400.4
754.799	344.23
755.124	362.1
755.449	379.97
755.774	436.15
756.1	385.08
756.425	392.74
756.75	413.17
757.075	420.83
757.4	454.02
757.724	336.57
758.049	265.07
758.374	387.63
758.699	415.72
759.024	372.31
759.348	339.12
759.673	364.65
759.997	390.19
760.322	423.38
760.646	362.1
760.971	400.4
761.295	387.63
761.619	436.15
761.944	413.17
762.268	494.88
762.592	492.32
762.916	512.75
763.24	499.98
763.564	494.88
763.888	438.7
764.212	538.28
764.536	533.18
764.86	609.78
765.184	571.48
765.508	579.14
765.831	709.36
766.155	977.47
766.478	755.32
766.802	747.66
767.126	770.64
767.449	852.35
767.772	969.8
768.096	1043.85
768.419	987.68
768.742	918.74
769.066	974.91
769.389	1222.59
769.712	1283.87
770.035	1230.25
770.358	1243.02
770.681	1383.45
771.004	1684.75
771.327	1914.55
771.65	1730.71
771.972	1649
772.295	1740.93
772.618	2080.52
772.941	2399.7
773.263	2251.6
773.586	2006.48
773.908	1781.78
774.231	2001.37
774.553	2560.56
774.875	2838.88
775.198	2272.03
775.52	1827.74
775.842	2208.19
776.164	2874.62
776.487	2984.42
776.809	2445.66
777.131	2146.91
777.453	2095.84
777.775	2450.76
778.096	2989.53
778.418	2992.08
778.74	2494.17
779.062	2243.94
779.384	2565.67
779.705	3655.96
780.027	3908.74
780.348	3352.11
780.67	2624.39
780.991	2672.91
781.313	3224.44
781.634	4084.93
781.955	4337.71
782.277	3796.39
782.598	3211.67
782.919	3441.47
783.24	4312.18
783.561	4544.53
783.882	4202.38
784.203	3691.71
784.524	3392.96
784.845	4225.36
785.166	5134.36
785.487	5320.76
785.807	4207.49
786.128	3464.46
786.449	4044.07
786.769	5371.83
787.09	5844.2
787.41	5170.11
787.731	3944.49
788.051	3964.92
788.372	5399.92
788.692	7039.18
789.012	7039.18
789.332	5343.74
789.653	4378.56
789.973	4416.87
790.293	5481.62
790.613	6135.29
790.933	5961.66
791.253	4447.51
791.573	3758.09
791.893	4238.13
792.212	5606.74
792.532	6454.46
792.852	5336.08
793.171	4113.01
793.491	3862.78
793.811	4761.57
794.13	5476.52
794.45	5279.91
794.769	4207.49
795.088	3423.6
795.408	3663.62
795.727	5006.7
796.046	6130.18
796.365	5879.95
796.684	4776.89
797.004	4049.18
797.323	4470.49
797.642	5629.72
797.96	5994.85
798.279	5218.63
798.598	4059.39
798.917	3395.51
799.236	3724.9
799.554	4700.29
