Data from 2025-12-03_xpw_interference_micrometer_632_FLMS141361__1__19.txt Node

Date: Wed Dec 03 15:14:46 MST 2025
User: james
Spectrometer: FLMS14136
Trigger mode: 0
Integration Time (sec): 1.000000E-1
Scans to average: 1
Electric dark correction enabled: true
Nonlinearity correction enabled: false
Boxcar width: 0
XAxis mode: Wavelengths
Number of Pixels in Spectrum: 2048
>>>>>Begin Spectral Data<<<<<
339.315	-50.59
339.697	-50.59
340.079	-50.59
340.461	-42.93
340.843	-114.42
341.225	-122.08
341.607	-142.51
341.989	-55.7
342.371	-86.34
342.752	-86.34
343.134	-25.06
343.516	-65.91
343.897	-27.61
344.279	-32.72
344.661	23.46
345.042	59.21
345.423	84.74
345.805	89.85
346.186	87.29
346.567	171.56
346.949	128.15
347.33	130.7
347.711	148.57
348.092	156.23
348.473	169
348.854	191.98
349.235	214.96
349.616	263.48
349.997	304.33
350.378	319.65
350.758	250.71
351.139	322.2
351.52	276.24
351.9	347.74
352.281	365.61
352.661	309.44
353.042	406.47
353.422	383.49
353.803	393.7
354.183	383.49
354.563	360.51
354.943	414.13
355.324	421.79
355.704	401.36
356.084	360.51
356.464	416.68
356.844	360.51
357.224	401.36
357.603	472.85
357.983	411.57
358.363	429.45
358.743	370.72
359.122	421.79
359.502	340.08
359.882	360.51
360.261	342.63
360.641	380.93
361.02	370.72
361.399	283.9
361.779	401.36
362.158	467.75
362.537	370.72
362.916	365.61
363.296	378.38
363.675	334.97
364.054	347.74
364.433	386.04
364.812	301.78
365.19	306.88
365.569	327.31
365.948	322.2
366.327	327.31
366.705	391.15
367.084	347.74
367.463	306.88
367.841	380.93
368.22	306.88
368.598	345.18
368.977	419.23
369.355	398.81
369.733	350.29
370.111	347.74
370.49	311.99
370.868	363.06
371.246	332.42
371.624	386.04
372.002	332.42
372.38	324.76
372.758	375.83
373.136	370.72
373.513	306.88
373.891	304.33
374.269	388.59
374.646	347.74
375.024	289.01
375.402	260.92
375.779	388.59
376.157	306.88
376.534	357.95
376.911	314.54
377.289	411.57
377.666	357.95
378.043	332.42
378.42	347.74
378.797	393.7
379.175	294.12
379.552	342.63
379.929	360.51
380.305	327.31
380.682	401.36
381.059	347.74
381.436	396.25
381.813	304.33
382.189	378.38
382.566	370.72
382.943	368.17
383.319	363.06
383.696	342.63
384.072	409.02
384.448	411.57
384.825	393.7
385.201	375.83
385.577	360.51
385.953	306.88
386.329	411.57
386.706	329.86
387.082	383.49
387.458	350.29
387.834	322.2
388.209	355.4
388.585	345.18
388.961	375.83
389.337	411.57
389.713	365.61
390.088	352.84
390.464	409.02
390.839	363.06
391.215	375.83
391.59	271.14
391.966	365.61
392.341	357.95
392.716	396.25
393.092	378.38
393.467	406.47
393.842	388.59
394.217	373.27
394.592	352.84
394.967	317.1
395.342	332.42
395.717	286.46
396.092	386.04
396.467	401.36
396.841	352.84
397.216	401.36
397.591	363.06
397.965	327.31
398.34	340.08
398.714	370.72
399.089	411.57
399.463	411.57
399.838	363.06
400.212	391.15
400.586	365.61
400.961	421.79
401.335	345.18
401.709	355.4
402.083	345.18
402.457	363.06
402.831	380.93
403.205	439.66
403.579	388.59
403.953	271.14
404.326	406.47
404.7	355.4
405.074	373.27
405.447	352.84
405.821	426.89
406.195	363.06
406.568	357.95
406.942	416.68
407.315	380.93
407.688	439.66
408.062	396.25
408.435	419.23
408.808	434.55
409.181	345.18
409.554	383.49
409.927	429.45
410.3	373.27
410.673	350.29
411.046	414.13
411.419	416.68
411.792	373.27
412.165	416.68
412.537	396.25
412.91	426.89
413.283	449.87
413.655	360.51
414.028	388.59
414.4	419.23
414.773	383.49
415.145	337.52
415.517	406.47
415.889	398.81
416.262	368.17
416.634	401.36
417.006	444.77
417.378	368.17
417.75	434.55
418.122	383.49
418.494	309.44
418.866	396.25
419.238	352.84
419.609	370.72
419.981	416.68
420.353	391.15
420.725	388.59
421.096	452.43
421.468	416.68
421.839	444.77
422.211	355.4
422.582	388.59
422.953	375.83
423.325	388.59
423.696	396.25
424.067	342.63
424.438	439.66
424.809	475.41
425.18	363.06
425.551	388.59
425.922	375.83
426.293	347.74
426.664	401.36
427.035	452.43
427.406	429.45
427.776	439.66
428.147	419.23
428.518	416.68
428.888	401.36
429.259	424.34
429.629	414.13
429.999	454.98
430.37	424.34
430.74	437.11
431.11	370.72
431.481	386.04
431.851	355.4
432.221	411.57
432.591	429.45
432.961	391.15
433.331	368.17
433.701	490.73
434.071	452.43
434.441	393.7
434.81	411.57
435.18	434.55
435.55	419.23
435.919	401.36
436.289	370.72
436.658	324.76
437.028	411.57
437.397	454.98
437.767	391.15
438.136	467.75
438.505	419.23
438.875	462.64
439.244	386.04
439.613	380.93
439.982	398.81
440.351	327.31
440.72	324.76
441.089	383.49
441.458	411.57
441.827	439.66
442.196	409.02
442.564	485.62
442.933	442.21
443.302	396.25
443.67	363.06
444.039	388.59
444.407	386.04
444.776	386.04
445.144	409.02
445.513	396.25
445.881	424.34
446.249	434.55
446.617	403.91
446.986	429.45
447.354	449.87
447.722	421.79
448.09	391.15
448.458	437.11
448.826	424.34
449.194	363.06
449.561	340.08
449.929	375.83
450.297	393.7
450.665	416.68
451.032	411.57
451.4	426.89
451.767	357.95
452.135	421.79
452.502	470.3
452.87	452.43
453.237	398.81
453.604	429.45
453.971	452.43
454.339	434.55
454.706	401.36
455.073	383.49
455.44	454.98
455.807	406.47
456.174	411.57
456.541	416.68
456.908	406.47
457.274	365.61
457.641	342.63
458.008	391.15
458.374	368.17
458.741	363.06
459.108	424.34
459.474	401.36
459.841	406.47
460.207	378.38
460.573	396.25
460.94	370.72
461.306	442.21
461.672	439.66
462.038	388.59
462.404	414.13
462.771	421.79
463.137	396.25
463.503	398.81
463.868	454.98
464.234	457.53
464.6	350.29
464.966	409.02
465.332	403.91
465.697	432
466.063	393.7
466.429	437.11
466.794	409.02
467.16	334.97
467.525	401.36
467.89	360.51
468.256	383.49
468.621	393.7
468.986	434.55
469.351	411.57
469.717	365.61
470.082	411.57
470.447	314.54
470.812	380.93
471.177	345.18
471.542	393.7
471.906	386.04
472.271	398.81
472.636	340.08
473.001	393.7
473.365	401.36
473.73	470.3
474.094	454.98
474.459	421.79
474.823	370.72
475.188	360.51
475.552	403.91
475.917	421.79
476.281	340.08
476.645	375.83
477.009	426.89
477.373	396.25
477.737	380.93
478.101	386.04
478.465	424.34
478.829	414.13
479.193	403.91
479.557	391.15
479.921	465.19
480.284	365.61
480.648	386.04
481.012	411.57
481.375	391.15
481.739	391.15
482.102	449.87
482.466	398.81
482.829	411.57
483.193	437.11
483.556	406.47
483.919	368.17
484.282	398.81
484.645	380.93
485.009	373.27
485.372	403.91
485.735	393.7
486.098	460.09
486.46	472.85
486.823	386.04
487.186	380.93
487.549	355.4
487.912	409.02
488.274	411.57
488.637	465.19
488.999	396.25
489.362	363.06
489.724	322.2
490.087	380.93
490.449	401.36
490.811	398.81
491.174	437.11
491.536	345.18
491.898	421.79
492.26	386.04
492.622	424.34
492.984	363.06
493.346	434.55
493.708	426.89
494.07	424.34
494.432	396.25
494.794	411.57
495.155	421.79
495.517	444.77
495.879	365.61
496.24	419.23
496.602	391.15
496.963	437.11
497.325	416.68
497.686	429.45
498.048	383.49
498.409	416.68
498.77	444.77
499.131	454.98
499.492	454.98
499.854	452.43
500.215	460.09
500.576	452.43
500.937	498.39
501.298	391.15
501.658	360.51
502.019	388.59
502.38	442.21
502.741	424.34
503.101	467.75
503.462	391.15
503.823	373.27
504.183	442.21
504.543	457.53
504.904	368.17
505.264	355.4
505.625	391.15
505.985	391.15
506.345	368.17
506.705	454.98
507.065	378.38
507.426	411.57
507.786	437.11
508.146	393.7
508.505	365.61
508.865	506.05
509.225	391.15
509.585	480.51
509.945	396.25
510.304	409.02
510.664	437.11
511.024	406.47
511.383	388.59
511.743	429.45
512.102	352.84
512.462	373.27
512.821	434.55
513.18	424.34
513.539	383.49
513.899	350.29
514.258	426.89
514.617	437.11
514.976	411.57
515.335	442.21
515.694	401.36
516.053	363.06
516.412	414.13
516.771	411.57
517.129	386.04
517.488	396.25
517.847	452.43
518.205	432
518.564	437.11
518.922	419.23
519.281	439.66
519.639	386.04
519.998	380.93
520.356	414.13
520.714	383.49
521.073	460.09
521.431	337.52
521.789	426.89
522.147	442.21
522.505	442.21
522.863	429.45
523.221	373.27
523.579	342.63
523.937	396.25
524.295	365.61
524.652	449.87
525.01	452.43
525.368	421.79
525.725	449.87
526.083	363.06
526.44	398.81
526.798	432
527.155	442.21
527.513	449.87
527.87	380.93
528.227	393.7
528.584	462.64
528.942	442.21
529.299	424.34
529.656	380.93
530.013	432
530.37	442.21
530.727	396.25
531.083	467.75
531.44	386.04
531.797	406.47
532.154	380.93
532.511	363.06
532.867	373.27
533.224	393.7
533.58	378.38
533.937	426.89
534.293	401.36
534.65	421.79
535.006	386.04
535.362	398.81
535.718	357.95
536.075	477.96
536.431	411.57
536.787	419.23
537.143	470.3
537.499	378.38
537.855	449.87
538.211	375.83
538.567	383.49
538.923	465.19
539.278	465.19
539.634	449.87
539.99	454.98
540.345	452.43
540.701	350.29
541.056	375.83
541.412	403.91
541.767	421.79
542.123	488.17
542.478	360.51
542.833	429.45
543.188	380.93
543.544	370.72
543.899	368.17
544.254	380.93
544.609	388.59
544.964	365.61
545.319	442.21
545.674	347.74
546.029	375.83
546.383	434.55
546.738	373.27
547.093	411.57
547.447	383.49
547.802	439.66
548.157	406.47
548.511	391.15
548.866	380.93
549.22	416.68
549.574	419.23
549.929	429.45
550.283	426.89
550.637	370.72
550.991	414.13
551.345	337.52
551.699	398.81
552.053	398.81
552.407	462.64
552.761	386.04
553.115	439.66
553.469	398.81
553.823	398.81
554.176	426.89
554.53	393.7
554.884	393.7
555.237	623.5
555.591	465.19
555.944	414.13
556.298	375.83
556.651	391.15
557.005	429.45
557.358	452.43
557.711	462.64
558.064	460.09
558.417	452.43
558.771	495.83
559.124	457.53
559.477	421.79
559.83	424.34
560.182	462.64
560.535	447.32
560.888	347.74
561.241	401.36
561.594	447.32
561.946	426.89
562.299	383.49
562.651	403.91
563.004	426.89
563.356	429.45
563.709	429.45
564.061	406.47
564.413	426.89
564.766	363.06
565.118	363.06
565.47	296.67
565.822	409.02
566.174	409.02
566.526	386.04
566.878	375.83
567.23	480.51
567.582	378.38
567.934	414.13
568.286	393.7
568.638	403.91
568.989	409.02
569.341	357.95
569.693	396.25
570.044	375.83
570.396	370.72
570.747	439.66
571.098	424.34
571.45	414.13
571.801	398.81
572.152	416.68
572.504	373.27
572.855	401.36
573.206	467.75
573.557	434.55
573.908	403.91
574.259	447.32
574.61	416.68
574.961	419.23
575.311	437.11
575.662	370.72
576.013	393.7
576.364	454.98
576.714	363.06
577.065	373.27
577.415	360.51
577.766	365.61
578.116	452.43
578.467	426.89
578.817	401.36
579.167	406.47
579.518	419.23
579.868	401.36
580.218	449.87
580.568	452.43
580.918	398.81
581.268	388.59
581.618	396.25
581.968	368.17
582.318	380.93
582.668	383.49
583.017	368.17
583.367	403.91
583.717	383.49
584.066	370.72
584.416	386.04
584.765	429.45
585.115	406.47
585.464	432
585.814	386.04
586.163	414.13
586.512	383.49
586.862	414.13
587.211	334.97
587.56	388.59
587.909	396.25
588.258	401.36
588.607	370.72
588.956	398.81
589.305	373.27
589.654	388.59
590.002	391.15
590.351	370.72
590.7	327.31
591.048	355.4
591.397	368.17
591.746	432
592.094	462.64
592.443	414.13
592.791	383.49
593.139	383.49
593.488	396.25
593.836	370.72
594.184	437.11
594.532	401.36
594.88	462.64
595.228	444.77
595.576	380.93
595.924	434.55
596.272	472.85
596.62	457.53
596.968	386.04
597.316	380.93
597.664	442.21
598.011	396.25
598.359	398.81
598.706	373.27
599.054	380.93
599.402	432
599.749	393.7
600.096	434.55
600.444	416.68
600.791	416.68
601.138	360.51
601.485	365.61
601.833	452.43
602.18	322.2
602.527	439.66
602.874	411.57
603.221	357.95
603.568	457.53
603.914	457.53
604.261	444.77
604.608	421.79
604.955	388.59
605.301	414.13
605.648	398.81
605.995	391.15
606.341	416.68
606.688	363.06
607.034	421.79
607.38	419.23
607.727	416.68
608.073	424.34
608.419	360.51
608.765	426.89
609.112	388.59
609.458	393.7
609.804	345.18
610.15	457.53
610.496	419.23
610.842	414.13
611.187	396.25
611.533	434.55
611.879	373.27
612.225	414.13
612.57	416.68
612.916	398.81
613.261	391.15
613.607	360.51
613.952	401.36
614.298	393.7
614.643	378.38
614.989	426.89
615.334	462.64
615.679	375.83
616.024	452.43
616.369	449.87
616.714	403.91
617.059	396.25
617.404	398.81
617.749	406.47
618.094	403.91
618.439	401.36
618.784	368.17
619.129	424.34
619.473	409.02
619.818	442.21
620.163	452.43
620.507	454.98
620.852	406.47
621.196	383.49
621.54	401.36
621.885	334.97
622.229	391.15
622.573	373.27
622.918	345.18
623.262	416.68
623.606	373.27
623.95	401.36
624.294	380.93
624.638	424.34
624.982	429.45
625.326	483.07
625.67	421.79
626.013	391.15
626.357	437.11
626.701	398.81
627.044	411.57
627.388	411.57
627.731	365.61
628.075	393.7
628.418	444.77
628.762	355.4
629.105	365.61
629.448	388.59
629.792	324.76
630.135	386.04
630.478	460.09
630.821	342.63
631.164	368.17
631.507	393.7
631.85	352.84
632.193	388.59
632.536	421.79
632.879	419.23
633.221	416.68
633.564	401.36
633.907	393.7
634.249	432
634.592	398.81
634.935	311.99
635.277	365.61
635.619	375.83
635.962	467.75
636.304	368.17
636.646	360.51
636.989	414.13
637.331	357.95
637.673	449.87
638.015	409.02
638.357	380.93
638.699	416.68
639.041	393.7
639.383	388.59
639.725	398.81
640.067	426.89
640.408	424.34
640.75	416.68
641.092	398.81
641.433	444.77
641.775	383.49
642.116	411.57
642.458	347.74
642.799	414.13
643.141	447.32
643.482	370.72
643.823	365.61
644.164	465.19
644.506	483.07
644.847	419.23
645.188	391.15
645.529	393.7
645.87	432
646.211	375.83
646.552	332.42
646.893	391.15
647.233	416.68
647.574	340.08
647.915	373.27
648.255	345.18
648.596	375.83
648.937	378.38
649.277	380.93
649.618	329.86
649.958	393.7
650.298	429.45
650.639	393.7
650.979	452.43
651.319	370.72
651.659	391.15
651.999	357.95
652.339	386.04
652.679	396.25
653.019	375.83
653.359	350.29
653.699	383.49
654.039	429.45
654.379	439.66
654.719	419.23
655.058	375.83
655.398	375.83
655.737	419.23
656.077	403.91
656.416	434.55
656.756	393.7
657.095	424.34
657.435	373.27
657.774	289.01
658.113	314.54
658.452	304.33
658.792	401.36
659.131	334.97
659.47	350.29
659.809	393.7
660.148	475.41
660.487	406.47
660.826	403.91
661.164	432
661.503	355.4
661.842	432
662.181	434.55
662.519	355.4
662.858	416.68
663.196	419.23
663.535	442.21
663.873	380.93
664.212	383.49
664.55	378.38
664.888	419.23
665.226	406.47
665.565	401.36
665.903	554.56
666.241	409.02
666.579	409.02
666.917	363.06
667.255	508.6
667.593	452.43
667.931	373.27
668.268	378.38
668.606	375.83
668.944	398.81
669.282	406.47
669.619	396.25
669.957	378.38
670.294	342.63
670.632	475.41
670.969	434.55
671.307	352.84
671.644	414.13
671.981	442.21
672.318	380.93
672.656	452.43
672.993	421.79
673.33	411.57
673.667	355.4
674.004	421.79
674.341	406.47
674.678	406.47
675.015	380.93
675.351	398.81
675.688	457.53
676.025	393.7
676.362	393.7
676.698	365.61
677.035	429.45
677.371	398.81
677.708	380.93
678.044	411.57
678.38	393.7
678.717	368.17
679.053	337.52
679.389	406.47
679.725	426.89
680.062	365.61
680.398	409.02
680.734	439.66
681.07	383.49
681.406	419.23
681.742	393.7
682.077	368.17
682.413	398.81
682.749	457.53
683.085	388.59
683.42	406.47
683.756	383.49
684.091	388.59
684.427	393.7
684.762	403.91
685.098	311.99
685.433	340.08
685.768	352.84
686.104	401.36
686.439	370.72
686.774	442.21
687.109	406.47
687.444	426.89
687.779	365.61
688.114	467.75
688.449	391.15
688.784	419.23
689.119	403.91
689.454	332.42
689.789	368.17
690.123	329.86
690.458	378.38
690.792	426.89
691.127	391.15
691.461	327.31
691.796	391.15
692.13	439.66
692.465	373.27
692.799	406.47
693.133	460.09
693.467	406.47
693.802	357.95
694.136	334.97
694.47	444.77
694.804	414.13
695.138	434.55
695.472	398.81
695.806	352.84
696.139	396.25
696.473	401.36
696.807	375.83
697.141	398.81
697.474	437.11
697.808	403.91
698.141	396.25
698.475	419.23
698.808	409.02
699.142	363.06
699.475	340.08
699.808	424.34
700.142	363.06
700.475	398.81
700.808	391.15
701.141	396.25
701.474	375.83
701.807	370.72
702.14	373.27
702.473	360.51
702.806	393.7
703.139	398.81
703.472	391.15
703.804	329.86
704.137	391.15
704.47	406.47
704.802	414.13
705.135	411.57
705.467	396.25
705.8	396.25
706.132	434.55
706.464	340.08
706.797	380.93
707.129	373.27
707.461	388.59
707.793	350.29
708.125	345.18
708.457	452.43
708.789	355.4
709.121	388.59
709.453	421.79
709.785	393.7
710.117	396.25
710.449	352.84
710.781	347.74
711.112	386.04
711.444	421.79
711.775	373.27
712.107	467.75
712.438	439.66
712.77	449.87
713.101	442.21
713.433	426.89
713.764	363.06
714.095	434.55
714.426	357.95
714.757	411.57
715.089	337.52
715.42	391.15
715.751	370.72
716.082	424.34
716.412	396.25
716.743	398.81
717.074	401.36
717.405	365.61
717.736	396.25
718.066	475.41
718.397	337.52
718.727	375.83
719.058	424.34
719.388	378.38
719.719	350.29
720.049	414.13
720.38	434.55
720.71	314.54
721.04	352.84
721.37	386.04
721.7	457.53
722.031	355.4
722.361	424.34
722.691	391.15
723.021	470.3
723.35	383.49
723.68	424.34
724.01	360.51
724.34	365.61
724.67	327.31
724.999	396.25
725.329	416.68
725.658	467.75
725.988	357.95
726.317	398.81
726.647	429.45
726.976	373.27
727.306	378.38
727.635	444.77
727.964	383.49
728.293	398.81
728.622	462.64
728.952	388.59
729.281	319.65
729.61	442.21
729.939	393.7
730.267	396.25
730.596	357.95
730.925	386.04
731.254	340.08
731.583	391.15
731.911	403.91
732.24	465.19
732.568	378.38
732.897	426.89
733.225	365.61
733.554	396.25
733.882	365.61
734.21	393.7
734.539	347.74
734.867	403.91
735.195	378.38
735.523	419.23
735.851	365.61
736.179	383.49
736.507	370.72
736.835	449.87
737.163	414.13
737.491	383.49
737.819	421.79
738.147	401.36
738.474	363.06
738.802	421.79
739.13	411.57
739.457	365.61
739.785	380.93
740.112	411.57
740.44	421.79
740.767	416.68
741.094	398.81
741.422	411.57
741.749	467.75
742.076	462.64
742.403	393.7
742.73	449.87
743.057	360.51
743.384	383.49
743.711	411.57
744.038	437.11
744.365	388.59
744.692	365.61
745.018	401.36
745.345	416.68
745.672	419.23
745.998	409.02
746.325	419.23
746.651	452.43
746.978	398.81
747.304	419.23
747.631	291.56
747.957	363.06
748.283	401.36
748.61	419.23
748.936	388.59
749.262	370.72
749.588	334.97
749.914	396.25
750.24	398.81
750.566	460.09
750.892	380.93
751.218	342.63
751.543	322.2
751.869	373.27
752.195	403.91
752.521	477.96
752.846	375.83
753.172	391.15
753.497	406.47
753.823	370.72
754.148	398.81
754.473	439.66
754.799	406.47
755.124	403.91
755.449	329.86
755.774	363.06
756.1	301.78
756.425	409.02
756.75	386.04
757.075	426.89
757.4	513.71
757.724	447.32
758.049	403.91
758.374	383.49
758.699	454.98
759.024	406.47
759.348	388.59
759.673	391.15
759.997	421.79
760.322	416.68
760.646	490.73
760.971	393.7
761.295	391.15
761.619	457.53
761.944	465.19
762.268	434.55
762.592	462.64
762.916	472.85
763.24	470.3
763.564	493.28
763.888	411.57
764.212	493.28
764.536	534.13
764.86	521.37
765.184	605.63
765.508	702.66
765.831	707.76
766.155	1075.45
766.478	1057.58
766.802	1192.91
767.126	1363.98
767.449	1335.9
767.772	1381.86
768.096	1356.32
768.419	1363.98
768.742	1254.19
769.066	1215.89
769.389	1121.41
769.712	1016.72
770.035	866.07
770.358	822.67
770.681	827.77
771.004	807.35
771.327	912.03
771.65	1134.18
771.972	1453.35
772.295	1675.49
772.618	2058.5
772.941	2495.13
773.263	2901.12
773.586	3363.28
773.908	3662.02
774.231	4205.89
774.553	4496.98
774.875	4632.31
775.198	4823.81
775.52	4711.46
775.842	4387.18
776.164	3817.78
776.487	3179.43
776.809	2832.17
777.131	2204.04
777.453	1964.03
777.775	1598.89
778.096	1366.54
778.418	1111.2
778.74	1113.75
779.062	1341
779.384	1667.83
779.705	2283.2
780.027	2870.48
780.348	3636.49
780.67	4614.43
780.991	5339.59
781.313	5850.27
781.634	7252.07
781.955	8110.01
782.277	9116.04
782.598	9754.38
782.919	9121.15
783.24	8493.01
783.561	7435.92
783.882	6830.76
784.203	6445.2
784.524	6159.23
784.845	5370.23
785.166	4433.14
785.487	3427.11
785.807	2610.03
786.128	1864.44
786.449	1394.62
786.769	1323.13
787.09	1341
787.41	1780.18
787.731	2556.41
788.051	3164.11
788.372	4256.96
788.692	5165.96
789.012	6269.02
789.332	6733.74
789.653	7895.52
789.973	8416.41
790.293	9345.84
790.613	10101.64
790.933	10446.35
791.253	10198.67
791.573	9529.69
791.893	8967.94
792.212	7752.53
792.532	6664.8
792.852	5273.2
793.171	4101.2
793.491	3227.95
793.811	2553.86
794.13	1979.35
794.45	1540.17
794.769	1356.32
795.088	1333.34
795.408	1384.41
795.727	1629.53
796.046	2032.97
796.365	2671.31
796.684	3521.59
797.004	4144.61
797.323	5232.35
797.642	6373.71
797.96	7198.45
798.279	8053.83
798.598	9121.15
798.917	8924.53
799.236	8227.46
799.554	7808.71
