Data from 2025-12-03_xpw_interference_micrometer_650_FLMS141361__2__08.txt Node

Date: Wed Dec 03 15:07:55 MST 2025
User: james
Spectrometer: FLMS14136
Trigger mode: 0
Integration Time (sec): 1.000000E-1
Scans to average: 1
Electric dark correction enabled: true
Nonlinearity correction enabled: false
Boxcar width: 0
XAxis mode: Wavelengths
Number of Pixels in Spectrum: 2048
>>>>>Begin Spectral Data<<<<<
339.315	-44.21
339.697	-44.21
340.079	-44.21
340.461	-128.47
340.843	-128.47
341.225	-105.49
341.607	-164.21
341.989	-110.59
342.371	-90.17
342.752	-64.63
343.134	-95.27
343.516	4.31
343.897	14.52
344.279	-16.12
344.661	47.72
345.042	63.04
345.423	-3.35
345.805	119.21
346.186	78.36
346.567	190.71
346.949	131.98
347.33	139.64
347.711	211.13
348.092	231.56
348.473	267.31
348.854	208.58
349.235	246.88
349.616	251.99
349.997	318.37
350.378	274.97
350.758	328.59
351.139	315.82
351.52	359.23
351.9	346.46
352.281	372
352.661	341.35
353.042	361.78
353.422	366.89
353.803	382.21
354.183	354.12
354.563	349.01
354.943	374.55
355.324	417.96
355.704	384.76
356.084	415.4
356.464	356.67
356.844	471.58
357.224	412.85
357.603	420.51
357.983	410.3
358.363	407.74
358.743	402.64
359.122	359.23
359.502	361.78
359.882	412.85
360.261	341.35
360.641	359.23
361.02	387.32
361.399	400.08
361.779	430.72
362.158	323.48
362.537	402.64
362.916	423.06
363.296	351.57
363.675	305.61
364.054	389.87
364.433	333.69
364.812	303.05
365.19	389.87
365.569	402.64
365.948	372
366.327	323.48
366.705	297.95
367.084	366.89
367.463	384.76
367.841	328.59
368.22	364.34
368.598	377.1
368.977	356.67
369.355	389.87
369.733	315.82
370.111	394.98
370.49	336.25
370.868	336.25
371.246	326.03
371.624	351.57
372.002	400.08
372.38	305.61
372.758	341.35
373.136	326.03
373.513	374.55
373.891	320.93
374.269	300.5
374.646	379.66
375.024	366.89
375.402	318.37
375.779	374.55
376.157	405.19
376.534	438.38
376.911	417.96
377.289	341.35
377.666	410.3
378.043	333.69
378.42	366.89
378.797	412.85
379.175	303.05
379.552	336.25
379.929	410.3
380.305	341.35
380.682	374.55
381.059	384.76
381.436	372
381.813	356.67
382.189	415.4
382.566	328.59
382.943	379.66
383.319	318.37
383.696	377.1
384.072	297.95
384.448	428.17
384.825	433.28
385.201	356.67
385.577	392.42
385.953	300.5
386.329	397.53
386.706	359.23
387.082	336.25
387.458	333.69
387.834	374.55
388.209	417.96
388.585	402.64
388.961	285.18
389.337	379.66
389.713	374.55
390.088	366.89
390.464	323.48
390.839	356.67
391.215	423.06
391.59	369.44
391.966	341.35
392.341	374.55
392.716	351.57
393.092	338.8
393.467	382.21
393.842	410.3
394.217	394.98
394.592	405.19
394.967	336.25
395.342	338.8
395.717	346.46
396.092	328.59
396.467	435.83
396.841	382.21
397.216	407.74
397.591	361.78
397.965	402.64
398.34	292.84
398.714	318.37
399.089	417.96
399.463	328.59
399.838	389.87
400.212	359.23
400.586	372
400.961	377.1
401.335	417.96
401.709	392.42
402.083	326.03
402.457	369.44
402.831	392.42
403.205	382.21
403.579	369.44
403.953	366.89
404.326	443.49
404.7	420.51
405.074	389.87
405.447	412.85
405.821	402.64
406.195	394.98
406.568	397.53
406.942	469.02
407.315	430.72
407.688	389.87
408.062	374.55
408.435	382.21
408.808	397.53
409.181	402.64
409.554	372
409.927	354.12
410.3	435.83
410.673	392.42
411.046	374.55
411.419	400.08
411.792	384.76
412.165	451.15
412.537	384.76
412.91	374.55
413.283	402.64
413.655	343.91
414.028	336.25
414.4	349.01
414.773	420.51
415.145	379.66
415.517	369.44
415.889	361.78
416.262	336.25
416.634	387.32
417.006	433.28
417.378	423.06
417.75	394.98
418.122	448.6
418.494	453.7
418.866	374.55
419.238	313.27
419.609	297.95
419.981	423.06
420.353	379.66
420.725	410.3
421.096	405.19
421.468	397.53
421.839	394.98
422.211	315.82
422.582	417.96
422.953	410.3
423.325	351.57
423.696	394.98
424.067	377.1
424.438	402.64
424.809	412.85
425.18	333.69
425.551	379.66
425.922	407.74
426.293	410.3
426.664	405.19
427.035	446.04
427.406	377.1
427.776	438.38
428.147	361.78
428.518	379.66
428.888	394.98
429.259	443.49
429.629	382.21
429.999	410.3
430.37	428.17
430.74	333.69
431.11	400.08
431.481	420.51
431.851	377.1
432.221	382.21
432.591	446.04
432.961	402.64
433.331	366.89
433.701	417.96
434.071	430.72
434.441	308.16
434.81	430.72
435.18	448.6
435.55	402.64
435.919	397.53
436.289	382.21
436.658	443.49
437.028	448.6
437.397	425.62
437.767	397.53
438.136	400.08
438.505	308.16
438.875	361.78
439.244	435.83
439.613	402.64
439.982	458.81
440.351	387.32
440.72	410.3
441.089	338.8
441.458	420.51
441.827	366.89
442.196	387.32
442.564	494.56
442.933	453.7
443.302	433.28
443.67	336.25
444.039	351.57
444.407	359.23
444.776	384.76
445.144	374.55
445.513	484.34
445.881	410.3
446.249	392.42
446.617	502.22
446.986	451.15
447.354	461.36
447.722	417.96
448.09	440.94
448.458	417.96
448.826	469.02
449.194	392.42
449.561	361.78
449.929	351.57
450.297	443.49
450.665	346.46
451.032	349.01
451.4	389.87
451.767	328.59
452.135	435.83
452.502	469.02
452.87	315.82
453.237	382.21
453.604	428.17
453.971	430.72
454.339	423.06
454.706	417.96
455.073	415.4
455.44	469.02
455.807	392.42
456.174	394.98
456.541	372
456.908	384.76
457.274	469.02
457.641	400.08
458.008	349.01
458.374	394.98
458.741	461.36
459.108	428.17
459.474	448.6
459.841	392.42
460.207	400.08
460.573	402.64
460.94	392.42
461.306	392.42
461.672	374.55
462.038	453.7
462.404	446.04
462.771	435.83
463.137	400.08
463.503	379.66
463.868	410.3
464.234	425.62
464.6	471.58
464.966	463.92
465.332	397.53
465.697	366.89
466.063	389.87
466.429	397.53
466.794	364.34
467.16	412.85
467.525	407.74
467.89	387.32
468.256	341.35
468.621	440.94
468.986	497.11
469.351	407.74
469.717	372
470.082	333.69
470.447	402.64
470.812	354.12
471.177	469.02
471.542	430.72
471.906	379.66
472.271	338.8
472.636	415.4
473.001	407.74
473.365	417.96
473.73	433.28
474.094	438.38
474.459	364.34
474.823	438.38
475.188	407.74
475.552	384.76
475.917	428.17
476.281	374.55
476.645	392.42
477.009	417.96
477.373	349.01
477.737	397.53
478.101	354.12
478.465	400.08
478.829	392.42
479.193	356.67
479.557	397.53
479.921	420.51
480.284	453.7
480.648	359.23
481.012	443.49
481.375	484.34
481.739	351.57
482.102	394.98
482.466	346.46
482.829	461.36
483.193	354.12
483.556	384.76
483.919	384.76
484.282	366.89
484.645	423.06
485.009	415.4
485.372	410.3
485.735	389.87
486.098	417.96
486.46	405.19
486.823	389.87
487.186	377.1
487.549	382.21
487.912	366.89
488.274	420.51
488.637	453.7
488.999	479.24
489.362	486.9
489.724	458.81
490.087	412.85
490.449	400.08
490.811	356.67
491.174	384.76
491.536	438.38
491.898	400.08
492.26	387.32
492.622	402.64
492.984	394.98
493.346	392.42
493.708	377.1
494.07	428.17
494.432	349.01
494.794	446.04
495.155	425.62
495.517	423.06
495.879	443.49
496.24	382.21
496.602	425.62
496.963	405.19
497.325	420.51
497.686	410.3
498.048	410.3
498.409	369.44
498.77	354.12
499.131	412.85
499.492	372
499.854	412.85
500.215	377.1
500.576	379.66
500.937	430.72
501.298	400.08
501.658	420.51
502.019	417.96
502.38	346.46
502.741	356.67
503.101	417.96
503.462	336.25
503.823	423.06
504.183	382.21
504.543	453.7
504.904	412.85
505.264	448.6
505.625	481.79
505.985	338.8
506.345	405.19
506.705	430.72
507.065	438.38
507.426	469.02
507.786	402.64
508.146	420.51
508.505	407.74
508.865	438.38
509.225	412.85
509.585	425.62
509.945	361.78
510.304	382.21
510.664	443.49
511.024	446.04
511.383	466.47
511.743	420.51
512.102	440.94
512.462	400.08
512.821	415.4
513.18	451.15
513.539	417.96
513.899	366.89
514.258	417.96
514.617	374.55
514.976	433.28
515.335	407.74
515.694	417.96
516.053	443.49
516.412	415.4
516.771	420.51
517.129	346.46
517.488	438.38
517.847	359.23
518.205	364.34
518.564	433.28
518.922	453.7
519.281	474.13
519.639	479.24
519.998	420.51
520.356	410.3
520.714	471.58
521.073	456.26
521.431	433.28
521.789	438.38
522.147	433.28
522.505	377.1
522.863	440.94
523.221	364.34
523.579	397.53
523.937	394.98
524.295	366.89
524.652	463.92
525.01	389.87
525.368	407.74
525.725	394.98
526.083	397.53
526.44	410.3
526.798	397.53
527.155	382.21
527.513	430.72
527.87	438.38
528.227	458.81
528.584	423.06
528.942	410.3
529.299	448.6
529.656	372
530.013	443.49
530.37	379.66
530.727	382.21
531.083	443.49
531.44	537.96
531.797	440.94
532.154	407.74
532.511	400.08
532.867	400.08
533.224	394.98
533.58	382.21
533.937	412.85
534.293	402.64
534.65	417.96
535.006	379.66
535.362	384.76
535.718	405.19
536.075	369.44
536.431	417.96
536.787	392.42
537.143	415.4
537.499	343.91
537.855	336.25
538.211	392.42
538.567	466.47
538.923	446.04
539.278	420.51
539.634	469.02
539.99	410.3
540.345	410.3
540.701	394.98
541.056	356.67
541.412	397.53
541.767	407.74
542.123	392.42
542.478	369.44
542.833	387.32
543.188	382.21
543.544	377.1
543.899	425.62
544.254	377.1
544.609	320.93
544.964	420.51
545.319	387.32
545.674	369.44
546.029	382.21
546.383	425.62
546.738	397.53
547.093	387.32
547.447	428.17
547.802	420.51
548.157	374.55
548.511	346.46
548.866	453.7
549.22	412.85
549.574	377.1
549.929	359.23
550.283	372
550.637	456.26
550.991	394.98
551.345	453.7
551.699	428.17
552.053	512.43
552.407	369.44
552.761	349.01
553.115	456.26
553.469	397.53
553.823	417.96
554.176	479.24
554.53	402.64
554.884	379.66
555.237	632.44
555.591	382.21
555.944	469.02
556.298	394.98
556.651	387.32
557.005	402.64
557.358	364.34
557.711	407.74
558.064	405.19
558.417	428.17
558.771	502.22
559.124	456.26
559.477	417.96
559.83	379.66
560.182	377.1
560.535	463.92
560.888	440.94
561.241	453.7
561.594	412.85
561.946	417.96
562.299	400.08
562.651	412.85
563.004	354.12
563.356	415.4
563.709	412.85
564.061	448.6
564.413	359.23
564.766	440.94
565.118	394.98
565.47	364.34
565.822	402.64
566.174	397.53
566.526	392.42
566.878	364.34
567.23	415.4
567.582	405.19
567.934	366.89
568.286	400.08
568.638	394.98
568.989	369.44
569.341	384.76
569.693	443.49
570.044	397.53
570.396	425.62
570.747	469.02
571.098	420.51
571.45	425.62
571.801	428.17
572.152	430.72
572.504	387.32
572.855	428.17
573.206	369.44
573.557	428.17
573.908	356.67
574.259	453.7
574.61	361.78
574.961	407.74
575.311	423.06
575.662	387.32
576.013	430.72
576.364	425.62
576.714	351.57
577.065	379.66
577.415	372
577.766	392.42
578.116	425.62
578.467	400.08
578.817	402.64
579.167	384.76
579.518	435.83
579.868	466.47
580.218	469.02
580.568	394.98
580.918	435.83
581.268	415.4
581.618	405.19
581.968	366.89
582.318	379.66
582.668	425.62
583.017	374.55
583.367	440.94
583.717	433.28
584.066	392.42
584.416	369.44
584.765	446.04
585.115	423.06
585.464	446.04
585.814	420.51
586.163	397.53
586.512	486.9
586.862	466.47
587.211	471.58
587.56	484.34
587.909	458.81
588.258	456.26
588.607	466.47
588.956	428.17
589.305	384.76
589.654	377.1
590.002	420.51
590.351	364.34
590.7	397.53
591.048	333.69
591.397	443.49
591.746	351.57
592.094	415.4
592.443	402.64
592.791	394.98
593.139	410.3
593.488	400.08
593.836	349.01
594.184	364.34
594.532	379.66
594.88	372
595.228	423.06
595.576	407.74
595.924	379.66
596.272	392.42
596.62	435.83
596.968	446.04
597.316	417.96
597.664	382.21
598.011	394.98
598.359	333.69
598.706	410.3
599.054	392.42
599.402	420.51
599.749	425.62
600.096	425.62
600.444	453.7
600.791	430.72
601.138	489.45
601.485	430.72
601.833	379.66
602.18	394.98
602.527	366.89
602.874	382.21
603.221	423.06
603.568	377.1
603.914	384.76
604.261	387.32
604.608	389.87
604.955	440.94
605.301	402.64
605.648	405.19
605.995	417.96
606.341	387.32
606.688	412.85
607.034	481.79
607.38	389.87
607.727	392.42
608.073	417.96
608.419	440.94
608.765	366.89
609.112	469.02
609.458	415.4
609.804	397.53
610.15	382.21
610.496	438.38
610.842	484.34
611.187	394.98
611.533	351.57
611.879	481.79
612.225	310.71
612.57	369.44
612.916	440.94
613.261	420.51
613.607	361.78
613.952	440.94
614.298	402.64
614.643	433.28
614.989	402.64
615.334	425.62
615.679	402.64
616.024	384.76
616.369	369.44
616.714	517.54
617.059	389.87
617.404	415.4
617.749	389.87
618.094	336.25
618.439	389.87
618.784	433.28
619.129	359.23
619.473	387.32
619.818	372
620.163	438.38
620.507	374.55
620.852	397.53
621.196	356.67
621.54	425.62
621.885	428.17
622.229	405.19
622.573	438.38
622.918	494.56
623.262	425.62
623.606	402.64
623.95	430.72
624.294	402.64
624.638	420.51
624.982	400.08
625.326	471.58
625.67	382.21
626.013	400.08
626.357	438.38
626.701	372
627.044	402.64
627.388	374.55
627.731	402.64
628.075	428.17
628.418	420.51
628.762	415.4
629.105	384.76
629.448	415.4
629.792	366.89
630.135	407.74
630.478	420.51
630.821	405.19
631.164	338.8
631.507	387.32
631.85	463.92
632.193	428.17
632.536	394.98
632.879	397.53
633.221	458.81
633.564	425.62
633.907	412.85
634.249	384.76
634.592	448.6
634.935	356.67
635.277	354.12
635.619	471.58
635.962	400.08
636.304	412.85
636.646	438.38
636.989	440.94
637.331	499.66
637.673	366.89
638.015	338.8
638.357	428.17
638.699	361.78
639.041	443.49
639.383	443.49
639.725	402.64
640.067	366.89
640.408	481.79
640.75	374.55
641.092	343.91
641.433	410.3
641.775	438.38
642.116	428.17
642.458	379.66
642.799	333.69
643.141	382.21
643.482	402.64
643.823	402.64
644.164	474.13
644.506	507.32
644.847	451.15
645.188	415.4
645.529	446.04
645.87	384.76
646.211	379.66
646.552	448.6
646.893	430.72
647.233	425.62
647.574	369.44
647.915	387.32
648.255	351.57
648.596	336.25
648.937	384.76
649.277	417.96
649.618	346.46
649.958	364.34
650.298	346.46
650.639	389.87
650.979	387.32
651.319	453.7
651.659	425.62
651.999	443.49
652.339	407.74
652.679	372
653.019	364.34
653.359	420.51
653.699	369.44
654.039	366.89
654.379	369.44
654.719	420.51
655.058	361.78
655.398	433.28
655.737	474.13
656.077	423.06
656.416	428.17
656.756	430.72
657.095	374.55
657.435	354.12
657.774	415.4
658.113	402.64
658.452	356.67
658.792	430.72
659.131	461.36
659.47	451.15
659.809	430.72
660.148	331.14
660.487	392.42
660.826	382.21
661.164	356.67
661.503	377.1
661.842	354.12
662.181	446.04
662.519	430.72
662.858	387.32
663.196	417.96
663.535	374.55
663.873	440.94
664.212	469.02
664.55	423.06
664.888	377.1
665.226	359.23
665.565	423.06
665.903	560.95
666.241	410.3
666.579	387.32
666.917	412.85
667.255	405.19
667.593	356.67
667.931	458.81
668.268	387.32
668.606	430.72
668.944	359.23
669.282	392.42
669.619	438.38
669.957	402.64
670.294	438.38
670.632	397.53
670.969	379.66
671.307	361.78
671.644	435.83
671.981	453.7
672.318	443.49
672.656	412.85
672.993	425.62
673.33	323.48
673.667	374.55
674.004	430.72
674.341	410.3
674.678	410.3
675.015	374.55
675.351	349.01
675.688	397.53
676.025	423.06
676.362	392.42
676.698	440.94
677.035	392.42
677.371	428.17
677.708	471.58
678.044	405.19
678.38	458.81
678.717	359.23
679.053	438.38
679.389	407.74
679.725	394.98
680.062	433.28
680.398	412.85
680.734	412.85
681.07	453.7
681.406	430.72
681.742	430.72
682.077	410.3
682.413	420.51
682.749	405.19
683.085	392.42
683.42	341.35
683.756	326.03
684.091	402.64
684.427	394.98
684.762	400.08
685.098	405.19
685.433	402.64
685.768	384.76
686.104	343.91
686.439	417.96
686.774	456.26
687.109	369.44
687.444	410.3
687.779	430.72
688.114	402.64
688.449	405.19
688.784	377.1
689.119	315.82
689.454	407.74
689.789	405.19
690.123	430.72
690.458	336.25
690.792	428.17
691.127	397.53
691.461	354.12
691.796	351.57
692.13	402.64
692.465	372
692.799	382.21
693.133	379.66
693.467	374.55
693.802	349.01
694.136	384.76
694.47	471.58
694.804	372
695.138	400.08
695.472	326.03
695.806	410.3
696.139	331.14
696.473	369.44
696.807	438.38
697.141	458.81
697.474	392.42
697.808	374.55
698.141	387.32
698.475	402.64
698.808	387.32
699.142	410.3
699.475	430.72
699.808	412.85
700.142	364.34
700.475	417.96
700.808	372
701.141	356.67
701.474	297.95
701.807	328.59
702.14	356.67
702.473	359.23
702.806	361.78
703.139	366.89
703.472	438.38
703.804	392.42
704.137	433.28
704.47	481.79
704.802	397.53
705.135	387.32
705.467	415.4
705.8	435.83
706.132	377.1
706.464	423.06
706.797	387.32
707.129	369.44
707.461	359.23
707.793	402.64
708.125	394.98
708.457	417.96
708.789	433.28
709.121	285.18
709.453	415.4
709.785	415.4
710.117	336.25
710.449	466.47
710.781	433.28
711.112	405.19
711.444	369.44
711.775	341.35
712.107	430.72
712.438	379.66
712.77	338.8
713.101	387.32
713.433	354.12
713.764	402.64
714.095	458.81
714.426	433.28
714.757	469.02
715.089	420.51
715.42	400.08
715.751	402.64
716.082	446.04
716.412	366.89
716.743	336.25
717.074	361.78
717.405	384.76
717.736	415.4
718.066	423.06
718.397	366.89
718.727	328.59
719.058	466.47
719.388	420.51
719.719	405.19
720.049	407.74
720.38	341.35
720.71	379.66
721.04	428.17
721.37	364.34
721.7	392.42
722.031	379.66
722.361	443.49
722.691	417.96
723.021	379.66
723.35	400.08
723.68	402.64
724.01	410.3
724.34	382.21
724.67	428.17
724.999	387.32
725.329	405.19
725.658	366.89
725.988	461.36
726.317	443.49
726.647	402.64
726.976	410.3
727.306	417.96
727.635	397.53
727.964	400.08
728.293	364.34
728.622	351.57
728.952	407.74
729.281	392.42
729.61	372
729.939	328.59
730.267	415.4
730.596	397.53
730.925	400.08
731.254	405.19
731.583	387.32
731.911	410.3
732.24	392.42
732.568	392.42
732.897	476.68
733.225	433.28
733.554	402.64
733.882	451.15
734.21	394.98
734.539	379.66
734.867	440.94
735.195	384.76
735.523	417.96
735.851	359.23
736.179	341.35
736.507	443.49
736.835	374.55
737.163	443.49
737.491	412.85
737.819	461.36
738.147	405.19
738.474	446.04
738.802	374.55
739.13	384.76
739.457	463.92
739.785	379.66
740.112	440.94
740.44	394.98
740.767	394.98
741.094	369.44
741.422	372
741.749	417.96
742.076	343.91
742.403	333.69
742.73	423.06
743.057	435.83
743.384	372
743.711	410.3
744.038	369.44
744.365	394.98
744.692	394.98
745.018	349.01
745.345	463.92
745.672	351.57
745.998	389.87
746.325	486.9
746.651	433.28
746.978	451.15
747.304	369.44
747.631	402.64
747.957	389.87
748.283	374.55
748.61	392.42
748.936	438.38
749.262	379.66
749.588	463.92
749.914	349.01
750.24	415.4
750.566	372
750.892	407.74
751.218	410.3
751.543	392.42
751.869	420.51
752.195	354.12
752.521	372
752.846	331.14
753.172	415.4
753.497	320.93
753.823	384.76
754.148	354.12
754.473	379.66
754.799	354.12
755.124	435.83
755.449	410.3
755.774	364.34
756.1	372
756.425	369.44
756.75	394.98
757.075	433.28
757.4	553.29
757.724	425.62
758.049	372
758.374	349.01
758.699	405.19
759.024	443.49
759.348	410.3
759.673	476.68
759.997	366.89
760.322	354.12
760.646	486.9
760.971	443.49
761.295	374.55
761.619	428.17
761.944	354.12
762.268	456.26
762.592	507.32
762.916	456.26
763.24	474.13
763.564	537.96
763.888	486.9
764.212	497.11
764.536	568.61
764.86	599.25
765.184	527.75
765.508	578.82
765.831	670.74
766.155	997.57
766.478	823.94
766.802	823.94
767.126	869.9
767.449	910.76
767.772	905.65
768.096	880.12
768.419	966.93
768.742	1040.98
769.066	984.81
769.389	956.72
769.712	1071.62
770.035	1344.83
770.358	1291.21
770.681	1242.7
771.004	1589.96
771.327	1669.11
771.65	1549.1
771.972	1395.9
772.295	1457.18
772.618	1661.45
772.941	1814.65
773.263	1732.95
773.586	1702.31
773.908	1937.22
774.231	2034.24
774.553	1870.83
774.875	1743.16
775.198	1845.29
775.52	2115.95
775.842	2031.69
776.164	1633.36
776.487	1661.45
776.809	1937.22
777.131	2128.72
777.453	2047.01
777.775	2256.39
778.096	2662.38
778.418	2601.09
778.74	2539.81
779.062	2631.73
779.384	3272.63
779.705	3755.22
780.027	3244.55
780.348	2641.95
780.67	2825.79
780.991	3050.49
781.313	2892.18
781.634	2994.31
781.955	3571.38
782.277	4199.51
782.598	4041.2
782.919	3359.45
783.24	3247.1
783.561	3944.17
783.882	4350.16
784.203	3974.81
784.524	3405.41
784.845	3625
785.166	4222.49
785.487	3732.24
785.807	3267.53
786.128	3459.03
786.449	4232.7
786.769	4562.09
787.09	3949.28
787.41	3313.49
787.731	3571.38
788.051	4490.59
788.372	4516.13
788.692	3821.61
789.012	3510.1
789.332	4051.41
789.653	4720.4
789.973	4738.27
790.293	4436.97
790.613	4894.03
790.933	5440.45
791.253	4825.09
791.573	4156.1
791.893	3979.92
792.212	4401.23
792.532	4756.15
792.852	3918.64
793.171	3527.97
793.491	4357.82
793.811	5351.08
794.13	4643.8
794.45	3775.65
794.769	3479.46
795.088	4337.39
795.408	4625.92
795.727	3954.38
796.046	3745.01
796.365	5139.15
796.684	6134.97
797.004	5463.43
797.323	4304.2
797.642	4265.9
797.96	4860.83
798.279	5113.62
798.598	4008.01
798.917	3070.92
799.236	3290.51
799.554	3951.83
799.873	3908.42
800.192	3525.42
800.51	3040.28
800.829	3226.67
801.147	3936.51
801.466	4041.2
801.784	3573.93
