Data from 2025-12-03_xpw_interference_FLMS141361__2__14-31-09-481.txt Node

Date: Wed Dec 03 14:31:09 MST 2025
User: james
Spectrometer: FLMS14136
Trigger mode: 0
Integration Time (sec): 1.000000E-1
Scans to average: 1
Electric dark correction enabled: true
Nonlinearity correction enabled: false
Boxcar width: 0
XAxis mode: Wavelengths
Number of Pixels in Spectrum: 2048
>>>>>Begin Spectral Data<<<<<
339.315	-67.82
339.697	-67.82
340.079	-67.82
340.461	-108.68
340.843	-108.68
341.225	-80.59
341.607	-118.89
341.989	-106.12
342.371	-49.95
342.752	-65.27
343.134	-57.61
343.516	-75.48
343.897	-3.99
344.279	-6.54
344.661	1.12
345.042	62.4
345.423	108.36
345.805	118.57
346.186	62.4
346.567	85.38
346.949	126.23
347.33	236.03
347.711	139
348.092	187.51
348.473	174.75
348.854	220.71
349.235	233.47
349.616	236.03
349.997	281.99
350.378	299.86
350.758	312.63
351.139	350.93
351.52	279.44
351.9	287.1
352.281	333.06
352.661	363.7
353.042	379.02
353.422	327.95
353.803	402
354.183	409.66
354.563	394.34
354.943	391.78
355.324	391.78
355.704	373.91
356.084	350.93
356.464	465.83
356.844	394.34
357.224	373.91
357.603	327.95
357.983	414.76
358.363	343.27
358.743	470.94
359.122	409.66
359.502	350.93
359.882	373.91
360.261	379.02
360.641	422.42
361.02	371.36
361.399	404.55
361.779	358.59
362.158	442.85
362.537	394.34
362.916	368.8
363.296	333.06
363.675	386.68
364.054	373.91
364.433	373.91
364.812	340.72
365.19	343.27
365.569	279.44
365.948	348.38
366.327	404.55
366.705	414.76
367.084	363.7
367.463	368.8
367.841	350.93
368.22	358.59
368.598	322.84
368.977	312.63
369.355	371.36
369.733	297.31
370.111	315.18
370.49	363.7
370.868	322.84
371.246	363.7
371.624	381.57
372.002	386.68
372.38	389.23
372.758	322.84
373.136	368.8
373.513	353.48
373.891	371.36
374.269	345.82
374.646	384.12
375.024	371.36
375.402	399.44
375.779	440.3
376.157	330.5
376.534	399.44
376.911	389.23
377.289	299.86
377.666	417.32
378.043	317.74
378.42	335.61
378.797	350.93
379.175	389.23
379.552	315.18
379.929	350.93
380.305	345.82
380.682	379.02
381.059	391.78
381.436	320.29
381.813	379.02
382.189	412.21
382.566	350.93
382.943	414.76
383.319	353.48
383.696	340.72
384.072	348.38
384.448	424.98
384.825	363.7
385.201	363.7
385.577	343.27
385.953	402
386.329	343.27
386.706	409.66
387.082	399.44
387.458	384.12
387.834	435.19
388.209	363.7
388.585	330.5
388.961	391.78
389.337	414.76
389.713	379.02
390.088	353.48
390.464	353.48
390.839	343.27
391.215	419.87
391.59	361.14
391.966	414.76
392.341	389.23
392.716	404.55
393.092	320.29
393.467	379.02
393.842	312.63
394.217	402
394.592	394.34
394.967	379.02
395.342	376.46
395.717	404.55
396.092	379.02
396.467	399.44
396.841	350.93
397.216	371.36
397.591	404.55
397.965	396.89
398.34	422.42
398.714	373.91
399.089	399.44
399.463	307.52
399.838	330.5
400.212	394.34
400.586	384.12
400.961	453.07
401.335	412.21
401.709	424.98
402.083	394.34
402.457	394.34
402.831	409.66
403.205	368.8
403.579	368.8
403.953	373.91
404.326	506.69
404.7	422.42
405.074	371.36
405.447	356.04
405.821	368.8
406.195	389.23
406.568	404.55
406.942	373.91
407.315	432.64
407.688	396.89
408.062	381.57
408.435	379.02
408.808	389.23
409.181	465.83
409.554	391.78
409.927	394.34
410.3	381.57
410.673	402
411.046	409.66
411.419	419.87
411.792	389.23
412.165	399.44
412.537	368.8
412.91	376.46
413.283	412.21
413.655	396.89
414.028	345.82
414.4	437.74
414.773	427.53
415.145	399.44
415.517	437.74
415.889	437.74
416.262	350.93
416.634	396.89
417.006	402
417.378	381.57
417.75	386.68
418.122	399.44
418.494	381.57
418.866	414.76
419.238	460.73
419.609	396.89
419.981	407.1
420.353	486.26
420.725	476.05
421.096	402
421.468	345.82
421.839	412.21
422.211	384.12
422.582	379.02
422.953	384.12
423.325	330.5
423.696	404.55
424.067	404.55
424.438	376.46
424.809	424.98
425.18	399.44
425.551	322.84
425.922	465.83
426.293	417.32
426.664	404.55
427.035	386.68
427.406	394.34
427.776	430.08
428.147	366.25
428.518	389.23
428.888	356.04
429.259	379.02
429.629	417.32
429.999	463.28
430.37	391.78
430.74	381.57
431.11	330.5
431.481	371.36
431.851	430.08
432.221	394.34
432.591	399.44
432.961	424.98
433.331	440.3
433.701	386.68
434.071	424.98
434.441	483.71
434.81	414.76
435.18	427.53
435.55	396.89
435.919	368.8
436.289	384.12
436.658	389.23
437.028	371.36
437.397	371.36
437.767	412.21
438.136	399.44
438.505	417.32
438.875	419.87
439.244	394.34
439.613	445.4
439.982	386.68
440.351	442.85
440.72	335.61
441.089	368.8
441.458	389.23
441.827	402
442.196	353.48
442.564	396.89
442.933	417.32
443.302	335.61
443.67	379.02
444.039	389.23
444.407	427.53
444.776	391.78
445.144	407.1
445.513	432.64
445.881	427.53
446.249	407.1
446.617	409.66
446.986	427.53
447.354	440.3
447.722	437.74
448.09	361.14
448.458	402
448.826	488.81
449.194	412.21
449.561	447.96
449.929	430.08
450.297	430.08
450.665	361.14
451.032	460.73
451.4	447.96
451.767	453.07
452.135	412.21
452.502	445.4
452.87	427.53
453.237	422.42
453.604	399.44
453.971	399.44
454.339	404.55
454.706	345.82
455.073	384.12
455.44	371.36
455.807	381.57
456.174	379.02
456.541	407.1
456.908	414.76
457.274	414.76
457.641	409.66
458.008	391.78
458.374	407.1
458.741	409.66
459.108	435.19
459.474	422.42
459.841	414.76
460.207	396.89
460.573	407.1
460.94	399.44
461.306	424.98
461.672	409.66
462.038	453.07
462.404	422.42
462.771	391.78
463.137	389.23
463.503	422.42
463.868	379.02
464.234	379.02
464.6	399.44
464.966	432.64
465.332	419.87
465.697	432.64
466.063	381.57
466.429	437.74
466.794	414.76
467.16	442.85
467.525	430.08
467.89	430.08
468.256	437.74
468.621	470.94
468.986	430.08
469.351	396.89
469.717	442.85
470.082	396.89
470.447	361.14
470.812	396.89
471.177	407.1
471.542	435.19
471.906	386.68
472.271	424.98
472.636	407.1
473.001	356.04
473.365	373.91
473.73	417.32
474.094	414.76
474.459	361.14
474.823	371.36
475.188	445.4
475.552	483.71
475.917	368.8
476.281	440.3
476.645	455.62
477.009	373.91
477.373	465.83
477.737	478.6
478.101	442.85
478.465	450.51
478.829	409.66
479.193	363.7
479.557	422.42
479.921	455.62
480.284	437.74
480.648	468.39
481.012	394.34
481.375	404.55
481.739	435.19
482.102	427.53
482.466	432.64
482.829	440.3
483.193	455.62
483.556	353.48
483.919	376.46
484.282	368.8
484.645	412.21
485.009	389.23
485.372	358.59
485.735	407.1
486.098	412.21
486.46	368.8
486.823	412.21
487.186	412.21
487.549	407.1
487.912	481.15
488.274	356.04
488.637	440.3
488.999	394.34
489.362	417.32
489.724	427.53
490.087	396.89
490.449	381.57
490.811	379.02
491.174	345.82
491.536	361.14
491.898	361.14
492.26	358.59
492.622	330.5
492.984	412.21
493.346	384.12
493.708	440.3
494.07	396.89
494.432	384.12
494.794	409.66
495.155	455.62
495.517	422.42
495.879	396.89
496.24	379.02
496.602	432.64
496.963	450.51
497.325	384.12
497.686	412.21
498.048	437.74
498.409	419.87
498.77	412.21
499.131	414.76
499.492	414.76
499.854	437.74
500.215	432.64
500.576	373.91
500.937	414.76
501.298	419.87
501.658	437.74
502.019	460.73
502.38	404.55
502.741	414.76
503.101	447.96
503.462	463.28
503.823	432.64
504.183	409.66
504.543	404.55
504.904	432.64
505.264	419.87
505.625	424.98
505.985	412.21
506.345	368.8
506.705	455.62
507.065	407.1
507.426	399.44
507.786	399.44
508.146	473.49
508.505	384.12
508.865	437.74
509.225	396.89
509.585	447.96
509.945	450.51
510.304	450.51
510.664	488.81
511.024	402
511.383	402
511.743	402
512.102	422.42
512.462	442.85
512.821	424.98
513.18	394.34
513.539	363.7
513.899	445.4
514.258	424.98
514.617	384.12
514.976	440.3
515.335	404.55
515.694	399.44
516.053	419.87
516.412	440.3
516.771	422.42
517.129	440.3
517.488	396.89
517.847	350.93
518.205	402
518.564	384.12
518.922	386.68
519.281	458.17
519.639	491.37
519.998	465.83
520.356	445.4
520.714	453.07
521.073	453.07
521.431	412.21
521.789	373.91
522.147	363.7
522.505	435.19
522.863	450.51
523.221	384.12
523.579	419.87
523.937	404.55
524.295	450.51
524.652	437.74
525.01	424.98
525.368	422.42
525.725	424.98
526.083	417.32
526.44	407.1
526.798	419.87
527.155	419.87
527.513	491.37
527.87	437.74
528.227	376.46
528.584	417.32
528.942	463.28
529.299	473.49
529.656	350.93
530.013	432.64
530.37	371.36
530.727	460.73
531.083	414.76
531.44	368.8
531.797	470.94
532.154	419.87
532.511	473.49
532.867	424.98
533.224	407.1
533.58	478.6
533.937	396.89
534.293	399.44
534.65	409.66
535.006	514.35
535.362	432.64
535.718	412.21
536.075	371.36
536.431	381.57
536.787	481.15
537.143	419.87
537.499	409.66
537.855	445.4
538.211	445.4
538.567	447.96
538.923	442.85
539.278	407.1
539.634	414.76
539.99	419.87
540.345	499.03
540.701	419.87
541.056	422.42
541.412	430.08
541.767	356.04
542.123	442.85
542.478	453.07
542.833	389.23
543.188	407.1
543.544	417.32
543.899	424.98
544.254	424.98
544.609	437.74
544.964	366.25
545.319	499.03
545.674	419.87
546.029	440.3
546.383	391.78
546.738	432.64
547.093	407.1
547.447	396.89
547.802	458.17
548.157	435.19
548.511	440.3
548.866	396.89
549.22	412.21
549.574	381.57
549.929	404.55
550.283	366.25
550.637	432.64
550.991	430.08
551.345	430.08
551.699	440.3
552.053	427.53
552.407	455.62
552.761	447.96
553.115	376.46
553.469	453.07
553.823	402
554.176	389.23
554.53	345.82
554.884	391.78
555.237	542.43
555.591	419.87
555.944	437.74
556.298	412.21
556.651	435.19
557.005	371.36
557.358	427.53
557.711	509.24
558.064	430.08
558.417	394.34
558.771	491.37
559.124	371.36
559.477	447.96
559.83	340.72
560.182	399.44
560.535	514.35
560.888	414.76
561.241	442.85
561.594	450.51
561.946	381.57
562.299	389.23
562.651	414.76
563.004	384.12
563.356	371.36
563.709	399.44
564.061	396.89
564.413	348.38
564.766	430.08
565.118	450.51
565.47	396.89
565.822	437.74
566.174	396.89
566.526	391.78
566.878	386.68
567.23	427.53
567.582	407.1
567.934	386.68
568.286	430.08
568.638	361.14
568.989	407.1
569.341	417.32
569.693	381.57
570.044	396.89
570.396	409.66
570.747	391.78
571.098	376.46
571.45	419.87
571.801	396.89
572.152	407.1
572.504	414.76
572.855	412.21
573.206	432.64
573.557	412.21
573.908	422.42
574.259	327.95
574.61	424.98
574.961	424.98
575.311	430.08
575.662	476.05
576.013	402
576.364	440.3
576.714	445.4
577.065	402
577.415	404.55
577.766	384.12
578.116	453.07
578.467	373.91
578.817	424.98
579.167	414.76
579.518	419.87
579.868	353.48
580.218	399.44
580.568	399.44
580.918	379.02
581.268	391.78
581.618	455.62
581.968	407.1
582.318	412.21
582.668	422.42
583.017	424.98
583.367	414.76
583.717	381.57
584.066	414.76
584.416	455.62
584.765	424.98
585.115	450.51
585.464	424.98
585.814	384.12
586.163	363.7
586.512	435.19
586.862	391.78
587.211	379.02
587.56	343.27
587.909	430.08
588.258	465.83
588.607	409.66
588.956	407.1
589.305	368.8
589.654	381.57
590.002	363.7
590.351	340.72
590.7	386.68
591.048	402
591.397	353.48
591.746	394.34
592.094	435.19
592.443	371.36
592.791	389.23
593.139	414.76
593.488	414.76
593.836	379.02
594.184	384.12
594.532	463.28
594.88	470.94
595.228	424.98
595.576	345.82
595.924	409.66
596.272	419.87
596.62	391.78
596.968	389.23
597.316	417.32
597.664	396.89
598.011	356.04
598.359	430.08
598.706	432.64
599.054	402
599.402	417.32
599.749	381.57
600.096	402
600.444	368.8
600.791	373.91
601.138	402
601.485	343.27
601.833	414.76
602.18	381.57
602.527	445.4
602.874	435.19
603.221	399.44
603.568	373.91
603.914	409.66
604.261	430.08
604.608	445.4
604.955	473.49
605.301	501.58
605.648	422.42
605.995	422.42
606.341	430.08
606.688	419.87
607.034	402
607.38	404.55
607.727	373.91
608.073	330.5
608.419	381.57
608.765	455.62
609.112	368.8
609.458	404.55
609.804	404.55
610.15	394.34
610.496	414.76
610.842	468.39
611.187	465.83
611.533	368.8
611.879	404.55
612.225	353.48
612.57	366.25
612.916	435.19
613.261	432.64
613.607	465.83
613.952	404.55
614.298	407.1
614.643	414.76
614.989	409.66
615.334	368.8
615.679	394.34
616.024	453.07
616.369	486.26
616.714	437.74
617.059	463.28
617.404	384.12
617.749	470.94
618.094	404.55
618.439	417.32
618.784	384.12
619.129	368.8
619.473	458.17
619.818	404.55
620.163	422.42
620.507	435.19
620.852	442.85
621.196	488.81
621.54	424.98
621.885	368.8
622.229	424.98
622.573	409.66
622.918	402
623.262	394.34
623.606	417.32
623.95	409.66
624.294	376.46
624.638	424.98
624.982	424.98
625.326	391.78
625.67	402
626.013	417.32
626.357	430.08
626.701	409.66
627.044	465.83
627.388	516.9
627.731	478.6
628.075	376.46
628.418	381.57
628.762	358.59
629.105	353.48
629.448	376.46
629.792	396.89
630.135	368.8
630.478	386.68
630.821	373.91
631.164	412.21
631.507	499.03
631.85	437.74
632.193	437.74
632.536	389.23
632.879	389.23
633.221	371.36
633.564	427.53
633.907	366.25
634.249	468.39
634.592	417.32
634.935	368.8
635.277	442.85
635.619	386.68
635.962	422.42
636.304	371.36
636.646	396.89
636.989	430.08
637.331	412.21
637.673	440.3
638.015	435.19
638.357	447.96
638.699	396.89
639.041	414.76
639.383	417.32
639.725	440.3
640.067	463.28
640.408	473.49
640.75	409.66
641.092	371.36
641.433	412.21
641.775	450.51
642.116	363.7
642.458	350.93
642.799	358.59
643.141	445.4
643.482	478.6
643.823	363.7
644.164	384.12
644.506	478.6
644.847	404.55
645.188	402
645.529	409.66
645.87	409.66
646.211	453.07
646.552	404.55
646.893	394.34
647.233	350.93
647.574	391.78
647.915	358.59
648.255	312.63
648.596	353.48
648.937	424.98
649.277	404.55
649.618	381.57
649.958	394.34
650.298	435.19
650.639	404.55
650.979	379.02
651.319	338.16
651.659	343.27
651.999	435.19
652.339	363.7
652.679	391.78
653.019	391.78
653.359	399.44
653.699	394.34
654.039	399.44
654.379	481.15
654.719	435.19
655.058	442.85
655.398	419.87
655.737	463.28
656.077	412.21
656.416	450.51
656.756	394.34
657.095	432.64
657.435	404.55
657.774	394.34
658.113	412.21
658.452	399.44
658.792	389.23
659.131	343.27
659.47	440.3
659.809	389.23
660.148	350.93
660.487	371.36
660.826	419.87
661.164	381.57
661.503	468.39
661.842	384.12
662.181	404.55
662.519	427.53
662.858	394.34
663.196	422.42
663.535	394.34
663.873	414.76
664.212	412.21
664.55	394.34
664.888	440.3
665.226	435.19
665.565	384.12
665.903	522.01
666.241	430.08
666.579	402
666.917	414.76
667.255	373.91
667.593	402
667.931	478.6
668.268	424.98
668.606	343.27
668.944	358.59
669.282	389.23
669.619	350.93
669.957	404.55
670.294	363.7
670.632	402
670.969	458.17
671.307	404.55
671.644	373.91
671.981	373.91
672.318	399.44
672.656	422.42
672.993	414.76
673.33	465.83
673.667	481.15
674.004	463.28
674.341	338.16
674.678	409.66
675.015	363.7
675.351	386.68
675.688	384.12
676.025	432.64
676.362	432.64
676.698	358.59
677.035	361.14
677.371	379.02
677.708	430.08
678.044	424.98
678.38	396.89
678.717	394.34
679.053	391.78
679.389	447.96
679.725	460.73
680.062	381.57
680.398	455.62
680.734	460.73
681.07	386.68
681.406	402
681.742	338.16
682.077	384.12
682.413	463.28
682.749	402
683.085	379.02
683.42	432.64
683.756	419.87
684.091	409.66
684.427	424.98
684.762	417.32
685.098	424.98
685.433	361.14
685.768	402
686.104	368.8
686.439	402
686.774	404.55
687.109	419.87
687.444	394.34
687.779	417.32
688.114	476.05
688.449	409.66
688.784	361.14
689.119	373.91
689.454	437.74
689.789	394.34
690.123	345.82
690.458	338.16
690.792	435.19
691.127	356.04
691.461	384.12
691.796	391.78
692.13	361.14
692.465	430.08
692.799	402
693.133	419.87
693.467	338.16
693.802	384.12
694.136	422.42
694.47	455.62
694.804	463.28
695.138	386.68
695.472	389.23
695.806	358.59
696.139	379.02
696.473	404.55
696.807	371.36
697.141	402
697.474	396.89
697.808	412.21
698.141	394.34
698.475	394.34
698.808	389.23
699.142	340.72
699.475	389.23
699.808	450.51
700.142	435.19
700.475	407.1
700.808	445.4
701.141	371.36
701.474	437.74
701.807	368.8
702.14	402
702.473	358.59
702.806	409.66
703.139	417.32
703.472	361.14
703.804	460.73
704.137	417.32
704.47	437.74
704.802	417.32
705.135	353.48
705.467	340.72
705.8	437.74
706.132	437.74
706.464	432.64
706.797	379.02
707.129	343.27
707.461	463.28
707.793	371.36
708.125	409.66
708.457	412.21
708.789	373.91
709.121	419.87
709.453	445.4
709.785	422.42
710.117	394.34
710.449	348.38
710.781	386.68
711.112	394.34
711.444	363.7
711.775	389.23
712.107	453.07
712.438	376.46
712.77	419.87
713.101	343.27
713.433	519.45
713.764	394.34
714.095	371.36
714.426	427.53
714.757	373.91
715.089	386.68
715.42	389.23
715.751	414.76
716.082	361.14
716.412	404.55
716.743	422.42
717.074	402
717.405	379.02
717.736	368.8
718.066	440.3
718.397	404.55
718.727	379.02
719.058	442.85
719.388	432.64
719.719	437.74
720.049	363.7
720.38	350.93
720.71	414.76
721.04	430.08
721.37	432.64
721.7	414.76
722.031	394.34
722.361	379.02
722.691	432.64
723.021	445.4
723.35	419.87
723.68	450.51
724.01	391.78
724.34	414.76
724.67	409.66
724.999	437.74
725.329	376.46
725.658	389.23
725.988	373.91
726.317	396.89
726.647	473.49
726.976	371.36
727.306	391.78
727.635	373.91
727.964	315.18
728.293	358.59
728.622	333.06
728.952	373.91
729.281	450.51
729.61	356.04
729.939	432.64
730.267	445.4
730.596	424.98
730.925	427.53
731.254	442.85
731.583	389.23
731.911	384.12
732.24	389.23
732.568	386.68
732.897	384.12
733.225	427.53
733.554	363.7
733.882	396.89
734.21	340.72
734.539	440.3
734.867	381.57
735.195	358.59
735.523	386.68
735.851	455.62
736.179	386.68
736.507	384.12
736.835	335.61
737.163	361.14
737.491	399.44
737.819	376.46
738.147	379.02
738.474	371.36
738.802	379.02
739.13	325.4
739.457	407.1
739.785	371.36
740.112	363.7
740.44	391.78
740.767	366.25
741.094	315.18
741.422	430.08
741.749	389.23
742.076	358.59
742.403	304.97
742.73	391.78
743.057	371.36
743.384	381.57
743.711	427.53
744.038	376.46
744.365	358.59
744.692	409.66
745.018	343.27
745.345	345.82
745.672	386.68
745.998	463.28
746.325	453.07
746.651	481.15
746.978	325.4
747.304	447.96
747.631	409.66
747.957	430.08
748.283	417.32
748.61	417.32
748.936	422.42
749.262	402
749.588	340.72
749.914	447.96
750.24	366.25
750.566	399.44
750.892	327.95
751.218	419.87
751.543	396.89
751.869	391.78
752.195	437.74
752.521	361.14
752.846	453.07
753.172	361.14
753.497	358.59
753.823	381.57
754.148	440.3
754.473	389.23
754.799	373.91
755.124	412.21
755.449	414.76
755.774	422.42
756.1	447.96
756.425	399.44
756.75	399.44
757.075	389.23
757.4	409.66
757.724	509.24
758.049	412.21
758.374	412.21
758.699	402
759.024	396.89
759.348	371.36
759.673	450.51
759.997	414.76
760.322	409.66
760.646	407.1
760.971	394.34
761.295	407.1
761.619	455.62
761.944	432.64
762.268	447.96
762.592	532.22
762.916	463.28
763.24	511.79
763.564	532.22
763.888	458.17
764.212	442.85
764.536	486.26
764.86	483.71
765.184	458.17
765.508	468.39
765.831	491.37
766.155	654.78
766.478	476.05
766.802	478.6
767.126	560.31
767.449	642.01
767.772	759.47
768.096	782.45
768.419	963.74
768.742	1070.98
769.066	1208.86
769.389	1282.91
769.712	1420.8
770.035	1395.26
770.358	1535.7
770.681	1762.95
771.004	1859.98
771.327	1867.64
771.65	1911.04
771.972	1819.12
772.295	1778.27
772.618	1642.94
772.941	1530.59
773.263	1331.43
773.586	1265.04
773.908	1229.29
774.231	1025.02
774.553	856.5
774.875	797.77
775.198	795.22
775.52	777.34
775.842	991.83
776.164	1219.08
776.487	1321.21
776.809	1678.69
777.131	2005.52
777.453	2291.5
777.775	2554.5
778.096	2973.25
778.418	3300.08
778.74	3708.62
779.062	4020.13
779.384	4221.85
779.705	4426.12
780.027	4609.96
780.348	4574.22
780.67	4694.23
780.991	4515.49
781.313	4326.54
781.634	3856.72
781.955	3369.02
782.277	2748.55
782.598	2526.41
782.919	2212.34
783.24	1768.05
783.561	1540.8
783.882	1336.53
784.203	1252.27
784.524	1129.71
784.845	1265.04
785.166	1336.53
785.487	1632.73
785.807	2028.5
786.128	2350.22
786.449	2940.06
786.769	3491.58
787.09	3997.15
787.41	4791.25
787.731	5723.24
788.051	6341.15
788.372	6994.82
788.692	7819.56
789.012	8491.1
789.332	9070.72
789.653	9512.45
789.973	9078.38
790.293	8452.8
790.613	7313.99
790.933	6739.48
791.253	6517.34
791.573	6116.46
791.893	5010.84
792.212	3920.55
792.532	3154.54
792.852	2357.89
793.171	1903.38
793.491	1436.12
793.811	1162.9
794.13	1132.26
794.45	1086.3
794.769	1196.1
795.088	1584.21
795.408	1872.74
795.727	2526.41
796.046	2922.18
796.365	3384.34
796.684	3884.81
797.004	4556.34
797.323	5067.02
797.642	5953.04
797.96	6890.13
798.279	7456.98
798.598	7418.68
798.917	7546.35
799.236	7469.75
799.554	7788.92
799.873	7740.41
800.192	7773.6
800.51	7740.41
800.829	7247.6
801.147	6803.32
801.466	5845.8
801.784	5181.92
802.102	4681.46
802.421	4060.99
802.739	3624.36
