Data from 2025-12-03_xpw_interference_micrometer_620_FLMS141361__0__29.txt Node

Date: Wed Dec 03 15:21:30 MST 2025
User: james
Spectrometer: FLMS14136
Trigger mode: 0
Integration Time (sec): 1.000000E-1
Scans to average: 1
Electric dark correction enabled: true
Nonlinearity correction enabled: false
Boxcar width: 0
XAxis mode: Wavelengths
Number of Pixels in Spectrum: 2048
>>>>>Begin Spectral Data<<<<<
339.315	0.48
339.697	0.48
340.079	0.48
340.461	-94
340.843	-58.25
341.225	-53.14
341.607	-106.76
341.989	-142.51
342.371	-104.21
342.752	0.48
343.134	-22.5
343.516	-81.23
343.897	-32.72
344.279	3.03
344.661	8.14
345.042	28.57
345.423	59.21
345.805	100.06
346.186	107.72
346.567	43.89
346.949	191.98
347.33	186.88
347.711	207.3
348.092	194.54
348.473	225.18
348.854	278.8
349.235	271.14
349.616	337.52
349.997	314.54
350.378	334.97
350.758	342.63
351.139	337.52
351.52	370.72
351.9	350.29
352.281	340.08
352.661	378.38
353.042	421.79
353.422	332.42
353.803	419.23
354.183	434.55
354.563	477.96
354.943	378.38
355.324	342.63
355.704	421.79
356.084	393.7
356.464	401.36
356.844	365.61
357.224	373.27
357.603	388.59
357.983	363.06
358.363	449.87
358.743	386.04
359.122	357.95
359.502	401.36
359.882	378.38
360.261	360.51
360.641	426.89
361.02	355.4
361.399	301.78
361.779	360.51
362.158	393.7
362.537	411.57
362.916	334.97
363.296	424.34
363.675	352.84
364.054	347.74
364.433	337.52
364.812	350.29
365.19	347.74
365.569	383.49
365.948	386.04
366.327	396.25
366.705	347.74
367.084	360.51
367.463	357.95
367.841	386.04
368.22	350.29
368.598	416.68
368.977	429.45
369.355	401.36
369.733	278.8
370.111	368.17
370.49	396.25
370.868	391.15
371.246	398.81
371.624	352.84
372.002	370.72
372.38	350.29
372.758	409.02
373.136	360.51
373.513	363.06
373.891	388.59
374.269	388.59
374.646	329.86
375.024	378.38
375.402	398.81
375.779	380.93
376.157	401.36
376.534	444.77
376.911	319.65
377.289	370.72
377.666	393.7
378.043	337.52
378.42	373.27
378.797	398.81
379.175	434.55
379.552	424.34
379.929	345.18
380.305	424.34
380.682	375.83
381.059	378.38
381.436	322.2
381.813	360.51
382.189	342.63
382.566	375.83
382.943	391.15
383.319	393.7
383.696	363.06
384.072	332.42
384.448	345.18
384.825	378.38
385.201	363.06
385.577	403.91
385.953	383.49
386.329	386.04
386.706	411.57
387.082	357.95
387.458	470.3
387.834	363.06
388.209	411.57
388.585	393.7
388.961	375.83
389.337	380.93
389.713	393.7
390.088	347.74
390.464	398.81
390.839	416.68
391.215	424.34
391.59	403.91
391.966	457.53
392.341	350.29
392.716	365.61
393.092	398.81
393.467	383.49
393.842	396.25
394.217	317.1
394.592	345.18
394.967	432
395.342	398.81
395.717	360.51
396.092	278.8
396.467	334.97
396.841	327.31
397.216	345.18
397.591	342.63
397.965	373.27
398.34	401.36
398.714	375.83
399.089	437.11
399.463	419.23
399.838	398.81
400.212	393.7
400.586	370.72
400.961	406.47
401.335	401.36
401.709	401.36
402.083	393.7
402.457	444.77
402.831	447.32
403.205	357.95
403.579	393.7
403.953	368.17
404.326	373.27
404.7	340.08
405.074	437.11
405.447	429.45
405.821	396.25
406.195	368.17
406.568	409.02
406.942	437.11
407.315	396.25
407.688	437.11
408.062	421.79
408.435	375.83
408.808	406.47
409.181	442.21
409.554	421.79
409.927	352.84
410.3	365.61
410.673	391.15
411.046	398.81
411.419	429.45
411.792	322.2
412.165	391.15
412.537	388.59
412.91	380.93
413.283	432
413.655	337.52
414.028	409.02
414.4	370.72
414.773	444.77
415.145	393.7
415.517	391.15
415.889	401.36
416.262	378.38
416.634	414.13
417.006	383.49
417.378	403.91
417.75	347.74
418.122	386.04
418.494	368.17
418.866	373.27
419.238	429.45
419.609	391.15
419.981	360.51
420.353	416.68
420.725	383.49
421.096	432
421.468	403.91
421.839	465.19
422.211	426.89
422.582	403.91
422.953	398.81
423.325	347.74
423.696	383.49
424.067	350.29
424.438	419.23
424.809	340.08
425.18	360.51
425.551	429.45
425.922	439.66
426.293	365.61
426.664	419.23
427.035	500.94
427.406	411.57
427.776	406.47
428.147	391.15
428.518	411.57
428.888	391.15
429.259	363.06
429.629	386.04
429.999	383.49
430.37	357.95
430.74	393.7
431.11	357.95
431.481	401.36
431.851	393.7
432.221	426.89
432.591	424.34
432.961	432
433.331	414.13
433.701	414.13
434.071	467.75
434.441	439.66
434.81	352.84
435.18	393.7
435.55	429.45
435.919	472.85
436.289	345.18
436.658	393.7
437.028	409.02
437.397	421.79
437.767	439.66
438.136	432
438.505	409.02
438.875	365.61
439.244	449.87
439.613	365.61
439.982	342.63
440.351	472.85
440.72	462.64
441.089	421.79
441.458	396.25
441.827	393.7
442.196	398.81
442.564	511.15
442.933	373.27
443.302	365.61
443.67	363.06
444.039	391.15
444.407	386.04
444.776	398.81
445.144	345.18
445.513	357.95
445.881	490.73
446.249	426.89
446.617	396.25
446.986	391.15
447.354	437.11
447.722	421.79
448.09	447.32
448.458	365.61
448.826	449.87
449.194	472.85
449.561	429.45
449.929	411.57
450.297	365.61
450.665	360.51
451.032	424.34
451.4	411.57
451.767	398.81
452.135	401.36
452.502	475.41
452.87	439.66
453.237	409.02
453.604	370.72
453.971	506.05
454.339	434.55
454.706	380.93
455.073	457.53
455.44	526.47
455.807	439.66
456.174	378.38
456.541	373.27
456.908	416.68
457.274	409.02
457.641	421.79
458.008	447.32
458.374	429.45
458.741	426.89
459.108	411.57
459.474	409.02
459.841	426.89
460.207	452.43
460.573	421.79
460.94	444.77
461.306	457.53
461.672	421.79
462.038	439.66
462.404	398.81
462.771	434.55
463.137	467.75
463.503	434.55
463.868	396.25
464.234	421.79
464.6	414.13
464.966	370.72
465.332	475.41
465.697	452.43
466.063	383.49
466.429	485.62
466.794	439.66
467.16	409.02
467.525	403.91
467.89	373.27
468.256	444.77
468.621	467.75
468.986	477.96
469.351	429.45
469.717	424.34
470.082	449.87
470.447	340.08
470.812	411.57
471.177	503.49
471.542	419.23
471.906	396.25
472.271	398.81
472.636	424.34
473.001	409.02
473.365	411.57
473.73	380.93
474.094	472.85
474.459	475.41
474.823	447.32
475.188	439.66
475.552	434.55
475.917	449.87
476.281	490.73
476.645	477.96
477.009	457.53
477.373	439.66
477.737	416.68
478.101	493.28
478.465	416.68
478.829	360.51
479.193	396.25
479.557	406.47
479.921	429.45
480.284	386.04
480.648	419.23
481.012	421.79
481.375	426.89
481.739	411.57
482.102	498.39
482.466	432
482.829	409.02
483.193	426.89
483.556	403.91
483.919	452.43
484.282	434.55
484.645	406.47
485.009	401.36
485.372	414.13
485.735	434.55
486.098	449.87
486.46	319.65
486.823	419.23
487.186	388.59
487.549	424.34
487.912	437.11
488.274	444.77
488.637	411.57
488.999	457.53
489.362	414.13
489.724	457.53
490.087	470.3
490.449	398.81
490.811	447.32
491.174	403.91
491.536	432
491.898	437.11
492.26	396.25
492.622	437.11
492.984	373.27
493.346	393.7
493.708	426.89
494.07	406.47
494.432	432
494.794	470.3
495.155	465.19
495.517	411.57
495.879	452.43
496.24	480.51
496.602	421.79
496.963	444.77
497.325	444.77
497.686	439.66
498.048	380.93
498.409	429.45
498.77	475.41
499.131	470.3
499.492	426.89
499.854	383.49
500.215	467.75
500.576	429.45
500.937	406.47
501.298	437.11
501.658	363.06
502.019	467.75
502.38	452.43
502.741	452.43
503.101	416.68
503.462	393.7
503.823	386.04
504.183	409.02
504.543	403.91
504.904	411.57
505.264	419.23
505.625	426.89
505.985	350.29
506.345	439.66
506.705	388.59
507.065	416.68
507.426	462.64
507.786	506.05
508.146	452.43
508.505	452.43
508.865	518.81
509.225	485.62
509.585	490.73
509.945	434.55
510.304	460.09
510.664	370.72
511.024	444.77
511.383	380.93
511.743	419.23
512.102	472.85
512.462	444.77
512.821	419.23
513.18	373.27
513.539	416.68
513.899	424.34
514.258	454.98
514.617	391.15
514.976	460.09
515.335	375.83
515.694	460.09
516.053	449.87
516.412	434.55
516.771	457.53
517.129	452.43
517.488	437.11
517.847	386.04
518.205	419.23
518.564	426.89
518.922	465.19
519.281	477.96
519.639	375.83
519.998	442.21
520.356	401.36
520.714	434.55
521.073	401.36
521.431	416.68
521.789	388.59
522.147	383.49
522.505	429.45
522.863	429.45
523.221	426.89
523.579	447.32
523.937	383.49
524.295	324.76
524.652	462.64
525.01	406.47
525.368	437.11
525.725	485.62
526.083	365.61
526.44	363.06
526.798	426.89
527.155	472.85
527.513	444.77
527.87	421.79
528.227	409.02
528.584	406.47
528.942	424.34
529.299	419.23
529.656	409.02
530.013	391.15
530.37	401.36
530.727	403.91
531.083	426.89
531.44	462.64
531.797	460.09
532.154	373.27
532.511	419.23
532.867	416.68
533.224	444.77
533.58	421.79
533.937	424.34
534.293	467.75
534.65	416.68
535.006	409.02
535.362	414.13
535.718	409.02
536.075	365.61
536.431	426.89
536.787	391.15
537.143	444.77
537.499	462.64
537.855	421.79
538.211	508.6
538.567	388.59
538.923	470.3
539.278	414.13
539.634	429.45
539.99	426.89
540.345	396.25
540.701	411.57
541.056	454.98
541.412	437.11
541.767	406.47
542.123	447.32
542.478	470.3
542.833	439.66
543.188	467.75
543.544	442.21
543.899	472.85
544.254	386.04
544.609	498.39
544.964	375.83
545.319	470.3
545.674	403.91
546.029	447.32
546.383	457.53
546.738	365.61
547.093	416.68
547.447	414.13
547.802	421.79
548.157	406.47
548.511	467.75
548.866	386.04
549.22	465.19
549.574	368.17
549.929	406.47
550.283	391.15
550.637	391.15
550.991	403.91
551.345	467.75
551.699	386.04
552.053	414.13
552.407	409.02
552.761	378.38
553.115	380.93
553.469	437.11
553.823	393.7
554.176	370.72
554.53	406.47
554.884	342.63
555.237	661.8
555.591	439.66
555.944	465.19
556.298	416.68
556.651	460.09
557.005	375.83
557.358	401.36
557.711	414.13
558.064	421.79
558.417	437.11
558.771	508.6
559.124	511.15
559.477	378.38
559.83	414.13
560.182	380.93
560.535	442.21
560.888	401.36
561.241	401.36
561.594	531.58
561.946	414.13
562.299	393.7
562.651	434.55
563.004	419.23
563.356	401.36
563.709	424.34
564.061	373.27
564.413	434.55
564.766	416.68
565.118	460.09
565.47	439.66
565.822	398.81
566.174	388.59
566.526	447.32
566.878	426.89
567.23	421.79
567.582	396.25
567.934	365.61
568.286	437.11
568.638	421.79
568.989	424.34
569.341	396.25
569.693	421.79
570.044	462.64
570.396	419.23
570.747	368.17
571.098	462.64
571.45	424.34
571.801	419.23
572.152	472.85
572.504	406.47
572.855	378.38
573.206	470.3
573.557	370.72
573.908	393.7
574.259	442.21
574.61	340.08
574.961	334.97
575.311	393.7
575.662	363.06
576.013	449.87
576.364	460.09
576.714	406.47
577.065	393.7
577.415	434.55
577.766	442.21
578.116	411.57
578.467	447.32
578.817	424.34
579.167	449.87
579.518	465.19
579.868	444.77
580.218	426.89
580.568	434.55
580.918	416.68
581.268	419.23
581.618	419.23
581.968	396.25
582.318	352.84
582.668	416.68
583.017	421.79
583.367	432
583.717	411.57
584.066	419.23
584.416	396.25
584.765	449.87
585.115	439.66
585.464	429.45
585.814	452.43
586.163	457.53
586.512	370.72
586.862	386.04
587.211	437.11
587.56	454.98
587.909	472.85
588.258	383.49
588.607	375.83
588.956	472.85
589.305	347.74
589.654	403.91
590.002	409.02
590.351	370.72
590.7	368.17
591.048	391.15
591.397	388.59
591.746	426.89
592.094	419.23
592.443	386.04
592.791	393.7
593.139	370.72
593.488	396.25
593.836	391.15
594.184	437.11
594.532	357.95
594.88	444.77
595.228	432
595.576	378.38
595.924	447.32
596.272	406.47
596.62	454.98
596.968	409.02
597.316	406.47
597.664	477.96
598.011	426.89
598.359	449.87
598.706	396.25
599.054	437.11
599.402	432
599.749	488.17
600.096	360.51
600.444	447.32
600.791	447.32
601.138	393.7
601.485	432
601.833	378.38
602.18	401.36
602.527	401.36
602.874	388.59
603.221	403.91
603.568	437.11
603.914	470.3
604.261	419.23
604.608	421.79
604.955	414.13
605.301	426.89
605.648	411.57
605.995	472.85
606.341	414.13
606.688	383.49
607.034	396.25
607.38	475.41
607.727	449.87
608.073	398.81
608.419	383.49
608.765	421.79
609.112	480.51
609.458	442.21
609.804	483.07
610.15	373.27
610.496	403.91
610.842	380.93
611.187	357.95
611.533	383.49
611.879	439.66
612.225	449.87
612.57	429.45
612.916	380.93
613.261	434.55
613.607	442.21
613.952	416.68
614.298	421.79
614.643	409.02
614.989	291.56
615.334	368.17
615.679	360.51
616.024	352.84
616.369	396.25
616.714	383.49
617.059	421.79
617.404	414.13
617.749	368.17
618.094	391.15
618.439	373.27
618.784	368.17
619.129	424.34
619.473	355.4
619.818	373.27
620.163	490.73
620.507	365.61
620.852	388.59
621.196	365.61
621.54	429.45
621.885	391.15
622.229	416.68
622.573	355.4
622.918	426.89
623.262	386.04
623.606	373.27
623.95	380.93
624.294	432
624.638	401.36
624.982	426.89
625.326	347.74
625.67	434.55
626.013	424.34
626.357	403.91
626.701	360.51
627.044	375.83
627.388	357.95
627.731	368.17
628.075	363.06
628.418	409.02
628.762	442.21
629.105	462.64
629.448	477.96
629.792	485.62
630.135	472.85
630.478	398.81
630.821	424.34
631.164	426.89
631.507	347.74
631.85	378.38
632.193	442.21
632.536	419.23
632.879	396.25
633.221	452.43
633.564	477.96
633.907	347.74
634.249	421.79
634.592	355.4
634.935	429.45
635.277	437.11
635.619	396.25
635.962	434.55
636.304	386.04
636.646	401.36
636.989	452.43
637.331	401.36
637.673	373.27
638.015	370.72
638.357	373.27
638.699	388.59
639.041	444.77
639.383	388.59
639.725	439.66
640.067	403.91
640.408	370.72
640.75	373.27
641.092	380.93
641.433	411.57
641.775	424.34
642.116	444.77
642.458	444.77
642.799	429.45
643.141	485.62
643.482	419.23
643.823	454.98
644.164	398.81
644.506	452.43
644.847	398.81
645.188	401.36
645.529	414.13
645.87	391.15
646.211	409.02
646.552	452.43
646.893	378.38
647.233	373.27
647.574	383.49
647.915	437.11
648.255	419.23
648.596	380.93
648.937	424.34
649.277	393.7
649.618	432
649.958	442.21
650.298	480.51
650.639	444.77
650.979	378.38
651.319	388.59
651.659	398.81
651.999	406.47
652.339	409.02
652.679	416.68
653.019	472.85
653.359	355.4
653.699	406.47
654.039	472.85
654.379	457.53
654.719	439.66
655.058	411.57
655.398	350.29
655.737	439.66
656.077	340.08
656.416	467.75
656.756	409.02
657.095	383.49
657.435	401.36
657.774	398.81
658.113	432
658.452	426.89
658.792	403.91
659.131	357.95
659.47	401.36
659.809	434.55
660.148	493.28
660.487	470.3
660.826	360.51
661.164	414.13
661.503	383.49
661.842	301.78
662.181	452.43
662.519	414.13
662.858	490.73
663.196	403.91
663.535	373.27
663.873	347.74
664.212	383.49
664.55	350.29
664.888	419.23
665.226	383.49
665.565	411.57
665.903	552.01
666.241	368.17
666.579	406.47
666.917	409.02
667.255	495.83
667.593	396.25
667.931	477.96
668.268	462.64
668.606	380.93
668.944	357.95
669.282	411.57
669.619	401.36
669.957	373.27
670.294	368.17
670.632	391.15
670.969	373.27
671.307	383.49
671.644	424.34
671.981	370.72
672.318	383.49
672.656	373.27
672.993	363.06
673.33	403.91
673.667	419.23
674.004	388.59
674.341	434.55
674.678	388.59
675.015	403.91
675.351	432
675.688	421.79
676.025	419.23
676.362	401.36
676.698	434.55
677.035	434.55
677.371	429.45
677.708	396.25
678.044	424.34
678.38	414.13
678.717	327.31
679.053	391.15
679.389	432
679.725	465.19
680.062	414.13
680.398	421.79
680.734	393.7
681.07	378.38
681.406	388.59
681.742	434.55
682.077	393.7
682.413	409.02
682.749	432
683.085	416.68
683.42	378.38
683.756	414.13
684.091	421.79
684.427	398.81
684.762	396.25
685.098	467.75
685.433	424.34
685.768	357.95
686.104	380.93
686.439	360.51
686.774	452.43
687.109	419.23
687.444	411.57
687.779	424.34
688.114	403.91
688.449	398.81
688.784	406.47
689.119	403.91
689.454	368.17
689.789	424.34
690.123	411.57
690.458	375.83
690.792	383.49
691.127	452.43
691.461	388.59
691.796	403.91
692.13	467.75
692.465	378.38
692.799	317.1
693.133	350.29
693.467	317.1
693.802	401.36
694.136	355.4
694.47	416.68
694.804	383.49
695.138	432
695.472	429.45
695.806	355.4
696.139	375.83
696.473	444.77
696.807	424.34
697.141	396.25
697.474	421.79
697.808	309.44
698.141	414.13
698.475	352.84
698.808	462.64
699.142	434.55
699.475	429.45
699.808	363.06
700.142	398.81
700.475	398.81
700.808	352.84
701.141	426.89
701.474	419.23
701.807	442.21
702.14	401.36
702.473	357.95
702.806	432
703.139	355.4
703.472	460.09
703.804	460.09
704.137	406.47
704.47	424.34
704.802	391.15
705.135	401.36
705.467	345.18
705.8	401.36
706.132	424.34
706.464	363.06
706.797	449.87
707.129	370.72
707.461	388.59
707.793	434.55
708.125	495.83
708.457	370.72
708.789	434.55
709.121	370.72
709.453	409.02
709.785	352.84
710.117	403.91
710.449	398.81
710.781	414.13
711.112	488.17
711.444	393.7
711.775	409.02
712.107	375.83
712.438	388.59
712.77	386.04
713.101	363.06
713.433	452.43
713.764	416.68
714.095	365.61
714.426	329.86
714.757	419.23
715.089	357.95
715.42	411.57
715.751	426.89
716.082	495.83
716.412	493.28
716.743	406.47
717.074	465.19
717.405	340.08
717.736	342.63
718.066	424.34
718.397	396.25
718.727	439.66
719.058	368.17
719.388	342.63
719.719	337.52
720.049	391.15
720.38	406.47
720.71	396.25
721.04	424.34
721.37	396.25
721.7	444.77
722.031	401.36
722.361	442.21
722.691	475.41
723.021	401.36
723.35	429.45
723.68	311.99
724.01	444.77
724.34	424.34
724.67	444.77
724.999	447.32
725.329	393.7
725.658	449.87
725.988	378.38
726.317	460.09
726.647	457.53
726.976	383.49
727.306	345.18
727.635	406.47
727.964	360.51
728.293	421.79
728.622	373.27
728.952	355.4
729.281	360.51
729.61	419.23
729.939	403.91
730.267	363.06
730.596	375.83
730.925	342.63
731.254	380.93
731.583	398.81
731.911	352.84
732.24	437.11
732.568	454.98
732.897	337.52
733.225	411.57
733.554	398.81
733.882	380.93
734.21	368.17
734.539	442.21
734.867	393.7
735.195	432
735.523	378.38
735.851	365.61
736.179	449.87
736.507	424.34
736.835	378.38
737.163	355.4
737.491	452.43
737.819	370.72
738.147	444.77
738.474	391.15
738.802	401.36
739.13	352.84
739.457	460.09
739.785	429.45
740.112	449.87
740.44	439.66
740.767	429.45
741.094	375.83
741.422	426.89
741.749	447.32
742.076	380.93
742.403	426.89
742.73	386.04
743.057	426.89
743.384	447.32
743.711	439.66
744.038	370.72
744.365	442.21
744.692	380.93
745.018	365.61
745.345	426.89
745.672	383.49
745.998	424.34
746.325	373.27
746.651	457.53
746.978	426.89
747.304	419.23
747.631	383.49
747.957	393.7
748.283	442.21
748.61	442.21
748.936	380.93
749.262	398.81
749.588	444.77
749.914	424.34
750.24	429.45
750.566	352.84
750.892	370.72
751.218	368.17
751.543	439.66
751.869	396.25
752.195	429.45
752.521	439.66
752.846	411.57
753.172	386.04
753.497	314.54
753.823	437.11
754.148	467.75
754.473	398.81
754.799	386.04
755.124	447.32
755.449	365.61
755.774	401.36
756.1	411.57
756.425	386.04
756.75	442.21
757.075	421.79
757.4	485.62
757.724	393.7
758.049	401.36
758.374	403.91
758.699	429.45
759.024	398.81
759.348	363.06
759.673	373.27
759.997	409.02
760.322	462.64
760.646	370.72
760.971	449.87
761.295	393.7
761.619	370.72
761.944	444.77
762.268	373.27
762.592	503.49
762.916	470.3
763.24	562.22
763.564	567.33
763.888	557.12
764.212	485.62
764.536	457.53
764.86	534.13
765.184	618.4
765.508	638.82
765.831	735.85
766.155	1121.41
766.478	1037.15
766.802	1205.67
767.126	1231.21
767.449	1126.52
767.772	993.74
768.096	812.45
768.419	758.83
768.742	771.6
769.066	868.63
769.389	1016.72
769.712	1261.85
770.035	1634.64
770.358	1675.49
770.681	1678.05
771.004	1389.52
771.327	1307.81
771.65	1203.12
771.972	1157.16
772.295	1169.93
772.618	1397.18
772.941	1867
773.263	2326.61
773.586	2998.14
773.908	3314.76
774.231	3419.45
774.553	3148.79
774.875	2530.88
775.198	1823.59
775.52	1404.84
775.842	1341
776.164	1491.65
776.487	2107.02
776.809	2947.08
777.131	3682.45
777.453	4208.45
777.775	4170.15
778.096	3876.51
778.418	3478.18
778.74	2727.49
779.062	2050.84
779.384	1869.55
779.705	2150.42
780.027	2758.13
780.348	3940.34
780.67	5186.39
780.991	6023.9
781.313	5909
781.634	5273.2
781.955	4777.85
782.277	4042.48
782.598	3189.65
782.919	2421.08
783.24	2022.75
783.561	2280.65
783.882	3005.8
784.203	3993.96
784.524	5074.04
784.845	5947.3
785.166	5898.78
785.487	5434.07
785.807	4308.03
786.128	3235.61
786.449	2390.44
786.769	1951.26
787.09	2015.09
787.41	2883.24
787.731	4308.03
788.051	5814.52
788.372	7065.68
788.692	8038.51
789.012	8196.82
789.332	6892.05
789.653	5868.14
789.973	4374.42
790.293	3138.58
790.613	2456.83
790.933	2765.79
791.253	3692.66
791.573	5045.95
791.893	6072.41
792.212	6669.9
792.532	7060.57
792.852	6894.6
793.171	5870.69
793.491	4438.25
793.811	3444.99
794.13	2349.59
794.45	1918.07
794.769	2454.28
795.088	3805.01
795.408	5607.7
795.727	7663.17
796.046	9123.7
796.365	9422.44
796.684	8324.49
797.004	6304.77
797.323	4616.99
797.642	3365.83
797.96	2615.14
798.279	2352.14
798.598	2982.82
798.917	4195.68
799.236	5648.55
799.554	6851.19
799.873	6629.05
800.192	6529.47
800.51	5569.4
