Data from 2025-12-03_xpw_interference_micrometer_644_FLMS141361__0__09.txt Node

Date: Wed Dec 03 15:09:39 MST 2025
User: james
Spectrometer: FLMS14136
Trigger mode: 0
Integration Time (sec): 1.000000E-1
Scans to average: 1
Electric dark correction enabled: true
Nonlinearity correction enabled: false
Boxcar width: 0
XAxis mode: Wavelengths
Number of Pixels in Spectrum: 2048
>>>>>Begin Spectral Data<<<<<
339.315	-40.85
339.697	-40.85
340.079	-40.85
340.461	-114.9
340.843	-79.15
341.225	-51.07
341.607	-94.47
341.989	-89.37
342.371	-81.71
342.752	-28.09
343.134	5.11
343.516	-61.28
343.897	-22.98
344.279	0
344.661	-2.55
345.042	17.87
345.423	117.46
345.805	40.85
346.186	20.43
346.567	91.92
346.949	137.88
347.33	109.8
347.711	168.52
348.092	163.42
348.473	183.84
348.854	222.14
349.235	275.76
349.616	268.1
349.997	316.62
350.378	285.98
350.758	337.05
351.139	301.3
351.52	344.71
351.9	285.98
352.281	342.15
352.661	352.37
353.042	416.2
353.422	347.26
353.803	423.86
354.183	395.77
354.563	436.63
354.943	362.58
355.324	383.01
355.704	354.92
356.084	372.79
356.464	372.79
356.844	416.2
357.224	308.96
357.603	388.11
357.983	349.81
358.363	365.13
358.743	357.47
359.122	380.45
359.502	352.37
359.882	385.56
360.261	357.47
360.641	357.47
361.02	308.96
361.399	354.92
361.779	301.3
362.158	306.41
362.537	367.69
362.916	334.49
363.296	326.83
363.675	329.39
364.054	357.47
364.433	408.54
364.812	337.05
365.19	337.05
365.569	354.92
365.948	321.73
366.327	352.37
366.705	362.58
367.084	347.26
367.463	357.47
367.841	288.53
368.22	344.71
368.598	308.96
368.977	331.94
369.355	403.43
369.733	303.85
370.111	291.09
370.49	339.6
370.868	334.49
371.246	319.17
371.624	337.05
372.002	288.53
372.38	293.64
372.758	337.05
373.136	319.17
373.513	306.41
373.891	354.92
374.269	352.37
374.646	362.58
375.024	370.24
375.402	413.65
375.779	362.58
376.157	303.85
376.534	395.77
376.911	308.96
377.289	375.35
377.666	370.24
378.043	362.58
378.42	347.26
378.797	303.85
379.175	337.05
379.552	293.64
379.929	339.6
380.305	372.79
380.682	393.22
381.059	367.69
381.436	428.97
381.813	334.49
382.189	354.92
382.566	344.71
382.943	342.15
383.319	352.37
383.696	316.62
384.072	408.54
384.448	352.37
384.825	370.24
385.201	385.56
385.577	367.69
385.953	352.37
386.329	324.28
386.706	334.49
387.082	331.94
387.458	331.94
387.834	293.64
388.209	372.79
388.585	362.58
388.961	421.31
389.337	339.6
389.713	372.79
390.088	380.45
390.464	334.49
390.839	365.13
391.215	360.03
391.59	380.45
391.966	365.13
392.341	434.07
392.716	316.62
393.092	400.88
393.467	334.49
393.842	444.29
394.217	395.77
394.592	367.69
394.967	375.35
395.342	367.69
395.717	298.75
396.092	347.26
396.467	326.83
396.841	347.26
397.216	403.43
397.591	344.71
397.965	357.47
398.34	388.11
398.714	331.94
399.089	329.39
399.463	357.47
399.838	342.15
400.212	316.62
400.586	385.56
400.961	349.81
401.335	423.86
401.709	390.67
402.083	423.86
402.457	403.43
402.831	324.28
403.205	339.6
403.579	365.13
403.953	380.45
404.326	416.2
404.7	377.9
405.074	400.88
405.447	393.22
405.821	354.92
406.195	296.19
406.568	352.37
406.942	431.52
407.315	380.45
407.688	367.69
408.062	377.9
408.435	339.6
408.808	426.41
409.181	365.13
409.554	372.79
409.927	372.79
410.3	395.77
410.673	377.9
411.046	383.01
411.419	365.13
411.792	380.45
412.165	321.73
412.537	331.94
412.91	365.13
413.283	285.98
413.655	360.03
414.028	252.78
414.4	329.39
414.773	418.75
415.145	372.79
415.517	329.39
415.889	331.94
416.262	319.17
416.634	316.62
417.006	324.28
417.378	365.13
417.75	334.49
418.122	370.24
418.494	377.9
418.866	383.01
419.238	398.33
419.609	408.54
419.981	339.6
420.353	367.69
420.725	308.96
421.096	413.65
421.468	403.43
421.839	314.07
422.211	367.69
422.582	400.88
422.953	349.81
423.325	319.17
423.696	337.05
424.067	311.51
424.438	385.56
424.809	319.17
425.18	380.45
425.551	362.58
425.922	405.99
426.293	362.58
426.664	457.05
427.035	441.73
427.406	380.45
427.776	296.19
428.147	446.84
428.518	459.61
428.888	390.67
429.259	365.13
429.629	331.94
429.999	362.58
430.37	372.79
430.74	324.28
431.11	372.79
431.481	370.24
431.851	400.88
432.221	385.56
432.591	352.37
432.961	421.31
433.331	334.49
433.701	329.39
434.071	393.22
434.441	436.63
434.81	349.81
435.18	403.43
435.55	405.99
435.919	395.77
436.289	444.29
436.658	380.45
437.028	411.09
437.397	347.26
437.767	362.58
438.136	477.48
438.505	441.73
438.875	441.73
439.244	449.39
439.613	375.35
439.982	352.37
440.351	400.88
440.72	354.92
441.089	398.33
441.458	367.69
441.827	416.2
442.196	426.41
442.564	469.82
442.933	337.05
443.302	357.47
443.67	388.11
444.039	311.51
444.407	408.54
444.776	434.07
445.144	444.29
445.513	372.79
445.881	395.77
446.249	331.94
446.617	431.52
446.986	405.99
447.354	344.71
447.722	434.07
448.09	375.35
448.458	370.24
448.826	408.54
449.194	383.01
449.561	370.24
449.929	316.62
450.297	344.71
450.665	357.47
451.032	365.13
451.4	314.07
451.767	377.9
452.135	403.43
452.502	398.33
452.87	383.01
453.237	347.26
453.604	352.37
453.971	400.88
454.339	398.33
454.706	385.56
455.073	367.69
455.44	380.45
455.807	354.92
456.174	367.69
456.541	352.37
456.908	331.94
457.274	482.59
457.641	418.75
458.008	347.26
458.374	360.03
458.741	390.67
459.108	436.63
459.474	377.9
459.841	377.9
460.207	380.45
460.573	354.92
460.94	362.58
461.306	423.86
461.672	434.07
462.038	426.41
462.404	367.69
462.771	329.39
463.137	380.45
463.503	400.88
463.868	449.39
464.234	377.9
464.6	405.99
464.966	370.24
465.332	349.81
465.697	393.22
466.063	362.58
466.429	428.97
466.794	431.52
467.16	436.63
467.525	431.52
467.89	349.81
468.256	383.01
468.621	385.56
468.986	321.73
469.351	324.28
469.717	339.6
470.082	390.67
470.447	393.22
470.812	395.77
471.177	454.5
471.542	370.24
471.906	400.88
472.271	380.45
472.636	342.15
473.001	431.52
473.365	421.31
473.73	380.45
474.094	426.41
474.459	400.88
474.823	354.92
475.188	349.81
475.552	421.31
475.917	428.97
476.281	400.88
476.645	362.58
477.009	385.56
477.373	400.88
477.737	383.01
478.101	385.56
478.465	441.73
478.829	403.43
479.193	405.99
479.557	405.99
479.921	383.01
480.284	395.77
480.648	405.99
481.012	439.18
481.375	428.97
481.739	375.35
482.102	383.01
482.466	449.39
482.829	464.71
483.193	423.86
483.556	398.33
483.919	385.56
484.282	367.69
484.645	375.35
485.009	416.2
485.372	388.11
485.735	408.54
486.098	357.47
486.46	408.54
486.823	357.47
487.186	388.11
487.549	352.37
487.912	377.9
488.274	337.05
488.637	388.11
488.999	362.58
489.362	426.41
489.724	439.18
490.087	434.07
490.449	337.05
490.811	421.31
491.174	316.62
491.536	337.05
491.898	400.88
492.26	413.65
492.622	446.84
492.984	398.33
493.346	408.54
493.708	395.77
494.07	354.92
494.432	377.9
494.794	357.47
495.155	418.75
495.517	372.79
495.879	388.11
496.24	377.9
496.602	423.86
496.963	403.43
497.325	416.2
497.686	418.75
498.048	388.11
498.409	446.84
498.77	441.73
499.131	403.43
499.492	367.69
499.854	357.47
500.215	342.15
500.576	457.05
500.937	411.09
501.298	464.71
501.658	418.75
502.019	395.77
502.38	337.05
502.741	395.77
503.101	395.77
503.462	393.22
503.823	388.11
504.183	357.47
504.543	388.11
504.904	403.43
505.264	416.2
505.625	372.79
505.985	413.65
506.345	408.54
506.705	421.31
507.065	372.79
507.426	426.41
507.786	441.73
508.146	347.26
508.505	314.07
508.865	339.6
509.225	367.69
509.585	457.05
509.945	413.65
510.304	403.43
510.664	405.99
511.024	408.54
511.383	383.01
511.743	354.92
512.102	395.77
512.462	352.37
512.821	383.01
513.18	385.56
513.539	444.29
513.899	418.75
514.258	436.63
514.617	365.13
514.976	367.69
515.335	365.13
515.694	367.69
516.053	413.65
516.412	418.75
516.771	428.97
517.129	398.33
517.488	357.47
517.847	344.71
518.205	423.86
518.564	357.47
518.922	423.86
519.281	418.75
519.639	408.54
519.998	334.49
520.356	459.61
520.714	370.24
521.073	367.69
521.431	326.83
521.789	383.01
522.147	316.62
522.505	390.67
522.863	326.83
523.221	388.11
523.579	426.41
523.937	383.01
524.295	416.2
524.652	408.54
525.01	372.79
525.368	439.18
525.725	457.05
526.083	423.86
526.44	337.05
526.798	370.24
527.155	485.14
527.513	408.54
527.87	390.67
528.227	367.69
528.584	370.24
528.942	375.35
529.299	377.9
529.656	426.41
530.013	398.33
530.37	411.09
530.727	403.43
531.083	408.54
531.44	393.22
531.797	352.37
532.154	405.99
532.511	395.77
532.867	388.11
533.224	395.77
533.58	395.77
533.937	377.9
534.293	449.39
534.65	403.43
535.006	408.54
535.362	439.18
535.718	398.33
536.075	423.86
536.431	462.16
536.787	413.65
537.143	398.33
537.499	383.01
537.855	405.99
538.211	431.52
538.567	349.81
538.923	408.54
539.278	405.99
539.634	347.26
539.99	365.13
540.345	360.03
540.701	413.65
541.056	377.9
541.412	439.18
541.767	469.82
542.123	365.13
542.478	390.67
542.833	439.18
543.188	428.97
543.544	352.37
543.899	403.43
544.254	380.45
544.609	362.58
544.964	393.22
545.319	344.71
545.674	451.95
546.029	329.39
546.383	436.63
546.738	467.27
547.093	444.29
547.447	380.45
547.802	344.71
548.157	331.94
548.511	423.86
548.866	416.2
549.22	370.24
549.574	372.79
549.929	436.63
550.283	329.39
550.637	408.54
550.991	405.99
551.345	436.63
551.699	434.07
552.053	431.52
552.407	408.54
552.761	439.18
553.115	464.71
553.469	395.77
553.823	354.92
554.176	408.54
554.53	383.01
554.884	365.13
555.237	628.13
555.591	439.18
555.944	469.82
556.298	426.41
556.651	418.75
557.005	395.77
557.358	367.69
557.711	398.33
558.064	388.11
558.417	362.58
558.771	500.46
559.124	444.29
559.477	403.43
559.83	444.29
560.182	385.56
560.535	423.86
560.888	395.77
561.241	405.99
561.594	334.49
561.946	352.37
562.299	349.81
562.651	449.39
563.004	454.5
563.356	383.01
563.709	405.99
564.061	400.88
564.413	367.69
564.766	416.2
565.118	375.35
565.47	408.54
565.822	457.05
566.174	403.43
566.526	428.97
566.878	393.22
567.23	357.47
567.582	362.58
567.934	339.6
568.286	337.05
568.638	339.6
568.989	367.69
569.341	349.81
569.693	421.31
570.044	403.43
570.396	395.77
570.747	388.11
571.098	375.35
571.45	405.99
571.801	344.71
572.152	352.37
572.504	347.26
572.855	413.65
573.206	418.75
573.557	439.18
573.908	482.59
574.259	469.82
574.61	400.88
574.961	301.3
575.311	444.29
575.662	426.41
576.013	388.11
576.364	436.63
576.714	360.03
577.065	441.73
577.415	418.75
577.766	423.86
578.116	393.22
578.467	349.81
578.817	370.24
579.167	428.97
579.518	416.2
579.868	390.67
580.218	426.41
580.568	390.67
580.918	342.15
581.268	398.33
581.618	334.49
581.968	388.11
582.318	370.24
582.668	416.2
583.017	362.58
583.367	403.43
583.717	413.65
584.066	319.17
584.416	321.73
584.765	380.45
585.115	487.7
585.464	436.63
585.814	426.41
586.163	390.67
586.512	446.84
586.862	362.58
587.211	393.22
587.56	388.11
587.909	365.13
588.258	372.79
588.607	395.77
588.956	395.77
589.305	485.14
589.654	383.01
590.002	441.73
590.351	357.47
590.7	372.79
591.048	395.77
591.397	390.67
591.746	375.35
592.094	408.54
592.443	436.63
592.791	474.93
593.139	411.09
593.488	352.37
593.836	383.01
594.184	367.69
594.532	319.17
594.88	354.92
595.228	416.2
595.576	431.52
595.924	388.11
596.272	457.05
596.62	377.9
596.968	388.11
597.316	370.24
597.664	403.43
598.011	383.01
598.359	388.11
598.706	454.5
599.054	411.09
599.402	319.17
599.749	375.35
600.096	372.79
600.444	390.67
600.791	441.73
601.138	390.67
601.485	388.11
601.833	390.67
602.18	365.13
602.527	349.81
602.874	395.77
603.221	347.26
603.568	344.71
603.914	428.97
604.261	421.31
604.608	408.54
604.955	342.15
605.301	321.73
605.648	372.79
605.995	451.95
606.341	377.9
606.688	405.99
607.034	360.03
607.38	370.24
607.727	365.13
608.073	357.47
608.419	423.86
608.765	426.41
609.112	370.24
609.458	337.05
609.804	331.94
610.15	390.67
610.496	352.37
610.842	385.56
611.187	403.43
611.533	334.49
611.879	400.88
612.225	334.49
612.57	383.01
612.916	416.2
613.261	393.22
613.607	395.77
613.952	372.79
614.298	360.03
614.643	326.83
614.989	400.88
615.334	377.9
615.679	431.52
616.024	324.28
616.369	367.69
616.714	400.88
617.059	393.22
617.404	380.45
617.749	428.97
618.094	362.58
618.439	421.31
618.784	385.56
619.129	360.03
619.473	362.58
619.818	380.45
620.163	349.81
620.507	403.43
620.852	411.09
621.196	400.88
621.54	360.03
621.885	446.84
622.229	446.84
622.573	395.77
622.918	411.09
623.262	400.88
623.606	423.86
623.95	398.33
624.294	347.26
624.638	360.03
624.982	380.45
625.326	421.31
625.67	418.75
626.013	377.9
626.357	365.13
626.701	344.71
627.044	365.13
627.388	393.22
627.731	408.54
628.075	357.47
628.418	398.33
628.762	377.9
629.105	365.13
629.448	342.15
629.792	403.43
630.135	352.37
630.478	403.43
630.821	413.65
631.164	400.88
631.507	400.88
631.85	360.03
632.193	426.41
632.536	390.67
632.879	421.31
633.221	400.88
633.564	390.67
633.907	352.37
634.249	416.2
634.592	334.49
634.935	370.24
635.277	405.99
635.619	405.99
635.962	413.65
636.304	347.26
636.646	375.35
636.989	413.65
637.331	403.43
637.673	380.45
638.015	337.05
638.357	408.54
638.699	395.77
639.041	405.99
639.383	334.49
639.725	362.58
640.067	377.9
640.408	388.11
640.75	383.01
641.092	428.97
641.433	477.48
641.775	434.07
642.116	423.86
642.458	457.05
642.799	418.75
643.141	439.18
643.482	416.2
643.823	405.99
644.164	377.9
644.506	439.18
644.847	403.43
645.188	403.43
645.529	372.79
645.87	434.07
646.211	383.01
646.552	354.92
646.893	365.13
647.233	380.45
647.574	395.77
647.915	446.84
648.255	398.33
648.596	418.75
648.937	426.41
649.277	388.11
649.618	393.22
649.958	388.11
650.298	393.22
650.639	403.43
650.979	398.33
651.319	365.13
651.659	408.54
651.999	324.28
652.339	380.45
652.679	423.86
653.019	342.15
653.359	398.33
653.699	408.54
654.039	462.16
654.379	360.03
654.719	405.99
655.058	388.11
655.398	347.26
655.737	462.16
656.077	416.2
656.416	449.39
656.756	347.26
657.095	423.86
657.435	344.71
657.774	423.86
658.113	398.33
658.452	357.47
658.792	370.24
659.131	423.86
659.47	405.99
659.809	423.86
660.148	372.79
660.487	462.16
660.826	380.45
661.164	372.79
661.503	365.13
661.842	308.96
662.181	446.84
662.519	441.73
662.858	411.09
663.196	372.79
663.535	385.56
663.873	398.33
664.212	370.24
664.55	421.31
664.888	334.49
665.226	372.79
665.565	383.01
665.903	579.62
666.241	426.41
666.579	434.07
666.917	416.2
667.255	436.63
667.593	439.18
667.931	454.5
668.268	446.84
668.606	388.11
668.944	434.07
669.282	449.39
669.619	390.67
669.957	393.22
670.294	398.33
670.632	390.67
670.969	352.37
671.307	390.67
671.644	365.13
671.981	331.94
672.318	395.77
672.656	405.99
672.993	395.77
673.33	408.54
673.667	380.45
674.004	388.11
674.341	337.05
674.678	367.69
675.015	383.01
675.351	400.88
675.688	418.75
676.025	388.11
676.362	428.97
676.698	436.63
677.035	411.09
677.371	388.11
677.708	408.54
678.044	459.61
678.38	408.54
678.717	380.45
679.053	383.01
679.389	439.18
679.725	352.37
680.062	347.26
680.398	349.81
680.734	385.56
681.07	403.43
681.406	405.99
681.742	347.26
682.077	441.73
682.413	393.22
682.749	339.6
683.085	306.41
683.42	352.37
683.756	360.03
684.091	426.41
684.427	319.17
684.762	347.26
685.098	283.42
685.433	360.03
685.768	357.47
686.104	380.45
686.439	383.01
686.774	388.11
687.109	314.07
687.444	301.3
687.779	400.88
688.114	360.03
688.449	403.43
688.784	383.01
689.119	395.77
689.454	375.35
689.789	390.67
690.123	319.17
690.458	400.88
690.792	367.69
691.127	388.11
691.461	436.63
691.796	385.56
692.13	370.24
692.465	418.75
692.799	347.26
693.133	418.75
693.467	372.79
693.802	354.92
694.136	367.69
694.47	352.37
694.804	398.33
695.138	380.45
695.472	362.58
695.806	367.69
696.139	385.56
696.473	352.37
696.807	370.24
697.141	385.56
697.474	362.58
697.808	372.79
698.141	380.45
698.475	400.88
698.808	372.79
699.142	375.35
699.475	421.31
699.808	375.35
700.142	375.35
700.475	400.88
700.808	393.22
701.141	395.77
701.474	418.75
701.807	408.54
702.14	365.13
702.473	339.6
702.806	388.11
703.139	367.69
703.472	403.43
703.804	408.54
704.137	411.09
704.47	377.9
704.802	398.33
705.135	385.56
705.467	352.37
705.8	303.85
706.132	326.83
706.464	342.15
706.797	357.47
707.129	370.24
707.461	408.54
707.793	306.41
708.125	319.17
708.457	388.11
708.789	380.45
709.121	383.01
709.453	398.33
709.785	308.96
710.117	347.26
710.449	385.56
710.781	365.13
711.112	357.47
711.444	400.88
711.775	434.07
712.107	418.75
712.438	423.86
712.77	444.29
713.101	395.77
713.433	375.35
713.764	316.62
714.095	365.13
714.426	380.45
714.757	413.65
715.089	388.11
715.42	398.33
715.751	388.11
716.082	319.17
716.412	375.35
716.743	347.26
717.074	418.75
717.405	362.58
717.736	416.2
718.066	383.01
718.397	326.83
718.727	403.43
719.058	370.24
719.388	357.47
719.719	457.05
720.049	377.9
720.38	365.13
720.71	370.24
721.04	423.86
721.37	367.69
721.7	393.22
722.031	352.37
722.361	395.77
722.691	400.88
723.021	362.58
723.35	339.6
723.68	344.71
724.01	316.62
724.34	400.88
724.67	370.24
724.999	405.99
725.329	444.29
725.658	423.86
725.988	390.67
726.317	334.49
726.647	357.47
726.976	349.81
727.306	411.09
727.635	416.2
727.964	372.79
728.293	434.07
728.622	395.77
728.952	375.35
729.281	408.54
729.61	385.56
729.939	334.49
730.267	449.39
730.596	454.5
730.925	413.65
731.254	352.37
731.583	347.26
731.911	362.58
732.24	365.13
732.568	334.49
732.897	365.13
733.225	403.43
733.554	411.09
733.882	413.65
734.21	408.54
734.539	403.43
734.867	334.49
735.195	375.35
735.523	314.07
735.851	408.54
736.179	411.09
736.507	403.43
736.835	377.9
737.163	398.33
737.491	357.47
737.819	390.67
738.147	411.09
738.474	495.36
738.802	393.22
739.13	377.9
739.457	390.67
739.785	405.99
740.112	400.88
740.44	380.45
740.767	311.51
741.094	349.81
741.422	362.58
741.749	365.13
742.076	390.67
742.403	405.99
742.73	411.09
743.057	405.99
743.384	393.22
743.711	400.88
744.038	326.83
744.365	411.09
744.692	403.43
745.018	360.03
745.345	441.73
745.672	403.43
745.998	365.13
746.325	370.24
746.651	385.56
746.978	370.24
747.304	360.03
747.631	326.83
747.957	268.1
748.283	418.75
748.61	344.71
748.936	360.03
749.262	357.47
749.588	400.88
749.914	403.43
750.24	372.79
750.566	360.03
750.892	377.9
751.218	487.7
751.543	416.2
751.869	385.56
752.195	278.32
752.521	439.18
752.846	388.11
753.172	393.22
753.497	388.11
753.823	411.09
754.148	352.37
754.473	377.9
754.799	293.64
755.124	377.9
755.449	298.75
755.774	334.49
756.1	398.33
756.425	357.47
756.75	383.01
757.075	334.49
757.4	413.65
757.724	428.97
758.049	444.29
758.374	400.88
758.699	383.01
759.024	405.99
759.348	383.01
759.673	436.63
759.997	375.35
760.322	334.49
760.646	388.11
760.971	390.67
761.295	418.75
761.619	428.97
761.944	423.86
762.268	454.5
762.592	441.73
762.916	490.25
763.24	459.61
763.564	441.73
763.888	503.02
764.212	518.34
764.536	597.49
764.86	689.41
765.184	686.86
765.508	589.83
765.831	648.56
766.155	1085.19
766.478	947.3
766.802	901.34
767.126	857.94
767.449	809.42
767.772	926.88
768.096	1169.45
768.419	1274.14
768.742	1235.83
769.066	937.09
769.389	1128.59
769.712	1350.74
770.035	1567.77
770.358	1496.28
770.681	1327.76
771.004	1248.6
771.327	1539.69
771.65	1846.09
771.972	2264.85
772.295	2139.73
772.618	1983.97
772.941	1920.14
773.263	2165.26
773.586	2859.78
773.908	3092.14
774.231	2821.48
774.553	2272.51
774.875	1986.53
775.198	2282.72
775.52	2701.47
775.842	2622.32
776.164	2321.02
776.487	2096.32
776.809	1973.76
777.131	2494.65
777.453	3186.62
777.775	3393.44
778.096	3071.71
778.418	2688.71
778.74	2724.45
779.062	3641.12
779.384	4619.06
779.705	5009.73
780.027	4276.91
780.348	3508.34
780.67	3710.06
780.991	5012.28
781.313	6345.14
781.634	6245.56
781.955	5180.8
782.277	3653.88
782.598	3380.67
782.919	4251.37
783.24	5124.63
783.561	5236.98
783.882	4764.6
784.203	3799.43
784.524	3281.09
784.845	3952.63
785.166	5050.58
785.487	6161.3
785.807	5888.09
786.128	4210.52
786.449	3166.19
786.769	4016.46
787.09	5262.51
787.41	5992.78
787.731	5727.23
788.051	4299.89
788.372	3592.6
788.692	4542.46
789.012	6378.34
789.332	7164.78
789.653	7001.36
789.973	5709.35
790.293	4606.29
790.613	4522.03
790.933	5400.39
791.253	6738.36
791.573	6991.15
791.893	5888.09
792.212	4294.78
792.532	4636.93
792.852	5428.48
793.171	5400.39
793.491	5609.77
793.811	4889.72
794.13	3748.36
794.45	3633.46
794.769	4162.01
795.088	5824.26
795.408	6475.37
795.727	5392.73
796.046	4253.93
796.365	3567.07
796.684	3944.97
797.004	5816.6
797.323	7522.25
797.642	7693.33
797.96	6033.63
798.279	4123.71
798.598	3628.35
798.917	4506.71
799.236	5313.58
