Data from 2025-12-03_xpw_interference_FLMS141361__22__14-39-09-380.txt Node

Date: Wed Dec 03 14:39:09 MST 2025
User: james
Spectrometer: FLMS14136
Trigger mode: 0
Integration Time (sec): 1.000000E-1
Scans to average: 1
Electric dark correction enabled: true
Nonlinearity correction enabled: false
Boxcar width: 0
XAxis mode: Wavelengths
Number of Pixels in Spectrum: 2048
>>>>>Begin Spectral Data<<<<<
339.315	-41.01
339.697	-41.01
340.079	-41.01
340.461	-81.87
340.843	-56.33
341.225	-112.51
341.607	-125.28
341.989	-69.1
342.371	-117.61
342.752	-74.21
343.134	-61.44
343.516	-79.31
343.897	25.37
344.279	68.78
344.661	7.5
345.042	-20.59
345.423	61.12
345.805	114.74
346.186	160.7
346.567	84.1
346.949	137.72
347.33	173.47
347.711	188.79
348.092	298.59
348.473	224.54
348.854	293.48
349.235	239.86
349.616	237.3
349.997	265.39
350.378	336.89
350.758	339.44
351.139	375.19
351.52	321.57
351.9	296.03
352.281	331.78
352.661	398.17
353.042	400.72
353.422	380.29
353.803	377.74
354.183	339.44
354.563	367.53
354.943	474.77
355.324	398.17
355.704	387.95
356.084	326.67
356.464	428.81
356.844	467.11
357.224	433.91
357.603	387.95
357.983	474.77
358.363	439.02
358.743	410.93
359.122	405.83
359.502	418.59
359.882	349.65
360.261	403.27
360.641	331.78
361.02	359.87
361.399	403.27
361.779	367.53
362.158	313.91
362.537	334.33
362.916	362.42
363.296	390.51
363.675	311.35
364.054	334.33
364.433	400.72
364.812	385.4
365.19	357.31
365.569	370.08
365.948	395.61
366.327	362.42
366.705	308.8
367.084	280.71
367.463	290.93
367.841	303.69
368.22	385.4
368.598	362.42
368.977	319.01
369.355	364.97
369.733	324.12
370.111	390.51
370.49	370.08
370.868	464.56
371.246	359.87
371.624	370.08
372.002	280.71
372.38	311.35
372.758	334.33
373.136	301.14
373.513	367.53
373.891	375.19
374.269	375.19
374.646	390.51
375.024	375.19
375.402	423.7
375.779	344.55
376.157	390.51
376.534	362.42
376.911	313.91
377.289	370.08
377.666	334.33
378.043	290.93
378.42	395.61
378.797	380.29
379.175	393.06
379.552	354.76
379.929	385.4
380.305	405.83
380.682	398.17
381.059	400.72
381.436	385.4
381.813	390.51
382.189	344.55
382.566	341.99
382.943	362.42
383.319	395.61
383.696	362.42
384.072	390.51
384.448	370.08
384.825	303.69
385.201	283.27
385.577	385.4
385.953	382.85
386.329	393.06
386.706	370.08
387.082	339.44
387.458	364.97
387.834	303.69
388.209	308.8
388.585	341.99
388.961	408.38
389.337	359.87
389.713	385.4
390.088	362.42
390.464	339.44
390.839	393.06
391.215	398.17
391.59	324.12
391.966	375.19
392.341	336.89
392.716	298.59
393.092	290.93
393.467	380.29
393.842	400.72
394.217	413.49
394.592	372.63
394.967	410.93
395.342	408.38
395.717	331.78
396.092	308.8
396.467	385.4
396.841	382.85
397.216	326.67
397.591	334.33
397.965	403.27
398.34	370.08
398.714	385.4
399.089	413.49
399.463	380.29
399.838	462
400.212	464.56
400.586	364.97
400.961	451.79
401.335	321.57
401.709	403.27
402.083	395.61
402.457	375.19
402.831	377.74
403.205	395.61
403.579	339.44
403.953	375.19
404.326	344.55
404.7	367.53
405.074	487.54
405.447	331.78
405.821	364.97
406.195	354.76
406.568	382.85
406.942	385.4
407.315	456.9
407.688	395.61
408.062	339.44
408.435	467.11
408.808	359.87
409.181	375.19
409.554	395.61
409.927	372.63
410.3	349.65
410.673	423.7
411.046	319.01
411.419	467.11
411.792	400.72
412.165	326.67
412.537	364.97
412.91	454.34
413.283	344.55
413.655	362.42
414.028	336.89
414.4	364.97
414.773	364.97
415.145	395.61
415.517	395.61
415.889	403.27
416.262	400.72
416.634	446.68
417.006	380.29
417.378	390.51
417.75	467.11
418.122	398.17
418.494	421.15
418.866	393.06
419.238	347.1
419.609	451.79
419.981	418.59
420.353	444.13
420.725	354.76
421.096	347.1
421.468	336.89
421.839	423.7
422.211	421.15
422.582	375.19
422.953	382.85
423.325	357.31
423.696	405.83
424.067	433.91
424.438	380.29
424.809	467.11
425.18	398.17
425.551	416.04
425.922	344.55
426.293	423.7
426.664	385.4
427.035	403.27
427.406	446.68
427.776	405.83
428.147	400.72
428.518	451.79
428.888	380.29
429.259	405.83
429.629	390.51
429.999	382.85
430.37	433.91
430.74	418.59
431.11	385.4
431.481	423.7
431.851	436.47
432.221	375.19
432.591	341.99
432.961	385.4
433.331	390.51
433.701	421.15
434.071	354.76
434.441	390.51
434.81	405.83
435.18	423.7
435.55	393.06
435.919	456.9
436.289	439.02
436.658	431.36
437.028	400.72
437.397	390.51
437.767	364.97
438.136	367.53
438.505	372.63
438.875	331.78
439.244	362.42
439.613	395.61
439.982	387.95
440.351	405.83
440.72	405.83
441.089	385.4
441.458	380.29
441.827	387.95
442.196	467.11
442.564	456.9
442.933	431.36
443.302	423.7
443.67	377.74
444.039	344.55
444.407	400.72
444.776	357.31
445.144	349.65
445.513	393.06
445.881	441.57
446.249	403.27
446.617	418.59
446.986	352.21
447.354	370.08
447.722	433.91
448.09	380.29
448.458	423.7
448.826	426.25
449.194	347.1
449.561	390.51
449.929	377.74
450.297	426.25
450.665	431.36
451.032	403.27
451.4	372.63
451.767	387.95
452.135	400.72
452.502	449.23
452.87	426.25
453.237	390.51
453.604	336.89
453.971	464.56
454.339	398.17
454.706	421.15
455.073	377.74
455.44	347.1
455.807	390.51
456.174	367.53
456.541	428.81
456.908	403.27
457.274	433.91
457.641	367.53
458.008	428.81
458.374	428.81
458.741	395.61
459.108	492.64
459.474	433.91
459.841	423.7
460.207	408.38
460.573	451.79
460.94	469.66
461.306	375.19
461.672	436.47
462.038	403.27
462.404	433.91
462.771	413.49
463.137	370.08
463.503	405.83
463.868	364.97
464.234	354.76
464.6	385.4
464.966	418.59
465.332	370.08
465.697	405.83
466.063	400.72
466.429	380.29
466.794	510.52
467.16	413.49
467.525	421.15
467.89	372.63
468.256	413.49
468.621	398.17
468.986	359.87
469.351	377.74
469.717	421.15
470.082	400.72
470.447	403.27
470.812	362.42
471.177	367.53
471.542	444.13
471.906	403.27
472.271	410.93
472.636	375.19
473.001	387.95
473.365	472.22
473.73	375.19
474.094	372.63
474.459	395.61
474.823	377.74
475.188	377.74
475.552	395.61
475.917	400.72
476.281	385.4
476.645	362.42
477.009	347.1
477.373	359.87
477.737	372.63
478.101	395.61
478.465	359.87
478.829	398.17
479.193	393.06
479.557	385.4
479.921	416.04
480.284	393.06
480.648	413.49
481.012	421.15
481.375	416.04
481.739	416.04
482.102	400.72
482.466	349.65
482.829	428.81
483.193	421.15
483.556	405.83
483.919	413.49
484.282	408.38
484.645	433.91
485.009	444.13
485.372	421.15
485.735	364.97
486.098	469.66
486.46	416.04
486.823	421.15
487.186	423.7
487.549	390.51
487.912	387.95
488.274	446.68
488.637	444.13
488.999	451.79
489.362	382.85
489.724	372.63
490.087	426.25
490.449	400.72
490.811	428.81
491.174	416.04
491.536	410.93
491.898	421.15
492.26	423.7
492.622	464.56
492.984	354.76
493.346	403.27
493.708	393.06
494.07	380.29
494.432	380.29
494.794	431.36
495.155	482.43
495.517	380.29
495.879	433.91
496.24	433.91
496.602	449.23
496.963	444.13
497.325	403.27
497.686	385.4
498.048	472.22
498.409	479.88
498.77	349.65
499.131	293.48
499.492	334.33
499.854	393.06
500.215	454.34
500.576	408.38
500.937	451.79
501.298	354.76
501.658	395.61
502.019	370.08
502.38	387.95
502.741	398.17
503.101	446.68
503.462	395.61
503.823	459.45
504.183	459.45
504.543	474.77
504.904	467.11
505.264	416.04
505.625	439.02
505.985	398.17
506.345	400.72
506.705	441.57
507.065	319.01
507.426	387.95
507.786	387.95
508.146	413.49
508.505	387.95
508.865	387.95
509.225	341.99
509.585	428.81
509.945	405.83
510.304	418.59
510.664	408.38
511.024	390.51
511.383	387.95
511.743	375.19
512.102	377.74
512.462	444.13
512.821	418.59
513.18	428.81
513.539	410.93
513.899	408.38
514.258	441.57
514.617	352.21
514.976	372.63
515.335	403.27
515.694	433.91
516.053	387.95
516.412	426.25
516.771	467.11
517.129	354.76
517.488	426.25
517.847	449.23
518.205	308.8
518.564	385.4
518.922	400.72
519.281	436.47
519.639	387.95
519.998	413.49
520.356	421.15
520.714	428.81
521.073	467.11
521.431	459.45
521.789	395.61
522.147	423.7
522.505	408.38
522.863	421.15
523.221	428.81
523.579	426.25
523.937	492.64
524.295	444.13
524.652	352.21
525.01	398.17
525.368	405.83
525.725	398.17
526.083	451.79
526.44	436.47
526.798	403.27
527.155	400.72
527.513	428.81
527.87	398.17
528.227	400.72
528.584	436.47
528.942	464.56
529.299	403.27
529.656	357.31
530.013	403.27
530.37	405.83
530.727	462
531.083	451.79
531.44	398.17
531.797	385.4
532.154	390.51
532.511	525.84
532.867	423.7
533.224	362.42
533.58	441.57
533.937	423.7
534.293	436.47
534.65	431.36
535.006	456.9
535.362	428.81
535.718	462
536.075	375.19
536.431	418.59
536.787	482.43
537.143	459.45
537.499	398.17
537.855	416.04
538.211	362.42
538.567	413.49
538.923	439.02
539.278	387.95
539.634	400.72
539.99	456.9
540.345	421.15
540.701	423.7
541.056	449.23
541.412	367.53
541.767	405.83
542.123	393.06
542.478	426.25
542.833	403.27
543.188	408.38
543.544	426.25
543.899	487.54
544.254	497.75
544.609	477.32
544.964	367.53
545.319	456.9
545.674	431.36
546.029	421.15
546.383	370.08
546.738	398.17
547.093	380.29
547.447	439.02
547.802	408.38
548.157	393.06
548.511	367.53
548.866	347.1
549.22	393.06
549.574	444.13
549.929	441.57
550.283	418.59
550.637	372.63
550.991	339.44
551.345	395.61
551.699	433.91
552.053	439.02
552.407	405.83
552.761	449.23
553.115	436.47
553.469	410.93
553.823	433.91
554.176	502.86
554.53	423.7
554.884	405.83
555.237	566.69
555.591	436.47
555.944	418.59
556.298	385.4
556.651	426.25
557.005	364.97
557.358	410.93
557.711	362.42
558.064	329.23
558.417	385.4
558.771	467.11
559.124	439.02
559.477	446.68
559.83	413.49
560.182	334.33
560.535	441.57
560.888	408.38
561.241	421.15
561.594	451.79
561.946	472.22
562.299	418.59
562.651	474.77
563.004	398.17
563.356	372.63
563.709	408.38
564.061	464.56
564.413	436.47
564.766	428.81
565.118	339.44
565.47	372.63
565.822	359.87
566.174	410.93
566.526	362.42
566.878	403.27
567.23	446.68
567.582	444.13
567.934	418.59
568.286	462
568.638	431.36
568.989	482.43
569.341	364.97
569.693	423.7
570.044	474.77
570.396	367.53
570.747	341.99
571.098	349.65
571.45	390.51
571.801	410.93
572.152	393.06
572.504	385.4
572.855	387.95
573.206	382.85
573.557	393.06
573.908	436.47
574.259	426.25
574.61	439.02
574.961	390.51
575.311	426.25
575.662	359.87
576.013	410.93
576.364	347.1
576.714	413.49
577.065	410.93
577.415	428.81
577.766	387.95
578.116	408.38
578.467	385.4
578.817	398.17
579.167	382.85
579.518	398.17
579.868	459.45
580.218	410.93
580.568	464.56
580.918	395.61
581.268	362.42
581.618	449.23
581.968	362.42
582.318	431.36
582.668	421.15
583.017	385.4
583.367	393.06
583.717	477.32
584.066	408.38
584.416	387.95
584.765	426.25
585.115	416.04
585.464	451.79
585.814	433.91
586.163	490.09
586.512	467.11
586.862	472.22
587.211	357.31
587.56	395.61
587.909	377.74
588.258	359.87
588.607	408.38
588.956	377.74
589.305	380.29
589.654	413.49
590.002	479.88
590.351	362.42
590.7	372.63
591.048	367.53
591.397	359.87
591.746	408.38
592.094	472.22
592.443	426.25
592.791	439.02
593.139	393.06
593.488	423.7
593.836	459.45
594.184	441.57
594.532	398.17
594.88	456.9
595.228	416.04
595.576	464.56
595.924	454.34
596.272	387.95
596.62	456.9
596.968	364.97
597.316	410.93
597.664	364.97
598.011	398.17
598.359	405.83
598.706	385.4
599.054	347.1
599.402	451.79
599.749	393.06
600.096	370.08
600.444	334.33
600.791	398.17
601.138	341.99
601.485	375.19
601.833	367.53
602.18	370.08
602.527	418.59
602.874	410.93
603.221	431.36
603.568	444.13
603.914	439.02
604.261	362.42
604.608	423.7
604.955	474.77
605.301	405.83
605.648	326.67
605.995	400.72
606.341	334.33
606.688	334.33
607.034	400.72
607.38	403.27
607.727	423.7
608.073	400.72
608.419	359.87
608.765	347.1
609.112	426.25
609.458	344.55
609.804	398.17
610.15	439.02
610.496	372.63
610.842	416.04
611.187	400.72
611.533	413.49
611.879	347.1
612.225	344.55
612.57	421.15
612.916	372.63
613.261	390.51
613.607	387.95
613.952	405.83
614.298	439.02
614.643	405.83
614.989	423.7
615.334	372.63
615.679	405.83
616.024	408.38
616.369	339.44
616.714	410.93
617.059	390.51
617.404	344.55
617.749	347.1
618.094	403.27
618.439	408.38
618.784	474.77
619.129	385.4
619.473	387.95
619.818	370.08
620.163	428.81
620.507	400.72
620.852	390.51
621.196	372.63
621.54	331.78
621.885	464.56
622.229	387.95
622.573	352.21
622.918	410.93
623.262	416.04
623.606	421.15
623.95	418.59
624.294	370.08
624.638	362.42
624.982	400.72
625.326	464.56
625.67	367.53
626.013	408.38
626.357	390.51
626.701	341.99
627.044	344.55
627.388	367.53
627.731	428.81
628.075	362.42
628.418	405.83
628.762	462
629.105	316.46
629.448	347.1
629.792	431.36
630.135	395.61
630.478	428.81
630.821	357.31
631.164	387.95
631.507	423.7
631.85	431.36
632.193	418.59
632.536	362.42
632.879	418.59
633.221	421.15
633.564	423.7
633.907	398.17
634.249	390.51
634.592	418.59
634.935	444.13
635.277	400.72
635.619	413.49
635.962	387.95
636.304	382.85
636.646	380.29
636.989	367.53
637.331	334.33
637.673	367.53
638.015	364.97
638.357	372.63
638.699	449.23
639.041	431.36
639.383	393.06
639.725	364.97
640.067	385.4
640.408	393.06
640.75	454.34
641.092	426.25
641.433	436.47
641.775	405.83
642.116	390.51
642.458	359.87
642.799	456.9
643.141	390.51
643.482	390.51
643.823	377.74
644.164	449.23
644.506	487.54
644.847	423.7
645.188	382.85
645.529	428.81
645.87	444.13
646.211	497.75
646.552	359.87
646.893	395.61
647.233	408.38
647.574	370.08
647.915	364.97
648.255	341.99
648.596	344.55
648.937	382.85
649.277	413.49
649.618	390.51
649.958	523.28
650.298	405.83
650.639	375.19
650.979	344.55
651.319	398.17
651.659	413.49
651.999	339.44
652.339	370.08
652.679	410.93
653.019	347.1
653.359	405.83
653.699	444.13
654.039	495.2
654.379	393.06
654.719	398.17
655.058	385.4
655.398	385.4
655.737	441.57
656.077	451.79
656.416	393.06
656.756	375.19
657.095	339.44
657.435	408.38
657.774	382.85
658.113	410.93
658.452	400.72
658.792	469.66
659.131	393.06
659.47	421.15
659.809	382.85
660.148	377.74
660.487	423.7
660.826	421.15
661.164	439.02
661.503	410.93
661.842	341.99
662.181	451.79
662.519	352.21
662.858	454.34
663.196	413.49
663.535	400.72
663.873	413.49
664.212	390.51
664.55	385.4
664.888	462
665.226	372.63
665.565	354.76
665.903	515.62
666.241	482.43
666.579	377.74
666.917	416.04
667.255	370.08
667.593	451.79
667.931	418.59
668.268	377.74
668.606	385.4
668.944	398.17
669.282	367.53
669.619	341.99
669.957	387.95
670.294	375.19
670.632	418.59
670.969	418.59
671.307	385.4
671.644	428.81
671.981	410.93
672.318	479.88
672.656	428.81
672.993	416.04
673.33	459.45
673.667	449.23
674.004	377.74
674.341	372.63
674.678	405.83
675.015	444.13
675.351	449.23
675.688	413.49
676.025	308.8
676.362	405.83
676.698	354.76
677.035	403.27
677.371	395.61
677.708	387.95
678.044	410.93
678.38	405.83
678.717	354.76
679.053	385.4
679.389	454.34
679.725	418.59
680.062	456.9
680.398	441.57
680.734	426.25
681.07	477.32
681.406	367.53
681.742	441.57
682.077	408.38
682.413	370.08
682.749	410.93
683.085	413.49
683.42	367.53
683.756	387.95
684.091	433.91
684.427	408.38
684.762	375.19
685.098	347.1
685.433	347.1
685.768	354.76
686.104	357.31
686.439	359.87
686.774	454.34
687.109	418.59
687.444	467.11
687.779	357.31
688.114	357.31
688.449	385.4
688.784	464.56
689.119	390.51
689.454	336.89
689.789	393.06
690.123	395.61
690.458	380.29
690.792	423.7
691.127	474.77
691.461	416.04
691.796	446.68
692.13	439.02
692.465	390.51
692.799	344.55
693.133	344.55
693.467	334.33
693.802	372.63
694.136	413.49
694.47	456.9
694.804	349.65
695.138	380.29
695.472	405.83
695.806	375.19
696.139	380.29
696.473	382.85
696.807	439.02
697.141	395.61
697.474	410.93
697.808	433.91
698.141	375.19
698.475	393.06
698.808	400.72
699.142	423.7
699.475	400.72
699.808	421.15
700.142	405.83
700.475	408.38
700.808	349.65
701.141	341.99
701.474	393.06
701.807	364.97
702.14	398.17
702.473	428.81
702.806	436.47
703.139	410.93
703.472	446.68
703.804	352.21
704.137	408.38
704.47	380.29
704.802	418.59
705.135	441.57
705.467	416.04
705.8	408.38
706.132	449.23
706.464	382.85
706.797	418.59
707.129	395.61
707.461	413.49
707.793	403.27
708.125	426.25
708.457	382.85
708.789	451.79
709.121	431.36
709.453	441.57
709.785	380.29
710.117	416.04
710.449	382.85
710.781	377.74
711.112	382.85
711.444	382.85
711.775	329.23
712.107	359.87
712.438	393.06
712.77	441.57
713.101	405.83
713.433	413.49
713.764	362.42
714.095	416.04
714.426	347.1
714.757	446.68
715.089	380.29
715.42	344.55
715.751	364.97
716.082	459.45
716.412	400.72
716.743	408.38
717.074	405.83
717.405	421.15
717.736	387.95
718.066	331.78
718.397	423.7
718.727	375.19
719.058	403.27
719.388	418.59
719.719	395.61
720.049	385.4
720.38	400.72
720.71	395.61
721.04	377.74
721.37	395.61
721.7	359.87
722.031	382.85
722.361	451.79
722.691	347.1
723.021	395.61
723.35	372.63
723.68	339.44
724.01	449.23
724.34	418.59
724.67	405.83
724.999	416.04
725.329	403.27
725.658	367.53
725.988	418.59
726.317	405.83
726.647	390.51
726.976	416.04
727.306	423.7
727.635	362.42
727.964	416.04
728.293	336.89
728.622	329.23
728.952	410.93
729.281	349.65
729.61	380.29
729.939	433.91
730.267	495.2
730.596	418.59
730.925	362.42
731.254	449.23
731.583	380.29
731.911	410.93
732.24	377.74
732.568	421.15
732.897	418.59
733.225	326.67
733.554	341.99
733.882	474.77
734.21	408.38
734.539	423.7
734.867	387.95
735.195	416.04
735.523	421.15
735.851	449.23
736.179	431.36
736.507	444.13
736.835	385.4
737.163	367.53
737.491	347.1
737.819	433.91
738.147	416.04
738.474	421.15
738.802	423.7
739.13	449.23
739.457	416.04
739.785	395.61
740.112	372.63
740.44	405.83
740.767	408.38
741.094	390.51
741.422	375.19
741.749	395.61
742.076	400.72
742.403	439.02
742.73	449.23
743.057	375.19
743.384	349.65
743.711	418.59
744.038	459.45
744.365	525.84
744.692	410.93
745.018	362.42
745.345	367.53
745.672	341.99
745.998	426.25
746.325	377.74
746.651	421.15
746.978	382.85
747.304	451.79
747.631	395.61
747.957	347.1
748.283	367.53
748.61	405.83
748.936	326.67
749.262	364.97
749.588	398.17
749.914	490.09
750.24	359.87
750.566	311.35
750.892	385.4
751.218	377.74
751.543	408.38
751.869	444.13
752.195	400.72
752.521	298.59
752.846	459.45
753.172	393.06
753.497	385.4
753.823	428.81
754.148	382.85
754.473	413.49
754.799	339.44
755.124	329.23
755.449	341.99
755.774	375.19
756.1	385.4
756.425	439.02
756.75	408.38
757.075	405.83
757.4	472.22
757.724	359.87
758.049	428.81
758.374	444.13
758.699	400.72
759.024	352.21
759.348	403.27
759.673	372.63
759.997	441.57
760.322	439.02
760.646	421.15
760.971	507.96
761.295	375.19
761.619	423.7
761.944	474.77
762.268	428.81
762.592	456.9
762.916	451.79
763.24	482.43
763.564	441.57
763.888	428.81
764.212	446.68
764.536	444.13
764.86	454.34
765.184	490.09
765.508	622.86
765.831	630.52
766.155	890.97
766.478	793.94
766.802	816.92
767.126	878.2
767.449	850.12
767.772	867.99
768.096	839.9
768.419	704.57
768.742	663.72
769.066	597.33
769.389	714.79
769.712	781.17
770.035	970.12
770.358	1097.79
770.681	1371
771.004	1434.84
771.327	1677.41
771.65	1807.63
771.972	1759.12
772.295	1766.78
772.618	1575.27
772.941	1332.7
773.263	1138.65
773.586	1021.19
773.908	867.99
774.231	954.8
774.553	1228.02
774.875	1498.67
775.198	1996.58
775.52	2262.13
775.842	2479.17
776.164	2931.12
776.487	3061.34
776.809	2841.75
777.131	2382.14
777.453	2269.79
777.775	1981.26
778.096	1575.27
778.418	1296.96
778.74	1128.43
779.062	1245.89
779.384	1690.18
779.705	2211.07
780.027	2828.98
780.348	3658.83
780.67	4580.6
780.991	4731.25
781.313	5134.68
781.634	4887.01
781.955	4473.36
782.277	4031.62
782.598	3441.79
782.919	2826.43
783.24	2228.94
783.561	1771.88
783.882	1616.13
784.203	1822.95
784.524	2463.85
784.845	3314.13
785.166	3960.13
785.487	4601.03
785.807	5405.34
786.128	6041.13
786.449	6110.07
786.769	6033.47
787.09	5696.43
787.41	4943.18
787.731	4225.68
788.051	3365.19
788.372	2361.72
788.692	1764.22
789.012	1700.39
789.332	1907.21
789.653	2443.42
789.973	3360.09
790.293	4904.88
790.613	6007.94
790.933	6569.68
791.253	6730.54
791.573	6628.41
791.893	6342.43
792.212	5836.86
792.532	5147.45
792.852	4054.6
793.171	3252.84
793.491	2440.87
793.811	1759.12
794.13	1506.33
794.45	1618.68
794.769	2305.54
795.088	2905.58
795.408	3702.24
795.727	5052.98
796.046	6217.32
796.365	7877.01
796.684	8091.5
797.004	8224.27
797.323	7887.23
797.642	7361.23
797.96	6276.04
798.279	4948.29
798.598	3630.74
798.917	2599.18
799.236	1963.39
799.554	1641.66
799.873	1437.39
800.192	1774.44
800.51	2295.33
