Data from 2025-12-03_xpw_interference_micrometer_641_FLMS141361__1__13.txt Node

Date: Wed Dec 03 15:11:39 MST 2025
User: james
Spectrometer: FLMS14136
Trigger mode: 0
Integration Time (sec): 1.000000E-1
Scans to average: 1
Electric dark correction enabled: true
Nonlinearity correction enabled: false
Boxcar width: 0
XAxis mode: Wavelengths
Number of Pixels in Spectrum: 2048
>>>>>Begin Spectral Data<<<<<
339.315	-37.98
339.697	-37.98
340.079	-37.98
340.461	-140.12
340.843	-50.75
341.225	-117.14
341.607	-142.67
341.989	-127.35
342.371	-76.28
342.752	-55.86
343.134	-37.98
343.516	-76.28
343.897	-58.41
344.279	-2.23
344.661	33.51
345.042	71.81
345.423	125.43
345.805	133.09
346.186	120.33
346.567	82.03
346.949	127.99
347.33	158.63
347.711	189.27
348.092	186.72
348.473	209.7
348.854	273.53
349.235	242.89
349.616	268.42
349.997	332.26
350.378	319.49
350.758	232.68
351.139	319.49
351.52	368.01
351.9	375.67
352.281	337.37
352.661	390.99
353.042	327.15
353.422	362.9
353.803	401.2
354.183	424.18
354.563	388.43
354.943	373.11
355.324	370.56
355.704	373.11
356.084	401.2
356.464	378.22
356.844	477.8
357.224	362.9
357.603	329.7
357.983	306.72
358.363	332.26
358.743	350.13
359.122	380.77
359.502	419.07
359.882	383.33
360.261	334.81
360.641	393.54
361.02	332.26
361.399	388.43
361.779	390.99
362.158	334.81
362.537	370.56
362.916	319.49
363.296	347.58
363.675	368.01
364.054	360.35
364.433	398.65
364.812	342.47
365.19	362.9
365.569	337.37
365.948	362.9
366.327	337.37
366.705	365.45
367.084	334.81
367.463	373.11
367.841	309.28
368.22	337.37
368.598	360.35
368.977	339.92
369.355	334.81
369.733	296.51
370.111	337.37
370.49	352.69
370.868	311.83
371.246	406.31
371.624	337.37
372.002	352.69
372.38	324.6
372.758	396.09
373.136	339.92
373.513	327.15
373.891	355.24
374.269	304.17
374.646	329.7
375.024	357.79
375.402	362.9
375.779	309.28
376.157	360.35
376.534	306.72
376.911	296.51
377.289	406.31
377.666	408.86
378.043	291.4
378.42	373.11
378.797	383.33
379.175	339.92
379.552	347.58
379.929	380.77
380.305	365.45
380.682	334.81
381.059	296.51
381.436	368.01
381.813	327.15
382.189	345.03
382.566	360.35
382.943	311.83
383.319	337.37
383.696	383.33
384.072	355.24
384.448	393.54
384.825	370.56
385.201	413.97
385.577	431.84
385.953	324.6
386.329	401.2
386.706	362.9
387.082	309.28
387.458	368.01
387.834	380.77
388.209	378.22
388.585	350.13
388.961	378.22
389.337	362.9
389.713	286.3
390.088	419.07
390.464	347.58
390.839	362.9
391.215	319.49
391.59	388.43
391.966	388.43
392.341	311.83
392.716	360.35
393.092	347.58
393.467	352.69
393.842	347.58
394.217	350.13
394.592	327.15
394.967	388.43
395.342	380.77
395.717	373.11
396.092	408.86
396.467	383.33
396.841	383.33
397.216	383.33
397.591	370.56
397.965	352.69
398.34	375.67
398.714	370.56
399.089	401.2
399.463	362.9
399.838	293.96
400.212	370.56
400.586	368.01
400.961	373.11
401.335	436.95
401.709	293.96
402.083	373.11
402.457	362.9
402.831	350.13
403.205	355.24
403.579	396.09
403.953	503.33
404.326	416.52
404.7	408.86
405.074	375.67
405.447	421.63
405.821	357.79
406.195	365.45
406.568	383.33
406.942	436.95
407.315	388.43
407.688	352.69
408.062	319.49
408.435	355.24
408.808	339.92
409.181	383.33
409.554	431.84
409.927	327.15
410.3	406.31
410.673	301.62
411.046	370.56
411.419	393.54
411.792	403.75
412.165	436.95
412.537	355.24
412.91	439.5
413.283	452.27
413.655	360.35
414.028	426.73
414.4	436.95
414.773	398.65
415.145	398.65
415.517	398.65
415.889	314.38
416.262	411.41
416.634	357.79
417.006	408.86
417.378	368.01
417.75	411.41
418.122	383.33
418.494	352.69
418.866	378.22
419.238	393.54
419.609	424.18
419.981	436.95
420.353	431.84
420.725	373.11
421.096	360.35
421.468	350.13
421.839	411.41
422.211	388.43
422.582	411.41
422.953	413.97
423.325	419.07
423.696	357.79
424.067	419.07
424.438	362.9
424.809	447.16
425.18	398.65
425.551	444.61
425.922	383.33
426.293	380.77
426.664	390.99
427.035	393.54
427.406	416.52
427.776	365.45
428.147	368.01
428.518	368.01
428.888	436.95
429.259	380.77
429.629	416.52
429.999	459.93
430.37	362.9
430.74	467.59
431.11	408.86
431.481	355.24
431.851	434.39
432.221	411.41
432.591	411.41
432.961	408.86
433.331	385.88
433.701	447.16
434.071	403.75
434.441	413.97
434.81	368.01
435.18	416.52
435.55	350.13
435.919	390.99
436.289	390.99
436.658	378.22
437.028	436.95
437.397	413.97
437.767	388.43
438.136	357.79
438.505	337.37
438.875	355.24
439.244	385.88
439.613	403.75
439.982	444.61
440.351	383.33
440.72	411.41
441.089	513.55
441.458	493.12
441.827	482.91
442.196	390.99
442.564	465.03
442.933	337.37
443.302	434.39
443.67	327.15
444.039	393.54
444.407	431.84
444.776	362.9
445.144	401.2
445.513	378.22
445.881	385.88
446.249	347.58
446.617	431.84
446.986	449.71
447.354	398.65
447.722	442.05
448.09	424.18
448.458	403.75
448.826	347.58
449.194	357.79
449.561	327.15
449.929	426.73
450.297	406.31
450.665	419.07
451.032	413.97
451.4	388.43
451.767	442.05
452.135	350.13
452.502	429.29
452.87	380.77
453.237	357.79
453.604	393.54
453.971	373.11
454.339	444.61
454.706	444.61
455.073	408.86
455.44	457.37
455.807	396.09
456.174	390.99
456.541	452.27
456.908	352.69
457.274	319.49
457.641	390.99
458.008	388.43
458.374	419.07
458.741	426.73
459.108	444.61
459.474	439.5
459.841	424.18
460.207	449.71
460.573	406.31
460.94	375.67
461.306	413.97
461.672	390.99
462.038	408.86
462.404	431.84
462.771	406.31
463.137	390.99
463.503	434.39
463.868	413.97
464.234	383.33
464.6	411.41
464.966	424.18
465.332	426.73
465.697	426.73
466.063	421.63
466.429	383.33
466.794	370.56
467.16	462.48
467.525	447.16
467.89	332.26
468.256	401.2
468.621	449.71
468.986	383.33
469.351	421.63
469.717	350.13
470.082	398.65
470.447	378.22
470.812	421.63
471.177	342.47
471.542	368.01
471.906	444.61
472.271	419.07
472.636	368.01
473.001	436.95
473.365	454.82
473.73	380.77
474.094	388.43
474.459	352.69
474.823	390.99
475.188	365.45
475.552	322.04
475.917	439.5
476.281	457.37
476.645	429.29
477.009	436.95
477.373	365.45
477.737	373.11
478.101	390.99
478.465	403.75
478.829	416.52
479.193	421.63
479.557	416.52
479.921	419.07
480.284	431.84
480.648	406.31
481.012	505.89
481.375	513.55
481.739	424.18
482.102	388.43
482.466	416.52
482.829	426.73
483.193	327.15
483.556	406.31
483.919	424.18
484.282	365.45
484.645	390.99
485.009	368.01
485.372	406.31
485.735	360.35
486.098	421.63
486.46	393.54
486.823	362.9
487.186	365.45
487.549	383.33
487.912	429.29
488.274	396.09
488.637	426.73
488.999	370.56
489.362	396.09
489.724	413.97
490.087	360.35
490.449	482.91
490.811	444.61
491.174	385.88
491.536	467.59
491.898	393.54
492.26	368.01
492.622	411.41
492.984	442.05
493.346	467.59
493.708	324.6
494.07	454.82
494.432	383.33
494.794	378.22
495.155	401.2
495.517	385.88
495.879	360.35
496.24	293.96
496.602	403.75
496.963	383.33
497.325	385.88
497.686	424.18
498.048	477.8
498.409	370.56
498.77	447.16
499.131	462.48
499.492	462.48
499.854	375.67
500.215	388.43
500.576	370.56
500.937	398.65
501.298	429.29
501.658	431.84
502.019	398.65
502.38	444.61
502.741	419.07
503.101	429.29
503.462	454.82
503.823	393.54
504.183	401.2
504.543	352.69
504.904	368.01
505.264	396.09
505.625	457.37
505.985	413.97
506.345	401.2
506.705	342.47
507.065	421.63
507.426	457.37
507.786	385.88
508.146	393.54
508.505	304.17
508.865	419.07
509.225	396.09
509.585	436.95
509.945	436.95
510.304	431.84
510.664	475.25
511.024	396.09
511.383	416.52
511.743	360.35
512.102	373.11
512.462	436.95
512.821	380.77
513.18	401.2
513.539	352.69
513.899	411.41
514.258	503.33
514.617	383.33
514.976	459.93
515.335	442.05
515.694	403.75
516.053	388.43
516.412	447.16
516.771	347.58
517.129	383.33
517.488	416.52
517.847	500.78
518.205	380.77
518.564	454.82
518.922	396.09
519.281	411.41
519.639	408.86
519.998	393.54
520.356	365.45
520.714	426.73
521.073	419.07
521.431	424.18
521.789	406.31
522.147	406.31
522.505	416.52
522.863	403.75
523.221	416.52
523.579	365.45
523.937	293.96
524.295	370.56
524.652	390.99
525.01	370.56
525.368	447.16
525.725	426.73
526.083	459.93
526.44	434.39
526.798	368.01
527.155	426.73
527.513	370.56
527.87	393.54
528.227	390.99
528.584	357.79
528.942	390.99
529.299	352.69
529.656	436.95
530.013	429.29
530.37	393.54
530.727	444.61
531.083	385.88
531.44	447.16
531.797	475.25
532.154	401.2
532.511	442.05
532.867	493.12
533.224	390.99
533.58	462.48
533.937	444.61
534.293	403.75
534.65	378.22
535.006	368.01
535.362	419.07
535.718	421.63
536.075	390.99
536.431	352.69
536.787	388.43
537.143	408.86
537.499	408.86
537.855	434.39
538.211	385.88
538.567	362.9
538.923	470.14
539.278	393.54
539.634	396.09
539.99	411.41
540.345	411.41
540.701	439.5
541.056	416.52
541.412	334.81
541.767	347.58
542.123	368.01
542.478	383.33
542.833	401.2
543.188	390.99
543.544	424.18
543.899	332.26
544.254	299.06
544.609	373.11
544.964	444.61
545.319	370.56
545.674	411.41
546.029	459.93
546.383	390.99
546.738	401.2
547.093	403.75
547.447	465.03
547.802	424.18
548.157	408.86
548.511	378.22
548.866	442.05
549.22	431.84
549.574	488.01
549.929	470.14
550.283	495.67
550.637	413.97
550.991	393.54
551.345	426.73
551.699	398.65
552.053	396.09
552.407	406.31
552.761	436.95
553.115	345.03
553.469	490.57
553.823	421.63
554.176	345.03
554.53	345.03
554.884	442.05
555.237	623.34
555.591	419.07
555.944	472.69
556.298	431.84
556.651	398.65
557.005	383.33
557.358	449.71
557.711	373.11
558.064	439.5
558.417	373.11
558.771	554.4
559.124	454.82
559.477	442.05
559.83	362.9
560.182	375.67
560.535	429.29
560.888	436.95
561.241	408.86
561.594	452.27
561.946	416.52
562.299	408.86
562.651	457.37
563.004	439.5
563.356	378.22
563.709	375.67
564.061	403.75
564.413	385.88
564.766	357.79
565.118	383.33
565.47	390.99
565.822	401.2
566.174	350.13
566.526	408.86
566.878	411.41
567.23	368.01
567.582	357.79
567.934	424.18
568.286	383.33
568.638	373.11
568.989	439.5
569.341	475.25
569.693	396.09
570.044	436.95
570.396	421.63
570.747	419.07
571.098	416.52
571.45	396.09
571.801	390.99
572.152	449.71
572.504	398.65
572.855	467.59
573.206	411.41
573.557	424.18
573.908	429.29
574.259	505.89
574.61	436.95
574.961	434.39
575.311	457.37
575.662	408.86
576.013	472.69
576.364	390.99
576.714	401.2
577.065	406.31
577.415	383.33
577.766	357.79
578.116	408.86
578.467	429.29
578.817	334.81
579.167	350.13
579.518	393.54
579.868	419.07
580.218	439.5
580.568	442.05
580.918	393.54
581.268	360.35
581.618	449.71
581.968	388.43
582.318	322.04
582.668	360.35
583.017	413.97
583.367	449.71
583.717	378.22
584.066	350.13
584.416	413.97
584.765	411.41
585.115	398.65
585.464	393.54
585.814	368.01
586.163	370.56
586.512	419.07
586.862	403.75
587.211	411.41
587.56	316.94
587.909	424.18
588.258	419.07
588.607	380.77
588.956	413.97
589.305	413.97
589.654	360.35
590.002	368.01
590.351	373.11
590.7	370.56
591.048	462.48
591.397	444.61
591.746	480.35
592.094	442.05
592.443	352.69
592.791	383.33
593.139	375.67
593.488	332.26
593.836	311.83
594.184	421.63
594.532	442.05
594.88	457.37
595.228	416.52
595.576	375.67
595.924	434.39
596.272	322.04
596.62	396.09
596.968	431.84
597.316	385.88
597.664	452.27
598.011	365.45
598.359	375.67
598.706	413.97
599.054	426.73
599.402	465.03
599.749	416.52
600.096	467.59
600.444	401.2
600.791	482.91
601.138	436.95
601.485	365.45
601.833	421.63
602.18	429.29
602.527	362.9
602.874	421.63
603.221	401.2
603.568	434.39
603.914	403.75
604.261	467.59
604.608	378.22
604.955	383.33
605.301	370.56
605.648	421.63
605.995	396.09
606.341	357.79
606.688	385.88
607.034	403.75
607.38	444.61
607.727	385.88
608.073	388.43
608.419	431.84
608.765	375.67
609.112	350.13
609.458	406.31
609.804	408.86
610.15	342.47
610.496	355.24
610.842	424.18
611.187	467.59
611.533	459.93
611.879	339.92
612.225	421.63
612.57	488.01
612.916	370.56
613.261	434.39
613.607	393.54
613.952	373.11
614.298	462.48
614.643	475.25
614.989	482.91
615.334	436.95
615.679	390.99
616.024	419.07
616.369	447.16
616.714	403.75
617.059	452.27
617.404	429.29
617.749	459.93
618.094	406.31
618.439	442.05
618.784	403.75
619.129	429.29
619.473	316.94
619.818	350.13
620.163	388.43
620.507	385.88
620.852	347.58
621.196	352.69
621.54	378.22
621.885	398.65
622.229	488.01
622.573	408.86
622.918	390.99
623.262	378.22
623.606	403.75
623.95	375.67
624.294	388.43
624.638	332.26
624.982	398.65
625.326	360.35
625.67	360.35
626.013	311.83
626.357	370.56
626.701	419.07
627.044	393.54
627.388	398.65
627.731	406.31
628.075	439.5
628.418	424.18
628.762	390.99
629.105	429.29
629.448	416.52
629.792	434.39
630.135	355.24
630.478	373.11
630.821	347.58
631.164	350.13
631.507	411.41
631.85	324.6
632.193	396.09
632.536	449.71
632.879	362.9
633.221	439.5
633.564	411.41
633.907	488.01
634.249	465.03
634.592	334.81
634.935	434.39
635.277	449.71
635.619	442.05
635.962	380.77
636.304	360.35
636.646	355.24
636.989	393.54
637.331	378.22
637.673	429.29
638.015	362.9
638.357	442.05
638.699	411.41
639.041	398.65
639.383	449.71
639.725	401.2
640.067	342.47
640.408	362.9
640.75	357.79
641.092	434.39
641.433	403.75
641.775	380.77
642.116	401.2
642.458	434.39
642.799	360.35
643.141	360.35
643.482	408.86
643.823	393.54
644.164	350.13
644.506	490.57
644.847	434.39
645.188	419.07
645.529	447.16
645.87	424.18
646.211	373.11
646.552	431.84
646.893	393.54
647.233	406.31
647.574	350.13
647.915	360.35
648.255	424.18
648.596	355.24
648.937	396.09
649.277	362.9
649.618	429.29
649.958	436.95
650.298	385.88
650.639	365.45
650.979	442.05
651.319	398.65
651.659	467.59
651.999	396.09
652.339	345.03
652.679	393.54
653.019	439.5
653.359	375.67
653.699	472.69
654.039	431.84
654.379	365.45
654.719	373.11
655.058	365.45
655.398	378.22
655.737	424.18
656.077	380.77
656.416	401.2
656.756	406.31
657.095	419.07
657.435	406.31
657.774	465.03
658.113	398.65
658.452	431.84
658.792	439.5
659.131	396.09
659.47	411.41
659.809	316.94
660.148	373.11
660.487	419.07
660.826	375.67
661.164	459.93
661.503	413.97
661.842	426.73
662.181	408.86
662.519	421.63
662.858	337.37
663.196	406.31
663.535	370.56
663.873	413.97
664.212	434.39
664.55	383.33
664.888	401.2
665.226	383.33
665.565	396.09
665.903	666.75
666.241	462.48
666.579	388.43
666.917	457.37
667.255	375.67
667.593	373.11
667.931	434.39
668.268	449.71
668.606	452.27
668.944	421.63
669.282	365.45
669.619	436.95
669.957	419.07
670.294	357.79
670.632	408.86
670.969	406.31
671.307	442.05
671.644	373.11
671.981	429.29
672.318	419.07
672.656	416.52
672.993	383.33
673.33	426.73
673.667	419.07
674.004	408.86
674.341	411.41
674.678	452.27
675.015	442.05
675.351	403.75
675.688	449.71
676.025	449.71
676.362	419.07
676.698	408.86
677.035	493.12
677.371	424.18
677.708	419.07
678.044	368.01
678.38	398.65
678.717	424.18
679.053	360.35
679.389	429.29
679.725	475.25
680.062	424.18
680.398	370.56
680.734	316.94
681.07	337.37
681.406	350.13
681.742	411.41
682.077	383.33
682.413	424.18
682.749	470.14
683.085	362.9
683.42	413.97
683.756	401.2
684.091	498.23
684.427	373.11
684.762	390.99
685.098	385.88
685.433	362.9
685.768	390.99
686.104	401.2
686.439	322.04
686.774	345.03
687.109	416.52
687.444	408.86
687.779	342.47
688.114	370.56
688.449	329.7
688.784	436.95
689.119	403.75
689.454	462.48
689.789	449.71
690.123	393.54
690.458	416.52
690.792	396.09
691.127	393.54
691.461	434.39
691.796	314.38
692.13	406.31
692.465	416.52
692.799	365.45
693.133	345.03
693.467	431.84
693.802	355.24
694.136	380.77
694.47	401.2
694.804	380.77
695.138	373.11
695.472	390.99
695.806	352.69
696.139	373.11
696.473	347.58
696.807	375.67
697.141	378.22
697.474	355.24
697.808	462.48
698.141	449.71
698.475	365.45
698.808	383.33
699.142	375.67
699.475	342.47
699.808	403.75
700.142	365.45
700.475	426.73
700.808	411.41
701.141	396.09
701.474	442.05
701.807	406.31
702.14	411.41
702.473	378.22
702.806	355.24
703.139	419.07
703.472	416.52
703.804	413.97
704.137	342.47
704.47	370.56
704.802	347.58
705.135	360.35
705.467	355.24
705.8	334.81
706.132	378.22
706.464	388.43
706.797	393.54
707.129	457.37
707.461	426.73
707.793	424.18
708.125	316.94
708.457	324.6
708.789	339.92
709.121	411.41
709.453	370.56
709.785	413.97
710.117	385.88
710.449	413.97
710.781	357.79
711.112	403.75
711.444	472.69
711.775	390.99
712.107	380.77
712.438	398.65
712.77	401.2
713.101	378.22
713.433	362.9
713.764	419.07
714.095	383.33
714.426	449.71
714.757	419.07
715.089	375.67
715.42	368.01
715.751	396.09
716.082	398.65
716.412	393.54
716.743	360.35
717.074	459.93
717.405	431.84
717.736	337.37
718.066	401.2
718.397	383.33
718.727	398.65
719.058	362.9
719.388	368.01
719.719	362.9
720.049	467.59
720.38	383.33
720.71	360.35
721.04	352.69
721.37	350.13
721.7	390.99
722.031	375.67
722.361	362.9
722.691	426.73
723.021	490.57
723.35	419.07
723.68	390.99
724.01	442.05
724.34	416.52
724.67	316.94
724.999	383.33
725.329	373.11
725.658	419.07
725.988	375.67
726.317	480.35
726.647	411.41
726.976	360.35
727.306	454.82
727.635	411.41
727.964	368.01
728.293	413.97
728.622	439.5
728.952	396.09
729.281	413.97
729.61	337.37
729.939	472.69
730.267	368.01
730.596	360.35
730.925	339.92
731.254	362.9
731.583	439.5
731.911	403.75
732.24	357.79
732.568	393.54
732.897	416.52
733.225	362.9
733.554	411.41
733.882	362.9
734.21	431.84
734.539	350.13
734.867	365.45
735.195	424.18
735.523	416.52
735.851	434.39
736.179	327.15
736.507	426.73
736.835	334.81
737.163	360.35
737.491	472.69
737.819	434.39
738.147	385.88
738.474	380.77
738.802	373.11
739.13	357.79
739.457	350.13
739.785	411.41
740.112	393.54
740.44	380.77
740.767	408.86
741.094	383.33
741.422	378.22
741.749	375.67
742.076	454.82
742.403	408.86
742.73	390.99
743.057	444.61
743.384	411.41
743.711	416.52
744.038	413.97
744.365	465.03
744.692	401.2
745.018	444.61
745.345	421.63
745.672	365.45
745.998	396.09
746.325	398.65
746.651	477.8
746.978	419.07
747.304	380.77
747.631	396.09
747.957	352.69
748.283	355.24
748.61	352.69
748.936	368.01
749.262	457.37
749.588	396.09
749.914	360.35
750.24	426.73
750.566	413.97
750.892	411.41
751.218	416.52
751.543	368.01
751.869	452.27
752.195	385.88
752.521	276.08
752.846	360.35
753.172	393.54
753.497	342.47
753.823	365.45
754.148	429.29
754.473	413.97
754.799	365.45
755.124	390.99
755.449	482.91
755.774	383.33
756.1	411.41
756.425	406.31
756.75	465.03
757.075	352.69
757.4	406.31
757.724	424.18
758.049	365.45
758.374	406.31
758.699	339.92
759.024	436.95
759.348	426.73
759.673	396.09
759.997	436.95
760.322	424.18
760.646	452.27
760.971	421.63
761.295	452.27
761.619	457.37
761.944	436.95
762.268	393.54
762.592	459.93
762.916	424.18
763.24	477.8
763.564	513.55
763.888	518.65
764.212	613.13
764.536	569.72
764.86	579.94
765.184	536.53
765.508	641.22
765.831	633.56
766.155	896.55
766.478	906.77
766.802	952.73
767.126	814.85
767.449	863.36
767.772	840.38
768.096	911.88
768.419	1113.59
768.742	1259.13
769.066	1289.78
769.389	1205.51
769.712	1113.59
770.035	1139.13
770.358	1322.97
770.681	1741.72
771.004	1986.85
771.327	2012.38
771.65	1708.53
771.972	1417.44
772.295	1381.7
772.618	1897.48
772.941	2288.15
773.263	2783.5
773.586	2765.63
773.908	2323.89
774.231	1846.41
774.553	1476.17
774.875	1713.64
775.198	2198.78
775.52	2811.59
775.842	2980.11
776.164	2520.5
776.487	2009.83
776.809	1823.43
777.131	1910.25
777.453	2607.32
777.775	3117.99
778.096	2959.68
778.418	2770.73
778.74	2523.06
779.062	2283.04
779.384	2752.86
779.705	3444.83
780.027	4147.01
780.348	4504.48
780.67	4430.43
780.991	3720.59
781.313	3110.33
781.634	3089.91
781.955	3682.29
782.277	4864.5
782.598	5648.39
782.919	5400.71
783.24	4251.69
783.561	3117.99
783.882	2569.02
784.203	3105.23
784.524	4006.57
784.845	4575.97
785.166	4432.98
785.487	3970.82
785.807	3416.74
786.128	2803.93
786.449	2921.38
786.769	3978.48
787.09	5303.69
787.41	6284.18
787.731	6120.77
788.051	4795.56
788.372	3434.61
788.692	3161.4
789.012	4116.36
789.332	5382.84
789.653	6692.72
789.973	6776.98
790.293	6207.58
790.613	4570.87
790.933	3294.18
791.253	3335.03
791.573	4512.14
791.893	5426.25
792.212	6340.36
792.532	6519.09
792.852	4844.08
793.171	3373.33
793.491	2900.96
793.811	3674.63
794.13	5668.82
794.45	7420.44
794.769	7813.66
795.088	7221.27
795.408	5145.38
795.727	3462.7
796.046	2954.58
796.365	3529.09
796.684	4964.09
797.004	6825.5
797.323	7445.97
797.642	5822.02
797.96	3664.42
798.279	2620.09
798.598	2354.53
798.917	3227.79
799.236	4049.98
