Data from 2025-12-03_xpw_interference_FLMS141361__20__14-39-07-279.txt Node

Date: Wed Dec 03 14:39:07 MST 2025
User: james
Spectrometer: FLMS14136
Trigger mode: 0
Integration Time (sec): 1.000000E-1
Scans to average: 1
Electric dark correction enabled: true
Nonlinearity correction enabled: false
Boxcar width: 0
XAxis mode: Wavelengths
Number of Pixels in Spectrum: 2048
>>>>>Begin Spectral Data<<<<<
339.315	-89.21
339.697	-89.21
340.079	-89.21
340.461	-76.44
340.843	-84.1
341.225	-86.66
341.607	-119.85
341.989	-140.28
342.371	-58.57
342.752	-89.21
343.134	-68.78
343.516	-66.23
343.897	51.23
344.279	15.48
344.661	97.19
345.042	15.48
345.423	-12.61
345.805	35.91
346.186	99.74
346.567	130.38
346.949	196.77
347.33	171.24
347.711	176.34
348.092	135.49
348.473	201.88
348.854	235.07
349.235	263.16
349.616	199.32
349.997	245.28
350.378	288.69
350.758	337.21
351.139	324.44
351.52	355.08
351.9	326.99
352.281	342.31
352.661	337.21
353.042	416.36
353.422	309.12
353.803	383.17
354.183	375.51
354.563	383.17
354.943	324.44
355.324	449.55
355.704	344.87
356.084	380.61
356.464	416.36
356.844	406.15
357.224	372.95
357.603	370.4
357.983	372.95
358.363	355.08
358.743	380.61
359.122	411.25
359.502	337.21
359.882	370.4
360.261	334.65
360.641	342.31
361.02	265.71
361.399	316.78
361.779	347.42
362.158	441.89
362.537	334.65
362.916	357.63
363.296	372.95
363.675	388.27
364.054	352.53
364.433	360.19
364.812	367.85
365.19	365.29
365.569	316.78
365.948	360.19
366.327	311.67
366.705	281.03
367.084	324.44
367.463	326.99
367.841	306.56
368.22	375.51
368.598	268.26
368.977	370.4
369.355	424.02
369.733	367.85
370.111	329.55
370.49	321.89
370.868	326.99
371.246	375.51
371.624	357.63
372.002	326.99
372.38	339.76
372.758	326.99
373.136	344.87
373.513	352.53
373.891	372.95
374.269	362.74
374.646	434.23
375.024	370.4
375.402	309.12
375.779	339.76
376.157	421.47
376.534	385.72
376.911	383.17
377.289	342.31
377.666	342.31
378.043	301.46
378.42	324.44
378.797	416.36
379.175	344.87
379.552	411.25
379.929	370.4
380.305	293.8
380.682	309.12
381.059	334.65
381.436	347.42
381.813	326.99
382.189	411.25
382.566	352.53
382.943	314.23
383.319	337.21
383.696	337.21
384.072	326.99
384.448	426.57
384.825	370.4
385.201	306.56
385.577	357.63
385.953	372.95
386.329	324.44
386.706	434.23
387.082	393.38
387.458	362.74
387.834	288.69
388.209	278.48
388.585	385.72
388.961	355.08
389.337	380.61
389.713	367.85
390.088	342.31
390.464	380.61
390.839	349.97
391.215	337.21
391.59	321.89
391.966	339.76
392.341	408.7
392.716	316.78
393.092	332.1
393.467	324.44
393.842	357.63
394.217	449.55
394.592	429.13
394.967	360.19
395.342	395.93
395.717	383.17
396.092	449.55
396.467	367.85
396.841	372.95
397.216	319.33
397.591	355.08
397.965	378.06
398.34	393.38
398.714	365.29
399.089	372.95
399.463	360.19
399.838	378.06
400.212	385.72
400.586	385.72
400.961	360.19
401.335	378.06
401.709	408.7
402.083	355.08
402.457	349.97
402.831	367.85
403.205	413.81
403.579	367.85
403.953	370.4
404.326	362.74
404.7	367.85
405.074	395.93
405.447	321.89
405.821	378.06
406.195	329.55
406.568	429.13
406.942	426.57
407.315	411.25
407.688	418.91
408.062	347.42
408.435	372.95
408.808	390.83
409.181	424.02
409.554	418.91
409.927	367.85
410.3	390.83
410.673	352.53
411.046	385.72
411.419	342.31
411.792	403.59
412.165	342.31
412.537	426.57
412.91	395.93
413.283	411.25
413.655	344.87
414.028	334.65
414.4	349.97
414.773	360.19
415.145	347.42
415.517	406.15
415.889	365.29
416.262	357.63
416.634	326.99
417.006	393.38
417.378	421.47
417.75	411.25
418.122	352.53
418.494	347.42
418.866	431.68
419.238	408.7
419.609	367.85
419.981	365.29
420.353	372.95
420.725	352.53
421.096	464.87
421.468	337.21
421.839	426.57
422.211	447
422.582	334.65
422.953	452.11
423.325	408.7
423.696	411.25
424.067	431.68
424.438	334.65
424.809	378.06
425.18	362.74
425.551	372.95
425.922	413.81
426.293	395.93
426.664	403.59
427.035	406.15
427.406	370.4
427.776	406.15
428.147	411.25
428.518	390.83
428.888	380.61
429.259	372.95
429.629	390.83
429.999	352.53
430.37	393.38
430.74	388.27
431.11	431.68
431.481	378.06
431.851	421.47
432.221	406.15
432.591	398.49
432.961	393.38
433.331	388.27
433.701	434.23
434.071	380.61
434.441	413.81
434.81	365.29
435.18	434.23
435.55	390.83
435.919	444.45
436.289	380.61
436.658	426.57
437.028	390.83
437.397	408.7
437.767	447
438.136	347.42
438.505	385.72
438.875	413.81
439.244	408.7
439.613	349.97
439.982	434.23
440.351	411.25
440.72	395.93
441.089	398.49
441.458	388.27
441.827	401.04
442.196	367.85
442.564	503.18
442.933	383.17
443.302	418.91
443.67	367.85
444.039	413.81
444.407	388.27
444.776	360.19
445.144	398.49
445.513	332.1
445.881	395.93
446.249	362.74
446.617	357.63
446.986	434.23
447.354	406.15
447.722	349.97
448.09	344.87
448.458	362.74
448.826	360.19
449.194	390.83
449.561	393.38
449.929	339.76
450.297	365.29
450.665	403.59
451.032	469.98
451.4	385.72
451.767	362.74
452.135	426.57
452.502	436.79
452.87	444.45
453.237	533.82
453.604	441.89
453.971	411.25
454.339	401.04
454.706	390.83
455.073	383.17
455.44	383.17
455.807	434.23
456.174	495.51
456.541	424.02
456.908	406.15
457.274	380.61
457.641	395.93
458.008	385.72
458.374	390.83
458.741	406.15
459.108	372.95
459.474	344.87
459.841	395.93
460.207	398.49
460.573	395.93
460.94	426.57
461.306	421.47
461.672	421.47
462.038	408.7
462.404	304.01
462.771	395.93
463.137	388.27
463.503	388.27
463.868	337.21
464.234	365.29
464.6	375.51
464.966	403.59
465.332	388.27
465.697	403.59
466.063	447
466.429	467.43
466.794	395.93
467.16	424.02
467.525	401.04
467.89	426.57
468.256	421.47
468.621	447
468.986	395.93
469.351	393.38
469.717	380.61
470.082	326.99
470.447	390.83
470.812	380.61
471.177	467.43
471.542	408.7
471.906	418.91
472.271	418.91
472.636	418.91
473.001	370.4
473.365	337.21
473.73	454.66
474.094	424.02
474.459	449.55
474.823	393.38
475.188	393.38
475.552	309.12
475.917	375.51
476.281	367.85
476.645	411.25
477.009	375.51
477.373	357.63
477.737	421.47
478.101	388.27
478.465	357.63
478.829	406.15
479.193	388.27
479.557	403.59
479.921	383.17
480.284	418.91
480.648	406.15
481.012	454.66
481.375	406.15
481.739	452.11
482.102	439.34
482.466	436.79
482.829	436.79
483.193	355.08
483.556	464.87
483.919	434.23
484.282	360.19
484.645	395.93
485.009	406.15
485.372	365.29
485.735	375.51
486.098	378.06
486.46	304.01
486.823	288.69
487.186	273.37
487.549	390.83
487.912	362.74
488.274	416.36
488.637	454.66
488.999	426.57
489.362	367.85
489.724	431.68
490.087	370.4
490.449	355.08
490.811	441.89
491.174	378.06
491.536	393.38
491.898	372.95
492.26	380.61
492.622	383.17
492.984	362.74
493.346	380.61
493.708	385.72
494.07	408.7
494.432	406.15
494.794	390.83
495.155	429.13
495.517	431.68
495.879	357.63
496.24	426.57
496.602	429.13
496.963	475.09
497.325	367.85
497.686	418.91
498.048	421.47
498.409	398.49
498.77	416.36
499.131	383.17
499.492	424.02
499.854	367.85
500.215	383.17
500.576	324.44
500.937	416.36
501.298	385.72
501.658	413.81
502.019	370.4
502.38	441.89
502.741	431.68
503.101	395.93
503.462	441.89
503.823	403.59
504.183	326.99
504.543	332.1
504.904	370.4
505.264	418.91
505.625	375.51
505.985	326.99
506.345	365.29
506.705	398.49
507.065	398.49
507.426	431.68
507.786	398.49
508.146	416.36
508.505	321.89
508.865	347.42
509.225	403.59
509.585	475.09
509.945	411.25
510.304	329.55
510.664	347.42
511.024	390.83
511.383	416.36
511.743	398.49
512.102	398.49
512.462	418.91
512.821	408.7
513.18	375.51
513.539	424.02
513.899	475.09
514.258	418.91
514.617	398.49
514.976	375.51
515.335	452.11
515.694	406.15
516.053	418.91
516.412	367.85
516.771	406.15
517.129	413.81
517.488	365.29
517.847	424.02
518.205	367.85
518.564	349.97
518.922	457.21
519.281	370.4
519.639	375.51
519.998	424.02
520.356	378.06
520.714	395.93
521.073	398.49
521.431	380.61
521.789	390.83
522.147	367.85
522.505	411.25
522.863	413.81
523.221	434.23
523.579	418.91
523.937	408.7
524.295	372.95
524.652	416.36
525.01	390.83
525.368	367.85
525.725	413.81
526.083	360.19
526.44	360.19
526.798	342.31
527.155	362.74
527.513	360.19
527.87	475.09
528.227	383.17
528.584	416.36
528.942	339.76
529.299	362.74
529.656	349.97
530.013	314.23
530.37	416.36
530.727	429.13
531.083	492.96
531.44	475.09
531.797	421.47
532.154	477.64
532.511	418.91
532.867	413.81
533.224	421.47
533.58	342.31
533.937	406.15
534.293	372.95
534.65	344.87
535.006	398.49
535.362	395.93
535.718	385.72
536.075	426.57
536.431	370.4
536.787	347.42
537.143	426.57
537.499	329.55
537.855	370.4
538.211	475.09
538.567	444.45
538.923	370.4
539.278	413.81
539.634	434.23
539.99	390.83
540.345	380.61
540.701	408.7
541.056	401.04
541.412	411.25
541.767	454.66
542.123	439.34
542.478	413.81
542.833	388.27
543.188	413.81
543.544	447
543.899	398.49
544.254	370.4
544.609	449.55
544.964	426.57
545.319	375.51
545.674	434.23
546.029	434.23
546.383	459.77
546.738	375.51
547.093	406.15
547.447	406.15
547.802	395.93
548.157	388.27
548.511	431.68
548.866	395.93
549.22	375.51
549.574	349.97
549.929	424.02
550.283	388.27
550.637	370.4
550.991	472.53
551.345	403.59
551.699	467.43
552.053	439.34
552.407	398.49
552.761	388.27
553.115	401.04
553.469	401.04
553.823	383.17
554.176	337.21
554.53	383.17
554.884	403.59
555.237	602.76
555.591	477.64
555.944	439.34
556.298	411.25
556.651	385.72
557.005	418.91
557.358	426.57
557.711	352.53
558.064	418.91
558.417	385.72
558.771	408.7
559.124	492.96
559.477	380.61
559.83	413.81
560.182	441.89
560.535	439.34
560.888	403.59
561.241	444.45
561.594	452.11
561.946	393.38
562.299	388.27
562.651	406.15
563.004	385.72
563.356	362.74
563.709	441.89
564.061	393.38
564.413	344.87
564.766	416.36
565.118	452.11
565.47	485.3
565.822	487.85
566.174	416.36
566.526	360.19
566.878	383.17
567.23	431.68
567.582	370.4
567.934	416.36
568.286	475.09
568.638	406.15
568.989	418.91
569.341	372.95
569.693	447
570.044	349.97
570.396	441.89
570.747	383.17
571.098	380.61
571.45	482.75
571.801	444.45
572.152	352.53
572.504	411.25
572.855	378.06
573.206	413.81
573.557	395.93
573.908	431.68
574.259	418.91
574.61	434.23
574.961	411.25
575.311	447
575.662	372.95
576.013	378.06
576.364	370.4
576.714	378.06
577.065	375.51
577.415	426.57
577.766	383.17
578.116	388.27
578.467	403.59
578.817	447
579.167	467.43
579.518	375.51
579.868	398.49
580.218	416.36
580.568	411.25
580.918	344.87
581.268	421.47
581.618	424.02
581.968	380.61
582.318	403.59
582.668	436.79
583.017	429.13
583.367	436.79
583.717	403.59
584.066	431.68
584.416	421.47
584.765	398.49
585.115	401.04
585.464	411.25
585.814	398.49
586.163	362.74
586.512	372.95
586.862	398.49
587.211	393.38
587.56	418.91
587.909	426.57
588.258	390.83
588.607	398.49
588.956	380.61
589.305	367.85
589.654	380.61
590.002	439.34
590.351	403.59
590.7	434.23
591.048	332.1
591.397	311.67
591.746	413.81
592.094	421.47
592.443	339.76
592.791	436.79
593.139	416.36
593.488	426.57
593.836	326.99
594.184	398.49
594.532	375.51
594.88	518.5
595.228	370.4
595.576	418.91
595.924	347.42
596.272	426.57
596.62	482.75
596.968	393.38
597.316	403.59
597.664	413.81
598.011	349.97
598.359	408.7
598.706	370.4
599.054	416.36
599.402	385.72
599.749	398.49
600.096	388.27
600.444	372.95
600.791	411.25
601.138	390.83
601.485	388.27
601.833	398.49
602.18	416.36
602.527	429.13
602.874	362.74
603.221	418.91
603.568	357.63
603.914	482.75
604.261	424.02
604.608	390.83
604.955	424.02
605.301	378.06
605.648	439.34
605.995	401.04
606.341	378.06
606.688	360.19
607.034	326.99
607.38	332.1
607.727	388.27
608.073	403.59
608.419	424.02
608.765	362.74
609.112	380.61
609.458	434.23
609.804	411.25
610.15	426.57
610.496	339.76
610.842	357.63
611.187	375.51
611.533	418.91
611.879	421.47
612.225	352.53
612.57	357.63
612.916	380.61
613.261	413.81
613.607	388.27
613.952	487.85
614.298	383.17
614.643	393.38
614.989	360.19
615.334	332.1
615.679	390.83
616.024	365.29
616.369	339.76
616.714	398.49
617.059	457.21
617.404	408.7
617.749	339.76
618.094	378.06
618.439	393.38
618.784	426.57
619.129	352.53
619.473	444.45
619.818	342.31
620.163	344.87
620.507	344.87
620.852	406.15
621.196	344.87
621.54	411.25
621.885	375.51
622.229	411.25
622.573	452.11
622.918	406.15
623.262	357.63
623.606	401.04
623.95	378.06
624.294	393.38
624.638	385.72
624.982	413.81
625.326	434.23
625.67	408.7
626.013	390.83
626.357	462.32
626.701	441.89
627.044	365.29
627.388	383.17
627.731	383.17
628.075	424.02
628.418	393.38
628.762	416.36
629.105	452.11
629.448	416.36
629.792	401.04
630.135	355.08
630.478	385.72
630.821	372.95
631.164	395.93
631.507	408.7
631.85	390.83
632.193	411.25
632.536	390.83
632.879	324.44
633.221	337.21
633.564	429.13
633.907	449.55
634.249	454.66
634.592	370.4
634.935	418.91
635.277	418.91
635.619	393.38
635.962	395.93
636.304	413.81
636.646	429.13
636.989	393.38
637.331	431.68
637.673	390.83
638.015	385.72
638.357	398.49
638.699	365.29
639.041	347.42
639.383	398.49
639.725	370.4
640.067	342.31
640.408	319.33
640.75	383.17
641.092	362.74
641.433	429.13
641.775	370.4
642.116	413.81
642.458	426.57
642.799	401.04
643.141	388.27
643.482	439.34
643.823	411.25
644.164	401.04
644.506	444.45
644.847	439.34
645.188	424.02
645.529	434.23
645.87	342.31
646.211	349.97
646.552	378.06
646.893	385.72
647.233	380.61
647.574	370.4
647.915	372.95
648.255	418.91
648.596	416.36
648.937	444.45
649.277	378.06
649.618	395.93
649.958	367.85
650.298	375.51
650.639	401.04
650.979	418.91
651.319	477.64
651.659	434.23
651.999	401.04
652.339	372.95
652.679	357.63
653.019	365.29
653.359	370.4
653.699	347.42
654.039	441.89
654.379	383.17
654.719	314.23
655.058	434.23
655.398	372.95
655.737	362.74
656.077	441.89
656.416	334.65
656.756	365.29
657.095	406.15
657.435	401.04
657.774	418.91
658.113	411.25
658.452	457.21
658.792	355.08
659.131	326.99
659.47	403.59
659.809	332.1
660.148	452.11
660.487	329.55
660.826	398.49
661.164	365.29
661.503	380.61
661.842	367.85
662.181	367.85
662.519	357.63
662.858	426.57
663.196	362.74
663.535	306.56
663.873	352.53
664.212	383.17
664.55	370.4
664.888	349.97
665.226	347.42
665.565	329.55
665.903	503.18
666.241	449.55
666.579	464.87
666.917	444.45
667.255	372.95
667.593	434.23
667.931	357.63
668.268	380.61
668.606	309.12
668.944	355.08
669.282	375.51
669.619	367.85
669.957	424.02
670.294	398.49
670.632	431.68
670.969	457.21
671.307	434.23
671.644	395.93
671.981	342.31
672.318	398.49
672.656	360.19
672.993	365.29
673.33	344.87
673.667	324.44
674.004	439.34
674.341	449.55
674.678	339.76
675.015	385.72
675.351	380.61
675.688	367.85
676.025	337.21
676.362	398.49
676.698	421.47
677.035	362.74
677.371	434.23
677.708	337.21
678.044	352.53
678.38	383.17
678.717	401.04
679.053	370.4
679.389	383.17
679.725	360.19
680.062	349.97
680.398	434.23
680.734	408.7
681.07	390.83
681.406	429.13
681.742	337.21
682.077	380.61
682.413	398.49
682.749	362.74
683.085	393.38
683.42	439.34
683.756	454.66
684.091	372.95
684.427	431.68
684.762	411.25
685.098	393.38
685.433	365.29
685.768	385.72
686.104	434.23
686.439	378.06
686.774	385.72
687.109	416.36
687.444	375.51
687.779	375.51
688.114	424.02
688.449	477.64
688.784	421.47
689.119	385.72
689.454	406.15
689.789	406.15
690.123	401.04
690.458	408.7
690.792	406.15
691.127	385.72
691.461	436.79
691.796	393.38
692.13	367.85
692.465	385.72
692.799	370.4
693.133	349.97
693.467	395.93
693.802	449.55
694.136	395.93
694.47	485.3
694.804	429.13
695.138	365.29
695.472	403.59
695.806	375.51
696.139	411.25
696.473	342.31
696.807	355.08
697.141	329.55
697.474	349.97
697.808	398.49
698.141	365.29
698.475	421.47
698.808	388.27
699.142	352.53
699.475	347.42
699.808	426.57
700.142	378.06
700.475	342.31
700.808	385.72
701.141	332.1
701.474	401.04
701.807	362.74
702.14	344.87
702.473	385.72
702.806	355.08
703.139	357.63
703.472	441.89
703.804	395.93
704.137	355.08
704.47	365.29
704.802	449.55
705.135	347.42
705.467	411.25
705.8	344.87
706.132	365.29
706.464	342.31
706.797	342.31
707.129	408.7
707.461	370.4
707.793	370.4
708.125	375.51
708.457	431.68
708.789	398.49
709.121	413.81
709.453	413.81
709.785	411.25
710.117	342.31
710.449	388.27
710.781	360.19
711.112	355.08
711.444	357.63
711.775	401.04
712.107	388.27
712.438	408.7
712.77	401.04
713.101	378.06
713.433	388.27
713.764	378.06
714.095	352.53
714.426	429.13
714.757	490.41
715.089	449.55
715.42	398.49
715.751	416.36
716.082	383.17
716.412	403.59
716.743	378.06
717.074	352.53
717.405	355.08
717.736	370.4
718.066	355.08
718.397	342.31
718.727	365.29
719.058	457.21
719.388	388.27
719.719	375.51
720.049	406.15
720.38	385.72
720.71	355.08
721.04	383.17
721.37	390.83
721.7	395.93
722.031	416.36
722.361	390.83
722.691	447
723.021	408.7
723.35	349.97
723.68	401.04
724.01	398.49
724.34	416.36
724.67	393.38
724.999	362.74
725.329	403.59
725.658	372.95
725.988	370.4
726.317	324.44
726.647	401.04
726.976	385.72
727.306	365.29
727.635	388.27
727.964	304.01
728.293	362.74
728.622	401.04
728.952	375.51
729.281	464.87
729.61	324.44
729.939	385.72
730.267	418.91
730.596	365.29
730.925	411.25
731.254	406.15
731.583	329.55
731.911	459.77
732.24	370.4
732.568	332.1
732.897	365.29
733.225	378.06
733.554	403.59
733.882	326.99
734.21	401.04
734.539	436.79
734.867	383.17
735.195	395.93
735.523	372.95
735.851	342.31
736.179	334.65
736.507	385.72
736.835	431.68
737.163	447
737.491	401.04
737.819	324.44
738.147	349.97
738.474	357.63
738.802	360.19
739.13	413.81
739.457	390.83
739.785	398.49
740.112	388.27
740.44	393.38
740.767	375.51
741.094	378.06
741.422	393.38
741.749	342.31
742.076	380.61
742.403	319.33
742.73	362.74
743.057	436.79
743.384	395.93
743.711	413.81
744.038	398.49
744.365	395.93
744.692	411.25
745.018	370.4
745.345	380.61
745.672	321.89
745.998	421.47
746.325	418.91
746.651	362.74
746.978	383.17
747.304	462.32
747.631	347.42
747.957	347.42
748.283	447
748.61	406.15
748.936	372.95
749.262	342.31
749.588	367.85
749.914	375.51
750.24	370.4
750.566	360.19
750.892	385.72
751.218	418.91
751.543	395.93
751.869	367.85
752.195	454.66
752.521	360.19
752.846	378.06
753.172	375.51
753.497	321.89
753.823	324.44
754.148	398.49
754.473	393.38
754.799	411.25
755.124	411.25
755.449	370.4
755.774	459.77
756.1	370.4
756.425	434.23
756.75	306.56
757.075	383.17
757.4	500.62
757.724	424.02
758.049	406.15
758.374	383.17
758.699	349.97
759.024	378.06
759.348	401.04
759.673	390.83
759.997	395.93
760.322	403.59
760.646	408.7
760.971	449.55
761.295	388.27
761.619	467.43
761.944	421.47
762.268	454.66
762.592	408.7
762.916	403.59
763.24	508.28
763.564	480.19
763.888	457.21
764.212	490.41
764.536	462.32
764.86	492.96
765.184	505.73
765.508	605.31
765.831	653.82
766.155	960.23
766.478	858.09
766.802	1018.96
767.126	960.23
767.449	970.44
767.772	944.91
768.096	858.09
768.419	799.37
768.742	664.04
769.066	658.93
769.389	758.51
769.712	858.09
770.035	1041.94
770.358	1200.25
770.681	1580.7
771.004	1721.14
771.327	1848.81
771.65	2068.4
771.972	2014.77
772.295	1912.64
772.618	1641.98
772.941	1404.52
773.263	1156.84
773.586	1026.62
773.908	1001.08
774.231	1223.23
774.553	1447.92
774.875	1823.27
775.198	2285.43
775.52	2773.13
775.842	2913.56
776.164	3322.1
776.487	3613.19
776.809	3041.23
777.131	2688.87
777.453	2410.55
777.775	2124.57
778.096	1687.94
778.418	1340.68
778.74	1333.02
779.062	1460.69
779.384	1802.84
779.705	2425.87
780.027	3288.91
780.348	4144.29
780.67	4836.26
780.991	5262.67
781.313	5569.08
781.634	5255.01
781.955	4946.05
782.277	4563.05
782.598	3804.69
782.919	2931.44
783.24	2310.97
783.561	1925.41
783.882	1861.57
784.203	1958.6
784.524	2778.23
784.845	3738.3
785.166	4307.71
785.487	4917.97
785.807	5936.76
786.128	6582.77
786.449	6618.52
786.769	6595.53
787.09	6105.29
787.41	5112.02
787.731	4450.7
788.051	3345.08
788.372	2423.32
788.692	1825.82
789.012	1795.18
789.332	2167.98
789.653	2765.47
789.973	3682.13
790.293	5548.65
790.613	6554.68
790.933	7175.15
791.253	7244.09
791.573	7162.38
791.893	6674.69
792.212	6238.06
792.532	5466.94
792.852	4315.37
793.171	3355.3
793.491	2505.02
793.811	1861.57
794.13	1486.23
794.45	1800.29
794.769	2326.29
795.088	3120.39
795.408	4024.28
795.727	5390.34
796.046	6807.47
796.365	8290.98
796.684	8607.6
797.004	8615.26
797.323	8423.75
797.642	7627.1
797.96	6534.25
798.279	5196.28
798.598	3648.94
798.917	2683.76
799.236	2024.99
799.554	1621.55
799.873	1590.91
