Data from 2025-12-03_xpw_interference_micrometer_626_FLMS141361__2__25.txt Node

Date: Wed Dec 03 15:18:23 MST 2025
User: james
Spectrometer: FLMS14136
Trigger mode: 0
Integration Time (sec): 1.000000E-1
Scans to average: 1
Electric dark correction enabled: true
Nonlinearity correction enabled: false
Boxcar width: 0
XAxis mode: Wavelengths
Number of Pixels in Spectrum: 2048
>>>>>Begin Spectral Data<<<<<
339.315	56.81
339.697	56.81
340.079	56.81
340.461	-114.26
340.843	-93.84
341.225	-78.52
341.607	-91.28
341.989	-75.96
342.371	-132.14
342.752	-55.54
343.134	-104.05
343.516	-24.9
343.897	-7.02
344.279	-14.68
344.661	44.05
345.042	10.85
345.423	120.65
345.805	28.73
346.186	125.75
346.567	95.11
346.949	158.95
347.33	164.05
347.711	215.12
348.092	187.03
348.473	289.17
348.854	299.38
349.235	276.4
349.616	342.79
349.997	365.77
350.378	319.81
350.758	350.45
351.139	342.79
351.52	309.6
351.9	291.72
352.281	386.2
352.661	452.59
353.042	386.2
353.422	432.16
353.803	442.37
354.183	383.65
354.563	370.88
354.943	444.93
355.324	381.09
355.704	381.09
356.084	421.95
356.464	406.63
356.844	381.09
357.224	401.52
357.603	411.73
357.983	345.34
358.363	393.86
358.743	452.59
359.122	386.2
359.502	391.31
359.882	398.97
360.261	365.77
360.641	360.66
361.02	255.98
361.399	370.88
361.779	393.86
362.158	419.39
362.537	340.24
362.916	398.97
363.296	365.77
363.675	396.41
364.054	398.97
364.433	406.63
364.812	393.86
365.19	450.03
365.569	358.11
365.948	363.22
366.327	342.79
366.705	355.56
367.084	337.68
367.463	409.18
367.841	294.28
368.22	401.52
368.598	347.9
368.977	358.11
369.355	337.68
369.733	301.94
370.111	314.7
370.49	337.68
370.868	307.04
371.246	281.51
371.624	386.2
372.002	424.5
372.38	368.32
372.758	409.18
373.136	350.45
373.513	358.11
373.891	355.56
374.269	378.54
374.646	322.36
375.024	396.41
375.402	342.79
375.779	363.22
376.157	317.26
376.534	391.31
376.911	358.11
377.289	335.13
377.666	350.45
378.043	383.65
378.42	416.84
378.797	398.97
379.175	363.22
379.552	442.37
379.929	355.56
380.305	383.65
380.682	363.22
381.059	375.98
381.436	416.84
381.813	388.75
382.189	375.98
382.566	370.88
382.943	373.43
383.319	337.68
383.696	363.22
384.072	276.4
384.448	355.56
384.825	396.41
385.201	342.79
385.577	416.84
385.953	347.9
386.329	414.29
386.706	337.68
387.082	381.09
387.458	368.32
387.834	434.71
388.209	335.13
388.585	347.9
388.961	335.13
389.337	398.97
389.713	381.09
390.088	353
390.464	358.11
390.839	353
391.215	332.58
391.59	375.98
391.966	375.98
392.341	414.29
392.716	427.05
393.092	360.66
393.467	465.35
393.842	398.97
394.217	386.2
394.592	327.47
394.967	406.63
395.342	278.96
395.717	322.36
396.092	444.93
396.467	383.65
396.841	358.11
397.216	391.31
397.591	427.05
397.965	370.88
398.34	319.81
398.714	317.26
399.089	396.41
399.463	409.18
399.838	375.98
400.212	391.31
400.586	337.68
400.961	419.39
401.335	434.71
401.709	358.11
402.083	427.05
402.457	434.71
402.831	404.07
403.205	437.27
403.579	332.58
403.953	404.07
404.326	401.52
404.7	335.13
405.074	424.5
405.447	427.05
405.821	370.88
406.195	381.09
406.568	317.26
406.942	375.98
407.315	383.65
407.688	370.88
408.062	406.63
408.435	404.07
408.808	439.82
409.181	386.2
409.554	375.98
409.927	388.75
410.3	375.98
410.673	439.82
411.046	404.07
411.419	439.82
411.792	409.18
412.165	450.03
412.537	424.5
412.91	381.09
413.283	429.61
413.655	373.43
414.028	393.86
414.4	478.12
414.773	406.63
415.145	404.07
415.517	355.56
415.889	391.31
416.262	398.97
416.634	347.9
417.006	370.88
417.378	368.32
417.75	381.09
418.122	398.97
418.494	419.39
418.866	386.2
419.238	363.22
419.609	406.63
419.981	368.32
420.353	414.29
420.725	393.86
421.096	391.31
421.468	419.39
421.839	439.82
422.211	447.48
422.582	355.56
422.953	421.95
423.325	388.75
423.696	347.9
424.067	404.07
424.438	393.86
424.809	488.33
425.18	480.67
425.551	429.61
425.922	421.95
426.293	411.73
426.664	439.82
427.035	414.29
427.406	342.79
427.776	345.34
428.147	406.63
428.518	388.75
428.888	360.66
429.259	473.01
429.629	444.93
429.999	444.93
430.37	455.14
430.74	427.05
431.11	421.95
431.481	396.41
431.851	406.63
432.221	406.63
432.591	414.29
432.961	406.63
433.331	414.29
433.701	383.65
434.071	424.5
434.441	401.52
434.81	439.82
435.18	375.98
435.55	416.84
435.919	478.12
436.289	381.09
436.658	393.86
437.028	373.43
437.397	373.43
437.767	383.65
438.136	375.98
438.505	437.27
438.875	452.59
439.244	437.27
439.613	391.31
439.982	409.18
440.351	404.07
440.72	442.37
441.089	439.82
441.458	381.09
441.827	388.75
442.196	442.37
442.564	427.05
442.933	424.5
443.302	421.95
443.67	404.07
444.039	427.05
444.407	485.78
444.776	381.09
445.144	381.09
445.513	396.41
445.881	490.89
446.249	452.59
446.617	452.59
446.986	447.48
447.354	470.46
447.722	404.07
448.09	442.37
448.458	421.95
448.826	409.18
449.194	419.39
449.561	324.92
449.929	452.59
450.297	442.37
450.665	414.29
451.032	393.86
451.4	347.9
451.767	462.8
452.135	452.59
452.502	396.41
452.87	427.05
453.237	506.21
453.604	473.01
453.971	421.95
454.339	419.39
454.706	322.36
455.073	406.63
455.44	421.95
455.807	406.63
456.174	393.86
456.541	483.23
456.908	404.07
457.274	432.16
457.641	465.35
458.008	381.09
458.374	411.73
458.741	452.59
459.108	375.98
459.474	381.09
459.841	396.41
460.207	365.77
460.573	416.84
460.94	373.43
461.306	406.63
461.672	404.07
462.038	342.79
462.404	424.5
462.771	427.05
463.137	383.65
463.503	452.59
463.868	483.23
464.234	452.59
464.6	419.39
464.966	442.37
465.332	396.41
465.697	427.05
466.063	427.05
466.429	419.39
466.794	488.33
467.16	465.35
467.525	450.03
467.89	485.78
468.256	439.82
468.621	353
468.986	452.59
469.351	409.18
469.717	391.31
470.082	409.18
470.447	391.31
470.812	350.45
471.177	388.75
471.542	406.63
471.906	404.07
472.271	437.27
472.636	452.59
473.001	419.39
473.365	444.93
473.73	467.91
474.094	414.29
474.459	508.76
474.823	398.97
475.188	350.45
475.552	419.39
475.917	391.31
476.281	404.07
476.645	424.5
477.009	355.56
477.373	439.82
477.737	416.84
478.101	452.59
478.465	452.59
478.829	368.32
479.193	337.68
479.557	353
479.921	406.63
480.284	396.41
480.648	363.22
481.012	363.22
481.375	401.52
481.739	404.07
482.102	393.86
482.466	401.52
482.829	467.91
483.193	406.63
483.556	386.2
483.919	452.59
484.282	345.34
484.645	444.93
485.009	404.07
485.372	404.07
485.735	421.95
486.098	424.5
486.46	370.88
486.823	447.48
487.186	421.95
487.549	447.48
487.912	427.05
488.274	447.48
488.637	470.46
488.999	421.95
489.362	434.71
489.724	439.82
490.087	409.18
490.449	450.03
490.811	442.37
491.174	411.73
491.536	414.29
491.898	424.5
492.26	450.03
492.622	442.37
492.984	375.98
493.346	411.73
493.708	416.84
494.07	439.82
494.432	437.27
494.794	373.43
495.155	396.41
495.517	434.71
495.879	368.32
496.24	393.86
496.602	437.27
496.963	444.93
497.325	381.09
497.686	470.46
498.048	432.16
498.409	404.07
498.77	442.37
499.131	442.37
499.492	434.71
499.854	406.63
500.215	421.95
500.576	457.69
500.937	370.88
501.298	381.09
501.658	383.65
502.019	416.84
502.38	475.57
502.741	411.73
503.101	345.34
503.462	350.45
503.823	393.86
504.183	411.73
504.543	442.37
504.904	404.07
505.264	396.41
505.625	437.27
505.985	416.84
506.345	427.05
506.705	473.01
507.065	419.39
507.426	429.61
507.786	434.71
508.146	439.82
508.505	452.59
508.865	373.43
509.225	490.89
509.585	503.65
509.945	424.5
510.304	416.84
510.664	406.63
511.024	378.54
511.383	386.2
511.743	457.69
512.102	424.5
512.462	439.82
512.821	409.18
513.18	393.86
513.539	434.71
513.899	381.09
514.258	419.39
514.617	373.43
514.976	416.84
515.335	386.2
515.694	447.48
516.053	409.18
516.412	442.37
516.771	450.03
517.129	439.82
517.488	419.39
517.847	398.97
518.205	416.84
518.564	414.29
518.922	414.29
519.281	429.61
519.639	450.03
519.998	465.35
520.356	416.84
520.714	427.05
521.073	388.75
521.431	434.71
521.789	391.31
522.147	414.29
522.505	501.1
522.863	404.07
523.221	427.05
523.579	370.88
523.937	375.98
524.295	404.07
524.652	437.27
525.01	490.89
525.368	401.52
525.725	439.82
526.083	406.63
526.44	424.5
526.798	465.35
527.155	447.48
527.513	414.29
527.87	439.82
528.227	437.27
528.584	406.63
528.942	444.93
529.299	360.66
529.656	424.5
530.013	424.5
530.37	434.71
530.727	406.63
531.083	483.23
531.44	391.31
531.797	452.59
532.154	462.8
532.511	414.29
532.867	375.98
533.224	427.05
533.58	467.91
533.937	457.69
534.293	467.91
534.65	495.99
535.006	450.03
535.362	409.18
535.718	414.29
536.075	470.46
536.431	483.23
536.787	475.57
537.143	444.93
537.499	381.09
537.855	460.25
538.211	406.63
538.567	401.52
538.923	406.63
539.278	447.48
539.634	434.71
539.99	388.75
540.345	406.63
540.701	393.86
541.056	414.29
541.412	452.59
541.767	409.18
542.123	398.97
542.478	432.16
542.833	416.84
543.188	386.2
543.544	409.18
543.899	398.97
544.254	442.37
544.609	358.11
544.964	342.79
545.319	409.18
545.674	383.65
546.029	452.59
546.383	439.82
546.738	386.2
547.093	409.18
547.447	396.41
547.802	457.69
548.157	470.46
548.511	439.82
548.866	393.86
549.22	424.5
549.574	383.65
549.929	404.07
550.283	439.82
550.637	437.27
550.991	355.56
551.345	411.73
551.699	447.48
552.053	465.35
552.407	450.03
552.761	414.29
553.115	391.31
553.469	383.65
553.823	437.27
554.176	429.61
554.53	401.52
554.884	442.37
555.237	753.88
555.591	470.46
555.944	470.46
556.298	416.84
556.651	421.95
557.005	424.5
557.358	393.86
557.711	460.25
558.064	383.65
558.417	391.31
558.771	544.51
559.124	452.59
559.477	409.18
559.83	452.59
560.182	350.45
560.535	421.95
560.888	427.05
561.241	414.29
561.594	462.8
561.946	442.37
562.299	416.84
562.651	444.93
563.004	416.84
563.356	452.59
563.709	401.52
564.061	419.39
564.413	452.59
564.766	444.93
565.118	401.52
565.47	401.52
565.822	419.39
566.174	447.48
566.526	411.73
566.878	427.05
567.23	391.31
567.582	378.54
567.934	429.61
568.286	421.95
568.638	444.93
568.989	416.84
569.341	358.11
569.693	434.71
570.044	411.73
570.396	437.27
570.747	414.29
571.098	424.5
571.45	437.27
571.801	416.84
572.152	419.39
572.504	427.05
572.855	370.88
573.206	347.9
573.557	393.86
573.908	373.43
574.259	450.03
574.61	447.48
574.961	414.29
575.311	462.8
575.662	457.69
576.013	378.54
576.364	393.86
576.714	406.63
577.065	381.09
577.415	378.54
577.766	383.65
578.116	437.27
578.467	388.75
578.817	427.05
579.167	460.25
579.518	421.95
579.868	383.65
580.218	429.61
580.568	404.07
580.918	398.97
581.268	421.95
581.618	416.84
581.968	409.18
582.318	411.73
582.668	450.03
583.017	360.66
583.367	409.18
583.717	424.5
584.066	396.41
584.416	368.32
584.765	401.52
585.115	414.29
585.464	462.8
585.814	414.29
586.163	460.25
586.512	370.88
586.862	416.84
587.211	442.37
587.56	462.8
587.909	419.39
588.258	478.12
588.607	424.5
588.956	421.95
589.305	421.95
589.654	429.61
590.002	409.18
590.351	396.41
590.7	421.95
591.048	370.88
591.397	414.29
591.746	465.35
592.094	378.54
592.443	396.41
592.791	421.95
593.139	370.88
593.488	375.98
593.836	414.29
594.184	398.97
594.532	411.73
594.88	442.37
595.228	388.75
595.576	437.27
595.924	383.65
596.272	437.27
596.62	432.16
596.968	332.58
597.316	383.65
597.664	442.37
598.011	506.21
598.359	493.44
598.706	473.01
599.054	493.44
599.402	427.05
599.749	401.52
600.096	442.37
600.444	437.27
600.791	360.66
601.138	398.97
601.485	375.98
601.833	401.52
602.18	414.29
602.527	396.41
602.874	419.39
603.221	455.14
603.568	457.69
603.914	406.63
604.261	414.29
604.608	398.97
604.955	360.66
605.301	419.39
605.648	450.03
605.995	478.12
606.341	388.75
606.688	386.2
607.034	383.65
607.38	419.39
607.727	317.26
608.073	429.61
608.419	429.61
608.765	442.37
609.112	358.11
609.458	398.97
609.804	455.14
610.15	450.03
610.496	350.45
610.842	419.39
611.187	429.61
611.533	345.34
611.879	398.97
612.225	396.41
612.57	444.93
612.916	475.57
613.261	419.39
613.607	404.07
613.952	368.32
614.298	375.98
614.643	401.52
614.989	429.61
615.334	416.84
615.679	475.57
616.024	419.39
616.369	401.52
616.714	398.97
617.059	439.82
617.404	518.97
617.749	429.61
618.094	421.95
618.439	404.07
618.784	388.75
619.129	424.5
619.473	358.11
619.818	386.2
620.163	493.44
620.507	434.71
620.852	375.98
621.196	409.18
621.54	414.29
621.885	406.63
622.229	406.63
622.573	409.18
622.918	429.61
623.262	457.69
623.606	388.75
623.95	383.65
624.294	475.57
624.638	388.75
624.982	393.86
625.326	419.39
625.67	411.73
626.013	401.52
626.357	419.39
626.701	427.05
627.044	485.78
627.388	457.69
627.731	416.84
628.075	373.43
628.418	398.97
628.762	381.09
629.105	347.9
629.448	429.61
629.792	488.33
630.135	353
630.478	345.34
630.821	327.47
631.164	460.25
631.507	414.29
631.85	462.8
632.193	378.54
632.536	450.03
632.879	393.86
633.221	391.31
633.564	427.05
633.907	347.9
634.249	424.5
634.592	365.77
634.935	457.69
635.277	450.03
635.619	378.54
635.962	396.41
636.304	393.86
636.646	383.65
636.989	398.97
637.331	393.86
637.673	444.93
638.015	406.63
638.357	386.2
638.699	434.71
639.041	421.95
639.383	391.31
639.725	419.39
640.067	414.29
640.408	365.77
640.75	381.09
641.092	355.56
641.433	404.07
641.775	457.69
642.116	368.32
642.458	427.05
642.799	455.14
643.141	406.63
643.482	409.18
643.823	363.22
644.164	383.65
644.506	447.48
644.847	439.82
645.188	450.03
645.529	396.41
645.87	462.8
646.211	398.97
646.552	373.43
646.893	404.07
647.233	363.22
647.574	396.41
647.915	363.22
648.255	432.16
648.596	462.8
648.937	421.95
649.277	373.43
649.618	294.28
649.958	421.95
650.298	370.88
650.639	427.05
650.979	406.63
651.319	429.61
651.659	381.09
651.999	427.05
652.339	373.43
652.679	424.5
653.019	409.18
653.359	401.52
653.699	378.54
654.039	432.16
654.379	508.76
654.719	393.86
655.058	391.31
655.398	398.97
655.737	478.12
656.077	424.5
656.416	437.27
656.756	457.69
657.095	353
657.435	327.47
657.774	375.98
658.113	470.46
658.452	393.86
658.792	432.16
659.131	393.86
659.47	439.82
659.809	465.35
660.148	457.69
660.487	427.05
660.826	467.91
661.164	444.93
661.503	370.88
661.842	393.86
662.181	383.65
662.519	368.32
662.858	406.63
663.196	421.95
663.535	396.41
663.873	447.48
664.212	439.82
664.55	450.03
664.888	406.63
665.226	429.61
665.565	404.07
665.903	628.77
666.241	414.29
666.579	444.93
666.917	434.71
667.255	427.05
667.593	411.73
667.931	447.48
668.268	391.31
668.606	391.31
668.944	424.5
669.282	391.31
669.619	409.18
669.957	411.73
670.294	391.31
670.632	386.2
670.969	427.05
671.307	450.03
671.644	411.73
671.981	375.98
672.318	388.75
672.656	409.18
672.993	383.65
673.33	432.16
673.667	404.07
674.004	439.82
674.341	378.54
674.678	381.09
675.015	447.48
675.351	401.52
675.688	465.35
676.025	439.82
676.362	411.73
676.698	368.32
677.035	401.52
677.371	365.77
677.708	460.25
678.044	457.69
678.38	353
678.717	401.52
679.053	434.71
679.389	429.61
679.725	439.82
680.062	421.95
680.398	421.95
680.734	401.52
681.07	404.07
681.406	414.29
681.742	432.16
682.077	447.48
682.413	416.84
682.749	452.59
683.085	416.84
683.42	416.84
683.756	388.75
684.091	414.29
684.427	401.52
684.762	404.07
685.098	419.39
685.433	424.5
685.768	421.95
686.104	401.52
686.439	421.95
686.774	393.86
687.109	452.59
687.444	447.48
687.779	462.8
688.114	360.66
688.449	498.55
688.784	427.05
689.119	439.82
689.454	442.37
689.789	401.52
690.123	358.11
690.458	368.32
690.792	378.54
691.127	432.16
691.461	411.73
691.796	444.93
692.13	363.22
692.465	414.29
692.799	396.41
693.133	406.63
693.467	473.01
693.802	437.27
694.136	396.41
694.47	388.75
694.804	404.07
695.138	406.63
695.472	388.75
695.806	358.11
696.139	404.07
696.473	391.31
696.807	363.22
697.141	434.71
697.474	480.67
697.808	432.16
698.141	421.95
698.475	411.73
698.808	421.95
699.142	455.14
699.475	457.69
699.808	518.97
700.142	401.52
700.475	442.37
700.808	386.2
701.141	388.75
701.474	429.61
701.807	411.73
702.14	421.95
702.473	398.97
702.806	419.39
703.139	455.14
703.472	411.73
703.804	381.09
704.137	363.22
704.47	460.25
704.802	432.16
705.135	396.41
705.467	396.41
705.8	401.52
706.132	460.25
706.464	508.76
706.797	424.5
707.129	424.5
707.461	365.77
707.793	434.71
708.125	388.75
708.457	462.8
708.789	411.73
709.121	393.86
709.453	411.73
709.785	368.32
710.117	442.37
710.449	396.41
710.781	442.37
711.112	452.59
711.444	398.97
711.775	421.95
712.107	398.97
712.438	421.95
712.77	427.05
713.101	398.97
713.433	406.63
713.764	358.11
714.095	375.98
714.426	342.79
714.757	419.39
715.089	450.03
715.42	424.5
715.751	434.71
716.082	416.84
716.412	424.5
716.743	368.32
717.074	462.8
717.405	488.33
717.736	455.14
718.066	411.73
718.397	398.97
718.727	529.19
719.058	378.54
719.388	411.73
719.719	391.31
720.049	434.71
720.38	409.18
720.71	383.65
721.04	355.56
721.37	396.41
721.7	421.95
722.031	378.54
722.361	416.84
722.691	480.67
723.021	383.65
723.35	365.77
723.68	429.61
724.01	383.65
724.34	373.43
724.67	350.45
724.999	342.79
725.329	429.61
725.658	416.84
725.988	350.45
726.317	391.31
726.647	421.95
726.976	465.35
727.306	434.71
727.635	452.59
727.964	386.2
728.293	483.23
728.622	386.2
728.952	396.41
729.281	355.56
729.61	419.39
729.939	421.95
730.267	475.57
730.596	409.18
730.925	388.75
731.254	419.39
731.583	442.37
731.911	391.31
732.24	409.18
732.568	414.29
732.897	434.71
733.225	406.63
733.554	462.8
733.882	444.93
734.21	324.92
734.539	375.98
734.867	388.75
735.195	391.31
735.523	406.63
735.851	455.14
736.179	378.54
736.507	455.14
736.835	386.2
737.163	393.86
737.491	421.95
737.819	419.39
738.147	340.24
738.474	393.86
738.802	401.52
739.13	483.23
739.457	460.25
739.785	437.27
740.112	355.56
740.44	427.05
740.767	416.84
741.094	439.82
741.422	409.18
741.749	404.07
742.076	383.65
742.403	404.07
742.73	450.03
743.057	414.29
743.384	381.09
743.711	381.09
744.038	401.52
744.365	434.71
744.692	375.98
745.018	386.2
745.345	498.55
745.672	416.84
745.998	442.37
746.325	398.97
746.651	373.43
746.978	404.07
747.304	444.93
747.631	396.41
747.957	419.39
748.283	427.05
748.61	396.41
748.936	381.09
749.262	393.86
749.588	424.5
749.914	404.07
750.24	409.18
750.566	355.56
750.892	401.52
751.218	437.27
751.543	457.69
751.869	475.57
752.195	404.07
752.521	421.95
752.846	368.32
753.172	383.65
753.497	437.27
753.823	391.31
754.148	386.2
754.473	434.71
754.799	391.31
755.124	465.35
755.449	411.73
755.774	368.32
756.1	391.31
756.425	370.88
756.75	370.88
757.075	427.05
757.4	465.35
757.724	452.59
758.049	457.69
758.374	396.41
758.699	358.11
759.024	396.41
759.348	452.59
759.673	363.22
759.997	434.71
760.322	398.97
760.646	434.71
760.971	360.66
761.295	381.09
761.619	411.73
761.944	470.46
762.268	442.37
762.592	488.33
762.916	483.23
763.24	467.91
763.564	439.82
763.888	473.01
764.212	444.93
764.536	447.48
764.86	419.39
765.184	450.03
765.508	452.59
765.831	462.8
766.155	705.37
766.478	536.85
766.802	526.63
767.126	656.86
767.449	646.64
767.772	674.73
768.096	661.96
768.419	810.06
768.742	856.02
769.066	1055.18
769.389	1083.27
769.712	1241.58
770.035	1453.51
770.358	1599.05
770.681	1693.53
771.004	1982.06
771.327	2260.38
771.65	2592.32
771.972	2852.76
772.295	2937.02
772.618	3049.37
772.941	3220.45
773.263	3238.32
773.586	3368.54
773.908	3276.62
774.231	3200.02
774.553	3102.99
774.875	3059.59
775.198	2916.6
775.52	2717.43
775.842	2592.32
776.164	2334.43
776.487	2035.68
776.809	1759.92
777.131	1604.16
777.453	1374.36
777.775	1320.73
778.096	1208.39
778.418	999.01
778.74	1011.78
779.062	1004.12
779.384	958.16
779.705	1014.33
780.027	1236.47
780.348	1415.21
780.67	1545.43
780.991	1895.24
781.313	2239.95
781.634	2809.35
781.955	3383.86
782.277	3848.58
782.598	4410.32
782.919	4650.34
783.24	5138.03
783.561	5436.78
783.882	5898.94
784.203	6726.24
784.524	7607.15
784.845	7926.32
785.166	7877.81
785.487	7969.73
785.807	8112.72
786.128	7344.15
786.449	7129.67
786.769	7183.29
787.09	6590.91
787.41	6856.46
787.731	6516.86
788.051	5898.94
788.372	5319.32
788.692	4629.91
789.012	3930.29
789.332	3243.43
789.653	2827.23
789.973	2308.89
790.293	1846.73
790.613	1507.13
790.933	1346.27
791.253	1108.8
791.573	1006.67
791.893	863.68
792.212	764.1
792.532	955.6
792.852	1096.04
793.171	1361.59
793.491	1586.29
793.811	1971.85
794.13	2474.86
794.45	3179.59
794.769	3812.83
795.088	4696.3
795.408	5214.64
795.727	5957.67
796.046	6580.69
796.365	7305.85
796.684	8094.85
797.004	8301.67
797.323	8766.39
797.642	8929.8
797.96	9006.4
798.279	8602.97
798.598	8528.92
798.917	7796.1
799.236	6672.62
799.554	5904.05
799.873	5564.45
