Data from 2025-12-03_xpw_interference_micrometer_634_FLMS141361__83__133.txt Node

Date: Wed Dec 03 15:48:44 MST 2025
User: james
Spectrometer: FLMS14136
Trigger mode: 0
Integration Time (sec): 1.000000E-1
Scans to average: 1
Electric dark correction enabled: true
Nonlinearity correction enabled: false
Boxcar width: 0
XAxis mode: Wavelengths
Number of Pixels in Spectrum: 2048
>>>>>Begin Spectral Data<<<<<
339.315	-34.47
339.697	-34.47
340.079	-34.47
340.461	-134.05
340.843	-131.5
341.225	-93.2
341.607	-118.73
341.989	-85.54
342.371	-54.9
342.752	-44.68
343.134	-75.32
343.516	-72.77
343.897	-52.34
344.279	14.04
344.661	24.26
345.042	14.04
345.423	72.77
345.805	67.66
346.186	126.39
346.567	131.5
346.949	146.82
347.33	164.69
347.711	100.86
348.092	162.14
348.473	164.69
348.854	289.81
349.235	231.08
349.616	277.04
349.997	271.93
350.378	292.36
350.758	289.81
351.139	407.26
351.52	358.75
351.9	279.59
352.281	259.17
352.661	294.92
353.042	312.79
353.422	323
353.803	402.16
354.183	366.41
354.563	338.32
354.943	397.05
355.324	366.41
355.704	330.66
356.084	358.75
356.464	374.07
356.844	430.24
357.224	414.92
357.603	340.88
357.983	420.03
358.363	356.2
358.743	348.54
359.122	402.16
359.502	351.09
359.882	384.28
360.261	307.68
360.641	333.22
361.02	386.84
361.399	397.05
361.779	366.41
362.158	353.64
362.537	371.52
362.916	404.71
363.296	394.5
363.675	358.75
364.054	330.66
364.433	386.84
364.812	300.02
365.19	310.24
365.569	323
365.948	345.98
366.327	379.18
366.705	300.02
367.084	330.66
367.463	361.3
367.841	302.58
368.22	292.36
368.598	340.88
368.977	356.2
369.355	361.3
369.733	264.27
370.111	351.09
370.49	361.3
370.868	333.22
371.246	300.02
371.624	368.96
372.002	330.66
372.38	366.41
372.758	279.59
373.136	340.88
373.513	328.11
373.891	391.94
374.269	333.22
374.646	300.02
375.024	325.56
375.402	343.43
375.779	361.3
376.157	305.13
376.534	274.49
376.911	307.68
377.289	351.09
377.666	345.98
378.043	394.5
378.42	323
378.797	348.54
379.175	351.09
379.552	277.04
379.929	320.45
380.305	356.2
380.682	363.86
381.059	300.02
381.436	307.68
381.813	274.49
382.189	368.96
382.566	397.05
382.943	351.09
383.319	343.43
383.696	368.96
384.072	328.11
384.448	338.32
384.825	320.45
385.201	351.09
385.577	374.07
385.953	338.32
386.329	333.22
386.706	315.34
387.082	305.13
387.458	407.26
387.834	363.86
388.209	300.02
388.585	343.43
388.961	312.79
389.337	368.96
389.713	386.84
390.088	371.52
390.464	371.52
390.839	325.56
391.215	353.64
391.59	343.43
391.966	325.56
392.341	402.16
392.716	353.64
393.092	330.66
393.467	381.73
393.842	363.86
394.217	402.16
394.592	376.62
394.967	310.24
395.342	325.56
395.717	320.45
396.092	330.66
396.467	292.36
396.841	330.66
397.216	358.75
397.591	361.3
397.965	320.45
398.34	345.98
398.714	381.73
399.089	297.47
399.463	366.41
399.838	417.48
400.212	348.54
400.586	264.27
400.961	368.96
401.335	374.07
401.709	450.67
402.083	297.47
402.457	317.9
402.831	384.28
403.205	294.92
403.579	343.43
403.953	312.79
404.326	368.96
404.7	391.94
405.074	287.26
405.447	330.66
405.821	397.05
406.195	379.18
406.568	366.41
406.942	379.18
407.315	391.94
407.688	338.32
408.062	302.58
408.435	368.96
408.808	409.82
409.181	376.62
409.554	384.28
409.927	325.56
410.3	389.39
410.673	374.07
411.046	476.2
411.419	397.05
411.792	414.92
412.165	338.32
412.537	356.2
412.91	325.56
413.283	323
413.655	330.66
414.028	363.86
414.4	307.68
414.773	292.36
415.145	356.2
415.517	289.81
415.889	356.2
416.262	374.07
416.634	371.52
417.006	368.96
417.378	412.37
417.75	425.14
418.122	417.48
418.494	325.56
418.866	399.6
419.238	371.52
419.609	335.77
419.981	297.47
420.353	384.28
420.725	399.6
421.096	391.94
421.468	333.22
421.839	404.71
422.211	330.66
422.582	384.28
422.953	356.2
423.325	381.73
423.696	320.45
424.067	361.3
424.438	391.94
424.809	338.32
425.18	366.41
425.551	366.41
425.922	386.84
426.293	366.41
426.664	414.92
427.035	465.99
427.406	384.28
427.776	358.75
428.147	358.75
428.518	427.69
428.888	294.92
429.259	371.52
429.629	409.82
429.999	374.07
430.37	348.54
430.74	348.54
431.11	351.09
431.481	389.39
431.851	335.77
432.221	312.79
432.591	277.04
432.961	391.94
433.331	353.64
433.701	302.58
434.071	274.49
434.441	379.18
434.81	320.45
435.18	371.52
435.55	381.73
435.919	394.5
436.289	384.28
436.658	412.37
437.028	335.77
437.397	361.3
437.767	356.2
438.136	371.52
438.505	361.3
438.875	368.96
439.244	356.2
439.613	399.6
439.982	325.56
440.351	417.48
440.72	420.03
441.089	414.92
441.458	297.47
441.827	302.58
442.196	333.22
442.564	486.42
442.933	417.48
443.302	414.92
443.67	320.45
444.039	294.92
444.407	397.05
444.776	379.18
445.144	371.52
445.513	345.98
445.881	343.43
446.249	394.5
446.617	307.68
446.986	437.9
447.354	343.43
447.722	412.37
448.09	386.84
448.458	399.6
448.826	460.88
449.194	422.58
449.561	407.26
449.929	333.22
450.297	317.9
450.665	394.5
451.032	381.73
451.4	368.96
451.767	448.12
452.135	379.18
452.502	371.52
452.87	371.52
453.237	414.92
453.604	379.18
453.971	363.86
454.339	417.48
454.706	376.62
455.073	381.73
455.44	389.39
455.807	361.3
456.174	409.82
456.541	394.5
456.908	412.37
457.274	425.14
457.641	407.26
458.008	302.58
458.374	391.94
458.741	361.3
459.108	366.41
459.474	450.67
459.841	340.88
460.207	361.3
460.573	391.94
460.94	445.56
461.306	384.28
461.672	412.37
462.038	417.48
462.404	463.44
462.771	397.05
463.137	427.69
463.503	427.69
463.868	374.07
464.234	412.37
464.6	374.07
464.966	368.96
465.332	353.64
465.697	371.52
466.063	427.69
466.429	366.41
466.794	425.14
467.16	412.37
467.525	351.09
467.89	471.1
468.256	394.5
468.621	402.16
468.986	397.05
469.351	345.98
469.717	399.6
470.082	351.09
470.447	386.84
470.812	435.35
471.177	379.18
471.542	404.71
471.906	371.52
472.271	384.28
472.636	381.73
473.001	394.5
473.365	397.05
473.73	448.12
474.094	468.54
474.459	422.58
474.823	437.9
475.188	343.43
475.552	374.07
475.917	343.43
476.281	356.2
476.645	430.24
477.009	294.92
477.373	371.52
477.737	402.16
478.101	343.43
478.465	368.96
478.829	404.71
479.193	412.37
479.557	443.01
479.921	366.41
480.284	353.64
480.648	407.26
481.012	376.62
481.375	361.3
481.739	343.43
482.102	330.66
482.466	353.64
482.829	379.18
483.193	381.73
483.556	356.2
483.919	412.37
484.282	422.58
484.645	312.79
485.009	402.16
485.372	425.14
485.735	402.16
486.098	412.37
486.46	381.73
486.823	427.69
487.186	448.12
487.549	381.73
487.912	381.73
488.274	407.26
488.637	363.86
488.999	358.75
489.362	427.69
489.724	381.73
490.087	435.35
490.449	427.69
490.811	404.71
491.174	389.39
491.536	432.8
491.898	361.3
492.26	430.24
492.622	310.24
492.984	379.18
493.346	345.98
493.708	315.34
494.07	348.54
494.432	376.62
494.794	374.07
495.155	343.43
495.517	440.46
495.879	384.28
496.24	379.18
496.602	386.84
496.963	391.94
497.325	379.18
497.686	386.84
498.048	414.92
498.409	358.75
498.77	345.98
499.131	445.56
499.492	486.42
499.854	407.26
500.215	358.75
500.576	430.24
500.937	432.8
501.298	386.84
501.658	404.71
502.019	358.75
502.38	379.18
502.741	402.16
503.101	384.28
503.462	335.77
503.823	409.82
504.183	363.86
504.543	376.62
504.904	345.98
505.264	420.03
505.625	338.32
505.985	294.92
506.345	358.75
506.705	399.6
507.065	368.96
507.426	394.5
507.786	430.24
508.146	425.14
508.505	486.42
508.865	353.64
509.225	376.62
509.585	435.35
509.945	432.8
510.304	386.84
510.664	386.84
511.024	363.86
511.383	305.13
511.743	381.73
512.102	379.18
512.462	420.03
512.821	407.26
513.18	394.5
513.539	417.48
513.899	379.18
514.258	399.6
514.617	348.54
514.976	356.2
515.335	404.71
515.694	368.96
516.053	374.07
516.412	368.96
516.771	404.71
517.129	412.37
517.488	399.6
517.847	376.62
518.205	368.96
518.564	361.3
518.922	448.12
519.281	420.03
519.639	353.64
519.998	425.14
520.356	468.54
520.714	394.5
521.073	414.92
521.431	437.9
521.789	417.48
522.147	394.5
522.505	397.05
522.863	397.05
523.221	343.43
523.579	379.18
523.937	422.58
524.295	353.64
524.652	353.64
525.01	376.62
525.368	348.54
525.725	463.44
526.083	443.01
526.44	391.94
526.798	430.24
527.155	368.96
527.513	437.9
527.87	391.94
528.227	366.41
528.584	338.32
528.942	420.03
529.299	409.82
529.656	330.66
530.013	379.18
530.37	420.03
530.727	338.32
531.083	358.75
531.44	325.56
531.797	374.07
532.154	368.96
532.511	363.86
532.867	425.14
533.224	394.5
533.58	427.69
533.937	394.5
534.293	381.73
534.65	432.8
535.006	371.52
535.362	363.86
535.718	361.3
536.075	437.9
536.431	386.84
536.787	422.58
537.143	376.62
537.499	422.58
537.855	440.46
538.211	358.75
538.567	432.8
538.923	420.03
539.278	386.84
539.634	435.35
539.99	368.96
540.345	320.45
540.701	389.39
541.056	384.28
541.412	391.94
541.767	430.24
542.123	376.62
542.478	384.28
542.833	376.62
543.188	397.05
543.544	389.39
543.899	455.78
544.254	463.44
544.609	409.82
544.964	368.96
545.319	333.22
545.674	320.45
546.029	397.05
546.383	399.6
546.738	409.82
547.093	376.62
547.447	376.62
547.802	399.6
548.157	394.5
548.511	323
548.866	333.22
549.22	389.39
549.574	409.82
549.929	391.94
550.283	386.84
550.637	427.69
550.991	389.39
551.345	374.07
551.699	310.24
552.053	394.5
552.407	358.75
552.761	404.71
553.115	376.62
553.469	432.8
553.823	376.62
554.176	363.86
554.53	412.37
554.884	420.03
555.237	601.32
555.591	460.88
555.944	391.94
556.298	402.16
556.651	394.5
557.005	404.71
557.358	404.71
557.711	356.2
558.064	315.34
558.417	325.56
558.771	443.01
559.124	381.73
559.477	374.07
559.83	435.35
560.182	445.56
560.535	478.76
560.888	402.16
561.241	361.3
561.594	443.01
561.946	453.22
562.299	409.82
562.651	427.69
563.004	402.16
563.356	402.16
563.709	351.09
564.061	465.99
564.413	394.5
564.766	397.05
565.118	366.41
565.47	330.66
565.822	412.37
566.174	361.3
566.526	404.71
566.878	333.22
567.23	361.3
567.582	458.33
567.934	417.48
568.286	402.16
568.638	407.26
568.989	437.9
569.341	414.92
569.693	409.82
570.044	391.94
570.396	414.92
570.747	430.24
571.098	391.94
571.45	333.22
571.801	397.05
572.152	386.84
572.504	404.71
572.855	340.88
573.206	417.48
573.557	476.2
573.908	414.92
574.259	407.26
574.61	397.05
574.961	450.67
575.311	422.58
575.662	351.09
576.013	348.54
576.364	409.82
576.714	338.32
577.065	376.62
577.415	366.41
577.766	302.58
578.116	379.18
578.467	430.24
578.817	409.82
579.167	368.96
579.518	417.48
579.868	414.92
580.218	440.46
580.568	425.14
580.918	399.6
581.268	399.6
581.618	397.05
581.968	399.6
582.318	422.58
582.668	414.92
583.017	455.78
583.367	394.5
583.717	358.75
584.066	432.8
584.416	412.37
584.765	376.62
585.115	345.98
585.464	343.43
585.814	407.26
586.163	376.62
586.512	374.07
586.862	389.39
587.211	366.41
587.56	394.5
587.909	328.11
588.258	473.65
588.607	404.71
588.956	420.03
589.305	412.37
589.654	338.32
590.002	371.52
590.351	371.52
590.7	363.86
591.048	386.84
591.397	394.5
591.746	366.41
592.094	356.2
592.443	345.98
592.791	333.22
593.139	417.48
593.488	399.6
593.836	368.96
594.184	368.96
594.532	386.84
594.88	471.1
595.228	307.68
595.576	328.11
595.924	353.64
596.272	450.67
596.62	430.24
596.968	348.54
597.316	394.5
597.664	330.66
598.011	389.39
598.359	312.79
598.706	363.86
599.054	315.34
599.402	371.52
599.749	389.39
600.096	351.09
600.444	412.37
600.791	307.68
601.138	407.26
601.485	353.64
601.833	386.84
602.18	397.05
602.527	338.32
602.874	328.11
603.221	345.98
603.568	363.86
603.914	409.82
604.261	389.39
604.608	363.86
604.955	374.07
605.301	371.52
605.648	297.47
605.995	287.26
606.341	407.26
606.688	427.69
607.034	448.12
607.38	374.07
607.727	414.92
608.073	409.82
608.419	389.39
608.765	476.2
609.112	386.84
609.458	356.2
609.804	420.03
610.15	353.64
610.496	366.41
610.842	317.9
611.187	333.22
611.533	420.03
611.879	356.2
612.225	358.75
612.57	435.35
612.916	371.52
613.261	435.35
613.607	425.14
613.952	394.5
614.298	356.2
614.643	407.26
614.989	402.16
615.334	371.52
615.679	356.2
616.024	394.5
616.369	450.67
616.714	325.56
617.059	325.56
617.404	414.92
617.749	422.58
618.094	368.96
618.439	379.18
618.784	460.88
619.129	407.26
619.473	386.84
619.818	353.64
620.163	414.92
620.507	394.5
620.852	384.28
621.196	348.54
621.54	417.48
621.885	402.16
622.229	381.73
622.573	356.2
622.918	363.86
623.262	399.6
623.606	448.12
623.95	391.94
624.294	338.32
624.638	402.16
624.982	292.36
625.326	414.92
625.67	386.84
626.013	343.43
626.357	320.45
626.701	407.26
627.044	325.56
627.388	353.64
627.731	432.8
628.075	371.52
628.418	348.54
628.762	343.43
629.105	381.73
629.448	335.77
629.792	412.37
630.135	368.96
630.478	386.84
630.821	381.73
631.164	409.82
631.507	356.2
631.85	389.39
632.193	384.28
632.536	386.84
632.879	384.28
633.221	435.35
633.564	389.39
633.907	376.62
634.249	368.96
634.592	402.16
634.935	345.98
635.277	394.5
635.619	404.71
635.962	374.07
636.304	366.41
636.646	317.9
636.989	356.2
637.331	366.41
637.673	432.8
638.015	358.75
638.357	358.75
638.699	379.18
639.041	368.96
639.383	310.24
639.725	374.07
640.067	399.6
640.408	363.86
640.75	348.54
641.092	417.48
641.433	351.09
641.775	404.71
642.116	443.01
642.458	399.6
642.799	353.64
643.141	335.77
643.482	351.09
643.823	391.94
644.164	414.92
644.506	483.87
644.847	409.82
645.188	371.52
645.529	366.41
645.87	407.26
646.211	402.16
646.552	409.82
646.893	381.73
647.233	435.35
647.574	399.6
647.915	366.41
648.255	374.07
648.596	427.69
648.937	437.9
649.277	435.35
649.618	363.86
649.958	432.8
650.298	368.96
650.639	302.58
650.979	381.73
651.319	397.05
651.659	412.37
651.999	420.03
652.339	381.73
652.679	376.62
653.019	302.58
653.359	437.9
653.699	420.03
654.039	448.12
654.379	404.71
654.719	397.05
655.058	389.39
655.398	404.71
655.737	481.31
656.077	376.62
656.416	389.39
656.756	368.96
657.095	330.66
657.435	363.86
657.774	465.99
658.113	358.75
658.452	358.75
658.792	386.84
659.131	437.9
659.47	351.09
659.809	323
660.148	323
660.487	323
660.826	425.14
661.164	386.84
661.503	361.3
661.842	391.94
662.181	325.56
662.519	397.05
662.858	328.11
663.196	437.9
663.535	345.98
663.873	384.28
664.212	358.75
664.55	384.28
664.888	363.86
665.226	363.86
665.565	351.09
665.903	547.7
666.241	320.45
666.579	397.05
666.917	330.66
667.255	381.73
667.593	391.94
667.931	417.48
668.268	358.75
668.606	371.52
668.944	345.98
669.282	376.62
669.619	430.24
669.957	384.28
670.294	381.73
670.632	420.03
670.969	399.6
671.307	343.43
671.644	356.2
671.981	391.94
672.318	348.54
672.656	353.64
672.993	407.26
673.33	338.32
673.667	294.92
674.004	394.5
674.341	356.2
674.678	338.32
675.015	384.28
675.351	384.28
675.688	422.58
676.025	430.24
676.362	440.46
676.698	427.69
677.035	402.16
677.371	381.73
677.708	414.92
678.044	430.24
678.38	374.07
678.717	335.77
679.053	356.2
679.389	361.3
679.725	384.28
680.062	432.8
680.398	374.07
680.734	328.11
681.07	351.09
681.406	361.3
681.742	458.33
682.077	356.2
682.413	379.18
682.749	381.73
683.085	361.3
683.42	363.86
683.756	343.43
684.091	374.07
684.427	402.16
684.762	330.66
685.098	381.73
685.433	361.3
685.768	325.56
686.104	351.09
686.439	427.69
686.774	397.05
687.109	443.01
687.444	343.43
687.779	427.69
688.114	363.86
688.449	358.75
688.784	488.97
689.119	397.05
689.454	343.43
689.789	402.16
690.123	363.86
690.458	414.92
690.792	394.5
691.127	345.98
691.461	376.62
691.796	335.77
692.13	427.69
692.465	427.69
692.799	389.39
693.133	394.5
693.467	399.6
693.802	353.64
694.136	358.75
694.47	307.68
694.804	310.24
695.138	368.96
695.472	366.41
695.806	343.43
696.139	368.96
696.473	320.45
696.807	363.86
697.141	404.71
697.474	340.88
697.808	379.18
698.141	366.41
698.475	371.52
698.808	361.3
699.142	361.3
699.475	368.96
699.808	420.03
700.142	417.48
700.475	432.8
700.808	448.12
701.141	363.86
701.474	404.71
701.807	389.39
702.14	325.56
702.473	379.18
702.806	356.2
703.139	356.2
703.472	430.24
703.804	363.86
704.137	338.32
704.47	414.92
704.802	368.96
705.135	384.28
705.467	330.66
705.8	420.03
706.132	381.73
706.464	363.86
706.797	391.94
707.129	289.81
707.461	435.35
707.793	432.8
708.125	315.34
708.457	320.45
708.789	397.05
709.121	397.05
709.453	289.81
709.785	292.36
710.117	335.77
710.449	440.46
710.781	409.82
711.112	330.66
711.444	325.56
711.775	414.92
712.107	333.22
712.438	445.56
712.77	386.84
713.101	328.11
713.433	305.13
713.764	335.77
714.095	289.81
714.426	358.75
714.757	440.46
715.089	420.03
715.42	425.14
715.751	386.84
716.082	384.28
716.412	399.6
716.743	420.03
717.074	422.58
717.405	348.54
717.736	340.88
718.066	455.78
718.397	445.56
718.727	386.84
719.058	404.71
719.388	366.41
719.719	453.22
720.049	391.94
720.38	363.86
720.71	381.73
721.04	266.83
721.37	402.16
721.7	335.77
722.031	397.05
722.361	412.37
722.691	414.92
723.021	376.62
723.35	384.28
723.68	404.71
724.01	345.98
724.34	315.34
724.67	368.96
724.999	289.81
725.329	356.2
725.658	374.07
725.988	384.28
726.317	379.18
726.647	371.52
726.976	404.71
727.306	386.84
727.635	351.09
727.964	379.18
728.293	310.24
728.622	376.62
728.952	323
729.281	427.69
729.61	287.26
729.939	402.16
730.267	358.75
730.596	366.41
730.925	368.96
731.254	338.32
731.583	412.37
731.911	353.64
732.24	363.86
732.568	358.75
732.897	414.92
733.225	345.98
733.554	397.05
733.882	397.05
734.21	420.03
734.539	376.62
734.867	379.18
735.195	363.86
735.523	435.35
735.851	404.71
736.179	384.28
736.507	404.71
736.835	366.41
737.163	356.2
737.491	437.9
737.819	376.62
738.147	361.3
738.474	379.18
738.802	394.5
739.13	323
739.457	333.22
739.785	340.88
740.112	317.9
740.44	330.66
740.767	294.92
741.094	300.02
741.422	366.41
741.749	317.9
742.076	376.62
742.403	333.22
742.73	412.37
743.057	455.78
743.384	471.1
743.711	409.82
744.038	340.88
744.365	443.01
744.692	422.58
745.018	409.82
745.345	312.79
745.672	386.84
745.998	361.3
746.325	366.41
746.651	333.22
746.978	366.41
747.304	394.5
747.631	345.98
747.957	374.07
748.283	340.88
748.61	394.5
748.936	376.62
749.262	384.28
749.588	351.09
749.914	320.45
750.24	289.81
750.566	323
750.892	351.09
751.218	376.62
751.543	381.73
751.869	361.3
752.195	432.8
752.521	397.05
752.846	414.92
753.172	422.58
753.497	381.73
753.823	371.52
754.148	323
754.473	381.73
754.799	340.88
755.124	391.94
755.449	376.62
755.774	330.66
756.1	289.81
756.425	386.84
756.75	335.77
757.075	363.86
757.4	488.97
757.724	407.26
758.049	338.32
758.374	394.5
758.699	376.62
759.024	379.18
759.348	343.43
759.673	394.5
759.997	325.56
760.322	389.39
760.646	394.5
760.971	345.98
761.295	345.98
761.619	358.75
761.944	409.82
762.268	417.48
762.592	435.35
762.916	522.17
763.24	501.74
763.564	491.53
763.888	557.91
764.212	550.25
764.536	532.38
764.86	471.1
765.184	425.14
765.508	545.15
765.831	573.23
766.155	971.56
766.478	818.36
766.802	953.69
767.126	1060.93
767.449	1395.42
767.772	1492.45
768.096	1472.02
768.419	1428.61
768.742	1262.65
769.066	1193.7
769.389	1012.41
769.712	833.68
770.035	787.72
770.358	672.82
770.681	976.67
771.004	1017.52
771.327	1367.33
771.65	1747.79
771.972	2202.29
772.295	2689.98
772.618	2741.05
772.941	2840.63
773.263	2815.1
773.586	2741.05
773.908	2516.35
774.231	2215.06
774.553	1916.31
774.875	1546.07
775.198	1244.77
775.52	1168.17
775.842	1364.78
776.164	1816.73
776.487	2347.83
776.809	2973.41
777.131	3655.16
777.453	3981.99
777.775	4352.23
778.096	4704.6
778.418	4607.57
778.74	3907.95
779.062	3279.81
779.384	2855.95
779.705	2475.5
780.027	2151.22
780.348	1735.02
780.67	1431.17
780.991	1668.63
781.313	2056.75
781.634	3103.63
781.955	3923.27
782.277	5087.61
782.598	6116.62
782.919	6841.78
783.24	7140.52
783.561	7206.91
783.882	7002.64
784.203	6384.72
784.524	5312.3
784.845	4127.54
785.166	3118.95
785.487	2225.27
785.807	1671.19
786.128	1405.63
786.449	1579.26
786.769	2102.71
787.09	3090.86
787.41	4599.91
787.731	6438.34
788.051	8118.47
788.372	9239.4
788.692	10610.56
789.012	11453.18
789.332	11034.42
789.653	10541.62
789.973	9098.96
790.293	7017.96
790.613	4967.6
790.933	3517.28
791.253	2462.73
791.573	1732.47
791.893	1538.41
792.212	1648.21
792.532	2225.27
792.852	3295.13
793.171	4370.11
793.491	5100.37
793.811	6223.86
794.13	6854.54
794.45	6943.91
794.769	6696.23
795.088	6693.68
795.408	6034.91
795.727	5429.76
796.046	4265.42
796.365	3358.97
796.684	2409.11
797.004	1671.19
797.323	1290.73
797.642	1321.37
797.96	1671.19
798.279	2472.95
798.598	3369.18
798.917	4400.75
799.236	5294.43
799.554	5784.68
799.873	6129.38
800.192	7166.06
800.51	7850.36
800.829	7148.18
801.147	6525.16
