Data from 2025-12-03_xpw_interference_micrometer_634_FLMS141361__25__075.txt Node

Date: Wed Dec 03 15:48:39 MST 2025
User: james
Spectrometer: FLMS14136
Trigger mode: 0
Integration Time (sec): 1.000000E-1
Scans to average: 1
Electric dark correction enabled: true
Nonlinearity correction enabled: false
Boxcar width: 0
XAxis mode: Wavelengths
Number of Pixels in Spectrum: 2048
>>>>>Begin Spectral Data<<<<<
339.315	-89.85
339.697	-89.85
340.079	-89.85
340.461	-84.74
340.843	-92.4
341.225	-74.53
341.607	-97.51
341.989	-133.25
342.371	-92.4
342.752	-43.89
343.134	-36.23
343.516	-51.55
343.897	-54.1
344.279	-69.42
344.661	71.02
345.042	14.84
345.423	73.57
345.805	55.7
346.186	114.42
346.567	139.96
346.949	183.36
347.33	196.13
347.711	173.15
348.092	150.17
348.473	193.58
348.854	293.16
349.235	272.73
349.616	247.2
349.997	285.5
350.378	236.99
350.758	270.18
351.139	305.93
351.52	334.01
351.9	390.19
352.281	328.91
352.661	351.89
353.042	369.76
353.422	397.85
353.803	410.62
354.183	374.87
354.563	331.46
354.943	323.8
355.324	293.16
355.704	328.91
356.084	392.74
356.464	413.17
356.844	438.7
357.224	351.89
357.603	390.19
357.983	397.85
358.363	423.38
358.743	395.29
359.122	372.31
359.502	308.48
359.882	395.29
360.261	392.74
360.641	305.93
361.02	356.99
361.399	328.91
361.779	408.06
362.158	311.03
362.537	344.23
362.916	385.08
363.296	374.87
363.675	339.12
364.054	321.25
364.433	377.42
364.812	336.57
365.19	305.93
365.569	318.69
365.948	331.46
366.327	288.05
366.705	369.76
367.084	354.44
367.463	354.44
367.841	331.46
368.22	298.27
368.598	318.69
368.977	336.57
369.355	280.39
369.733	351.89
370.111	298.27
370.49	323.8
370.868	323.8
371.246	321.25
371.624	326.35
372.002	293.16
372.38	367.21
372.758	392.74
373.136	346.78
373.513	344.23
373.891	326.35
374.269	354.44
374.646	285.5
375.024	359.55
375.402	305.93
375.779	313.59
376.157	300.82
376.534	313.59
376.911	364.65
377.289	313.59
377.666	290.61
378.043	351.89
378.42	356.99
378.797	346.78
379.175	367.21
379.552	351.89
379.929	413.17
380.305	390.19
380.682	364.65
381.059	334.01
381.436	392.74
381.813	280.39
382.189	354.44
382.566	331.46
382.943	362.1
383.319	346.78
383.696	372.31
384.072	382.53
384.448	331.46
384.825	372.31
385.201	359.55
385.577	295.71
385.953	377.42
386.329	408.06
386.706	321.25
387.082	425.94
387.458	395.29
387.834	354.44
388.209	303.37
388.585	305.93
388.961	377.42
389.337	346.78
389.713	372.31
390.088	305.93
390.464	339.12
390.839	308.48
391.215	318.69
391.59	433.6
391.966	390.19
392.341	328.91
392.716	293.16
393.092	339.12
393.467	331.46
393.842	436.15
394.217	344.23
394.592	326.35
394.967	303.37
395.342	402.95
395.717	382.53
396.092	387.63
396.467	349.33
396.841	331.46
397.216	351.89
397.591	341.67
397.965	354.44
398.34	349.33
398.714	356.99
399.089	300.82
399.463	377.42
399.838	402.95
400.212	379.97
400.586	339.12
400.961	408.06
401.335	369.76
401.709	280.39
402.083	349.33
402.457	415.72
402.831	374.87
403.205	400.4
403.579	367.21
403.953	364.65
404.326	331.46
404.7	433.6
405.074	400.4
405.447	364.65
405.821	382.53
406.195	367.21
406.568	351.89
406.942	456.58
407.315	356.99
407.688	377.42
408.062	334.01
408.435	372.31
408.808	316.14
409.181	364.65
409.554	369.76
409.927	382.53
410.3	387.63
410.673	364.65
411.046	356.99
411.419	390.19
411.792	351.89
412.165	379.97
412.537	351.89
412.91	364.65
413.283	354.44
413.655	397.85
414.028	390.19
414.4	275.29
414.773	387.63
415.145	367.21
415.517	400.4
415.889	405.51
416.262	420.83
416.634	374.87
417.006	349.33
417.378	431.04
417.75	362.1
418.122	364.65
418.494	454.02
418.866	354.44
419.238	405.51
419.609	336.57
419.981	346.78
420.353	387.63
420.725	351.89
421.096	438.7
421.468	436.15
421.839	395.29
422.211	364.65
422.582	331.46
422.953	420.83
423.325	397.85
423.696	448.92
424.067	423.38
424.438	397.85
424.809	405.51
425.18	354.44
425.551	390.19
425.922	377.42
426.293	323.8
426.664	362.1
427.035	448.92
427.406	400.4
427.776	425.94
428.147	413.17
428.518	433.6
428.888	374.87
429.259	339.12
429.629	341.67
429.999	336.57
430.37	351.89
430.74	377.42
431.11	385.08
431.481	402.95
431.851	385.08
432.221	372.31
432.591	379.97
432.961	382.53
433.331	428.49
433.701	346.78
434.071	362.1
434.441	379.97
434.81	351.89
435.18	441.26
435.55	364.65
435.919	397.85
436.289	364.65
436.658	362.1
437.028	369.76
437.397	341.67
437.767	349.33
438.136	372.31
438.505	341.67
438.875	344.23
439.244	413.17
439.613	369.76
439.982	331.46
440.351	356.99
440.72	392.74
441.089	367.21
441.458	425.94
441.827	336.57
442.196	288.05
442.564	459.13
442.933	446.36
443.302	392.74
443.67	364.65
444.039	425.94
444.407	436.15
444.776	438.7
445.144	377.42
445.513	346.78
445.881	402.95
446.249	464.24
446.617	349.33
446.986	415.72
447.354	431.04
447.722	443.81
448.09	418.28
448.458	313.59
448.826	433.6
449.194	364.65
449.561	443.81
449.929	344.23
450.297	428.49
450.665	382.53
451.032	423.38
451.4	382.53
451.767	351.89
452.135	420.83
452.502	448.92
452.87	382.53
453.237	331.46
453.604	392.74
453.971	364.65
454.339	405.51
454.706	428.49
455.073	397.85
455.44	362.1
455.807	413.17
456.174	392.74
456.541	466.79
456.908	420.83
457.274	423.38
457.641	469.34
458.008	418.28
458.374	372.31
458.741	400.4
459.108	356.99
459.474	385.08
459.841	400.4
460.207	423.38
460.573	364.65
460.94	369.76
461.306	351.89
461.672	344.23
462.038	356.99
462.404	448.92
462.771	323.8
463.137	392.74
463.503	448.92
463.868	425.94
464.234	415.72
464.6	408.06
464.966	372.31
465.332	441.26
465.697	382.53
466.063	428.49
466.429	349.33
466.794	448.92
467.16	390.19
467.525	438.7
467.89	451.47
468.256	405.51
468.621	369.76
468.986	369.76
469.351	359.55
469.717	400.4
470.082	397.85
470.447	344.23
470.812	431.04
471.177	395.29
471.542	400.4
471.906	359.55
472.271	367.21
472.636	420.83
473.001	418.28
473.365	374.87
473.73	385.08
474.094	385.08
474.459	431.04
474.823	405.51
475.188	408.06
475.552	387.63
475.917	295.71
476.281	395.29
476.645	418.28
477.009	379.97
477.373	446.36
477.737	359.55
478.101	377.42
478.465	415.72
478.829	349.33
479.193	362.1
479.557	385.08
479.921	390.19
480.284	402.95
480.648	431.04
481.012	428.49
481.375	423.38
481.739	436.15
482.102	362.1
482.466	395.29
482.829	461.68
483.193	423.38
483.556	418.28
483.919	372.31
484.282	433.6
484.645	359.55
485.009	377.42
485.372	359.55
485.735	397.85
486.098	438.7
486.46	369.76
486.823	451.47
487.186	415.72
487.549	471.9
487.912	471.9
488.274	461.68
488.637	354.44
488.999	336.57
489.362	410.62
489.724	446.36
490.087	425.94
490.449	428.49
490.811	415.72
491.174	400.4
491.536	433.6
491.898	382.53
492.26	431.04
492.622	346.78
492.984	415.72
493.346	382.53
493.708	448.92
494.07	369.76
494.432	461.68
494.794	377.42
495.155	372.31
495.517	461.68
495.879	410.62
496.24	374.87
496.602	395.29
496.963	377.42
497.325	349.33
497.686	359.55
498.048	351.89
498.409	428.49
498.77	379.97
499.131	364.65
499.492	405.51
499.854	469.34
500.215	369.76
500.576	395.29
500.937	408.06
501.298	351.89
501.658	369.76
502.019	405.51
502.38	351.89
502.741	339.12
503.101	392.74
503.462	359.55
503.823	346.78
504.183	346.78
504.543	436.15
504.904	408.06
505.264	415.72
505.625	385.08
505.985	374.87
506.345	428.49
506.705	420.83
507.065	356.99
507.426	413.17
507.786	397.85
508.146	364.65
508.505	441.26
508.865	359.55
509.225	392.74
509.585	456.58
509.945	382.53
510.304	400.4
510.664	390.19
511.024	397.85
511.383	402.95
511.743	336.57
512.102	364.65
512.462	364.65
512.821	451.47
513.18	402.95
513.539	441.26
513.899	433.6
514.258	454.02
514.617	364.65
514.976	392.74
515.335	323.8
515.694	387.63
516.053	372.31
516.412	351.89
516.771	397.85
517.129	459.13
517.488	446.36
517.847	433.6
518.205	402.95
518.564	385.08
518.922	395.29
519.281	392.74
519.639	387.63
519.998	321.25
520.356	346.78
520.714	387.63
521.073	397.85
521.431	436.15
521.789	392.74
522.147	451.47
522.505	446.36
522.863	431.04
523.221	499.98
523.579	372.31
523.937	471.9
524.295	346.78
524.652	369.76
525.01	385.08
525.368	377.42
525.725	415.72
526.083	415.72
526.44	420.83
526.798	397.85
527.155	390.19
527.513	382.53
527.87	408.06
528.227	466.79
528.584	369.76
528.942	425.94
529.299	464.24
529.656	415.72
530.013	489.77
530.37	410.62
530.727	362.1
531.083	438.7
531.44	408.06
531.797	400.4
532.154	410.62
532.511	423.38
532.867	344.23
533.224	441.26
533.58	395.29
533.937	318.69
534.293	438.7
534.65	443.81
535.006	405.51
535.362	433.6
535.718	390.19
536.075	415.72
536.431	372.31
536.787	351.89
537.143	367.21
537.499	374.87
537.855	413.17
538.211	402.95
538.567	418.28
538.923	369.76
539.278	387.63
539.634	392.74
539.99	397.85
540.345	395.29
540.701	374.87
541.056	359.55
541.412	367.21
541.767	425.94
542.123	356.99
542.478	448.92
542.833	364.65
543.188	405.51
543.544	413.17
543.899	379.97
544.254	431.04
544.609	372.31
544.964	423.38
545.319	408.06
545.674	420.83
546.029	385.08
546.383	341.67
546.738	382.53
547.093	334.01
547.447	323.8
547.802	316.14
548.157	402.95
548.511	336.57
548.866	397.85
549.22	382.53
549.574	328.91
549.929	356.99
550.283	390.19
550.637	410.62
550.991	402.95
551.345	425.94
551.699	385.08
552.053	344.23
552.407	400.4
552.761	443.81
553.115	459.13
553.469	515.3
553.823	326.35
554.176	415.72
554.53	392.74
554.884	420.83
555.237	673.61
555.591	436.15
555.944	469.34
556.298	484.66
556.651	390.19
557.005	451.47
557.358	459.13
557.711	431.04
558.064	341.67
558.417	369.76
558.771	497.43
559.124	436.15
559.477	405.51
559.83	397.85
560.182	395.29
560.535	448.92
560.888	372.31
561.241	382.53
561.594	405.51
561.946	362.1
562.299	390.19
562.651	397.85
563.004	290.61
563.356	356.99
563.709	397.85
564.061	446.36
564.413	446.36
564.766	356.99
565.118	364.65
565.47	410.62
565.822	382.53
566.174	448.92
566.526	354.44
566.878	387.63
567.23	405.51
567.582	402.95
567.934	400.4
568.286	402.95
568.638	374.87
568.989	428.49
569.341	443.81
569.693	410.62
570.044	443.81
570.396	433.6
570.747	359.55
571.098	336.57
571.45	369.76
571.801	387.63
572.152	311.03
572.504	349.33
572.855	349.33
573.206	415.72
573.557	313.59
573.908	351.89
574.259	385.08
574.61	405.51
574.961	362.1
575.311	397.85
575.662	367.21
576.013	367.21
576.364	397.85
576.714	397.85
577.065	359.55
577.415	354.44
577.766	354.44
578.116	390.19
578.467	390.19
578.817	385.08
579.167	392.74
579.518	438.7
579.868	425.94
580.218	390.19
580.568	469.34
580.918	438.7
581.268	334.01
581.618	402.95
581.968	461.68
582.318	369.76
582.668	390.19
583.017	331.46
583.367	392.74
583.717	334.01
584.066	420.83
584.416	379.97
584.765	397.85
585.115	321.25
585.464	392.74
585.814	369.76
586.163	425.94
586.512	359.55
586.862	372.31
587.211	408.06
587.56	359.55
587.909	423.38
588.258	359.55
588.607	362.1
588.956	436.15
589.305	487.22
589.654	387.63
590.002	425.94
590.351	341.67
590.7	402.95
591.048	433.6
591.397	405.51
591.746	433.6
592.094	454.02
592.443	341.67
592.791	382.53
593.139	311.03
593.488	346.78
593.836	356.99
594.184	341.67
594.532	402.95
594.88	464.24
595.228	441.26
595.576	339.12
595.924	418.28
596.272	362.1
596.62	377.42
596.968	405.51
597.316	354.44
597.664	369.76
598.011	326.35
598.359	395.29
598.706	448.92
599.054	336.57
599.402	308.48
599.749	308.48
600.096	387.63
600.444	369.76
600.791	379.97
601.138	446.36
601.485	395.29
601.833	359.55
602.18	395.29
602.527	334.01
602.874	433.6
603.221	433.6
603.568	446.36
603.914	362.1
604.261	438.7
604.608	300.82
604.955	438.7
605.301	377.42
605.648	362.1
605.995	339.12
606.341	367.21
606.688	400.4
607.034	425.94
607.38	408.06
607.727	328.91
608.073	369.76
608.419	359.55
608.765	382.53
609.112	415.72
609.458	349.33
609.804	410.62
610.15	420.83
610.496	433.6
610.842	377.42
611.187	420.83
611.533	431.04
611.879	446.36
612.225	397.85
612.57	415.72
612.916	400.4
613.261	359.55
613.607	377.42
613.952	369.76
614.298	362.1
614.643	395.29
614.989	390.19
615.334	359.55
615.679	374.87
616.024	346.78
616.369	413.17
616.714	364.65
617.059	328.91
617.404	321.25
617.749	415.72
618.094	372.31
618.439	367.21
618.784	390.19
619.129	382.53
619.473	433.6
619.818	346.78
620.163	436.15
620.507	344.23
620.852	377.42
621.196	433.6
621.54	379.97
621.885	351.89
622.229	372.31
622.573	400.4
622.918	433.6
623.262	390.19
623.606	346.78
623.95	362.1
624.294	339.12
624.638	438.7
624.982	359.55
625.326	482.11
625.67	392.74
626.013	405.51
626.357	344.23
626.701	390.19
627.044	415.72
627.388	397.85
627.731	346.78
628.075	326.35
628.418	359.55
628.762	418.28
629.105	395.29
629.448	415.72
629.792	420.83
630.135	431.04
630.478	400.4
630.821	443.81
631.164	397.85
631.507	359.55
631.85	328.91
632.193	451.47
632.536	362.1
632.879	328.91
633.221	415.72
633.564	354.44
633.907	385.08
634.249	423.38
634.592	420.83
634.935	413.17
635.277	428.49
635.619	362.1
635.962	336.57
636.304	420.83
636.646	351.89
636.989	374.87
637.331	408.06
637.673	405.51
638.015	374.87
638.357	413.17
638.699	367.21
639.041	339.12
639.383	341.67
639.725	356.99
640.067	351.89
640.408	339.12
640.75	344.23
641.092	346.78
641.433	385.08
641.775	336.57
642.116	425.94
642.458	397.85
642.799	395.29
643.141	402.95
643.482	364.65
643.823	377.42
644.164	410.62
644.506	433.6
644.847	397.85
645.188	438.7
645.529	431.04
645.87	344.23
646.211	341.67
646.552	354.44
646.893	400.4
647.233	431.04
647.574	372.31
647.915	382.53
648.255	392.74
648.596	344.23
648.937	446.36
649.277	362.1
649.618	362.1
649.958	402.95
650.298	392.74
650.639	428.49
650.979	413.17
651.319	392.74
651.659	392.74
651.999	356.99
652.339	369.76
652.679	418.28
653.019	341.67
653.359	351.89
653.699	364.65
654.039	364.65
654.379	334.01
654.719	372.31
655.058	316.14
655.398	372.31
655.737	515.3
656.077	418.28
656.416	459.13
656.756	369.76
657.095	387.63
657.435	336.57
657.774	359.55
658.113	497.43
658.452	369.76
658.792	359.55
659.131	374.87
659.47	395.29
659.809	402.95
660.148	446.36
660.487	364.65
660.826	392.74
661.164	413.17
661.503	326.35
661.842	326.35
662.181	285.5
662.519	362.1
662.858	367.21
663.196	359.55
663.535	328.91
663.873	364.65
664.212	331.46
664.55	359.55
664.888	339.12
665.226	420.83
665.565	372.31
665.903	591.9
666.241	441.26
666.579	410.62
666.917	415.72
667.255	362.1
667.593	390.19
667.931	420.83
668.268	379.97
668.606	336.57
668.944	433.6
669.282	374.87
669.619	395.29
669.957	446.36
670.294	339.12
670.632	397.85
670.969	372.31
671.307	454.02
671.644	423.38
671.981	410.62
672.318	385.08
672.656	413.17
672.993	372.31
673.33	305.93
673.667	369.76
674.004	382.53
674.341	382.53
674.678	321.25
675.015	359.55
675.351	395.29
675.688	413.17
676.025	397.85
676.362	464.24
676.698	395.29
677.035	402.95
677.371	377.42
677.708	344.23
678.044	300.82
678.38	367.21
678.717	341.67
679.053	374.87
679.389	402.95
679.725	397.85
680.062	359.55
680.398	382.53
680.734	392.74
681.07	382.53
681.406	410.62
681.742	405.51
682.077	423.38
682.413	402.95
682.749	418.28
683.085	318.69
683.42	397.85
683.756	336.57
684.091	387.63
684.427	374.87
684.762	374.87
685.098	410.62
685.433	420.83
685.768	441.26
686.104	336.57
686.439	387.63
686.774	425.94
687.109	374.87
687.444	405.51
687.779	369.76
688.114	415.72
688.449	423.38
688.784	402.95
689.119	356.99
689.454	390.19
689.789	392.74
690.123	362.1
690.458	362.1
690.792	334.01
691.127	339.12
691.461	377.42
691.796	362.1
692.13	392.74
692.465	408.06
692.799	354.44
693.133	385.08
693.467	418.28
693.802	408.06
694.136	395.29
694.47	362.1
694.804	402.95
695.138	364.65
695.472	339.12
695.806	346.78
696.139	351.89
696.473	392.74
696.807	382.53
697.141	441.26
697.474	364.65
697.808	392.74
698.141	377.42
698.475	382.53
698.808	405.51
699.142	346.78
699.475	484.66
699.808	318.69
700.142	367.21
700.475	356.99
700.808	369.76
701.141	392.74
701.474	369.76
701.807	395.29
702.14	436.15
702.473	349.33
702.806	321.25
703.139	456.58
703.472	377.42
703.804	433.6
704.137	374.87
704.47	372.31
704.802	428.49
705.135	359.55
705.467	346.78
705.8	428.49
706.132	377.42
706.464	471.9
706.797	461.68
707.129	395.29
707.461	379.97
707.793	405.51
708.125	359.55
708.457	425.94
708.789	448.92
709.121	395.29
709.453	367.21
709.785	431.04
710.117	346.78
710.449	369.76
710.781	346.78
711.112	328.91
711.444	379.97
711.775	385.08
712.107	395.29
712.438	425.94
712.77	385.08
713.101	379.97
713.433	367.21
713.764	336.57
714.095	428.49
714.426	372.31
714.757	369.76
715.089	323.8
715.42	385.08
715.751	395.29
716.082	402.95
716.412	334.01
716.743	423.38
717.074	397.85
717.405	433.6
717.736	367.21
718.066	377.42
718.397	377.42
718.727	400.4
719.058	372.31
719.388	405.51
719.719	405.51
720.049	400.4
720.38	374.87
720.71	423.38
721.04	402.95
721.37	438.7
721.7	313.59
722.031	346.78
722.361	423.38
722.691	367.21
723.021	395.29
723.35	326.35
723.68	400.4
724.01	438.7
724.34	456.58
724.67	336.57
724.999	405.51
725.329	349.33
725.658	374.87
725.988	336.57
726.317	395.29
726.647	362.1
726.976	425.94
727.306	392.74
727.635	461.68
727.964	397.85
728.293	382.53
728.622	372.31
728.952	377.42
729.281	487.22
729.61	405.51
729.939	362.1
730.267	311.03
730.596	364.65
730.925	428.49
731.254	382.53
731.583	402.95
731.911	397.85
732.24	402.95
732.568	334.01
732.897	413.17
733.225	372.31
733.554	385.08
733.882	367.21
734.21	413.17
734.539	377.42
734.867	392.74
735.195	331.46
735.523	308.48
735.851	351.89
736.179	400.4
736.507	408.06
736.835	387.63
737.163	425.94
737.491	397.85
737.819	431.04
738.147	344.23
738.474	390.19
738.802	428.49
739.13	369.76
739.457	349.33
739.785	356.99
740.112	323.8
740.44	390.19
740.767	318.69
741.094	354.44
741.422	349.33
741.749	331.46
742.076	374.87
742.403	349.33
742.73	367.21
743.057	400.4
743.384	362.1
743.711	356.99
744.038	354.44
744.365	425.94
744.692	390.19
745.018	356.99
745.345	441.26
745.672	438.7
745.998	408.06
746.325	313.59
746.651	390.19
746.978	359.55
747.304	344.23
747.631	390.19
747.957	367.21
748.283	369.76
748.61	349.33
748.936	372.31
749.262	349.33
749.588	359.55
749.914	425.94
750.24	405.51
750.566	341.67
750.892	339.12
751.218	354.44
751.543	387.63
751.869	397.85
752.195	392.74
752.521	313.59
752.846	356.99
753.172	369.76
753.497	354.44
753.823	336.57
754.148	387.63
754.473	339.12
754.799	369.76
755.124	418.28
755.449	456.58
755.774	349.33
756.1	425.94
756.425	369.76
756.75	400.4
757.075	438.7
757.4	528.07
757.724	382.53
758.049	415.72
758.374	400.4
758.699	405.51
759.024	428.49
759.348	408.06
759.673	300.82
759.997	349.33
760.322	413.17
760.646	379.97
760.971	369.76
761.295	367.21
761.619	436.15
761.944	459.13
762.268	471.9
762.592	456.58
762.916	584.24
763.24	494.88
763.564	497.43
763.888	492.32
764.212	566.37
764.536	477
764.86	484.66
765.184	535.73
765.508	548.5
765.831	581.69
766.155	893.2
766.478	816.6
766.802	888.1
767.126	990.23
767.449	1232.8
767.772	1414.09
768.096	1442.18
768.419	1375.79
768.742	1314.51
769.066	1204.72
769.389	1112.79
769.712	911.08
770.035	714.47
770.358	750.21
770.681	788.52
771.004	951.93
771.327	1166.41
771.65	1626.02
771.972	1914.55
772.295	2330.76
772.618	2565.67
772.941	2652.48
773.263	2667.8
773.586	2537.58
773.908	2555.45
774.231	2397.14
774.553	1853.27
774.875	1528.99
775.198	1286.42
775.52	1125.56
775.842	1153.65
776.164	1419.2
776.487	1832.85
776.809	2407.36
777.131	2984.42
777.453	3449.13
777.775	3597.23
778.096	4248.34
778.418	4233.02
778.74	3730.01
779.062	3242.31
779.384	2800.58
779.705	2626.95
780.027	2307.77
780.348	1738.37
780.67	1322.17
780.991	1334.94
781.313	1784.33
781.634	2381.82
781.955	3214.22
782.277	4049.18
782.598	5223.73
782.919	5785.48
783.24	6528.51
783.561	6479.99
783.882	6704.69
784.203	6301.26
784.524	5218.63
784.845	4286.64
785.166	3247.42
785.487	2328.2
785.807	1881.36
786.128	1324.72
786.449	1352.81
786.769	1646.45
787.09	2427.78
787.41	3668.73
787.731	5356.51
788.051	6868.11
788.372	7851.16
788.692	9288.71
789.012	10338.15
789.332	10233.46
789.653	10085.36
789.973	9150.83
790.293	7256.22
790.613	5119.04
790.933	3668.73
791.253	2634.61
791.573	1825.19
791.893	1480.48
792.212	1452.39
792.532	1799.65
792.852	2693.34
793.171	3763.2
793.491	4429.63
793.811	5466.3
794.13	6089.33
794.45	6316.58
794.769	6398.29
795.088	6434.03
795.408	5849.31
795.727	5619.51
796.046	4355.58
796.365	3375.09
796.684	2606.52
797.004	1776.67
797.323	1334.94
797.642	1250.68
797.96	1378.35
798.279	1825.19
798.598	2529.92
798.917	3645.75
799.236	4319.84
799.554	4930.09
799.873	5387.15
