Data from 2025-12-03_xpw_interference_micrometer_634_FLMS141361__72__122.txt Node

Date: Wed Dec 03 15:48:43 MST 2025
User: james
Spectrometer: FLMS14136
Trigger mode: 0
Integration Time (sec): 1.000000E-1
Scans to average: 1
Electric dark correction enabled: true
Nonlinearity correction enabled: false
Boxcar width: 0
XAxis mode: Wavelengths
Number of Pixels in Spectrum: 2048
>>>>>Begin Spectral Data<<<<<
339.315	-48.51
339.697	-48.51
340.079	-48.51
340.461	-130.22
340.843	-81.71
341.225	-122.56
341.607	-135.33
341.989	-94.47
342.371	-132.78
342.752	-48.51
343.134	-48.51
343.516	-79.15
343.897	-48.51
344.279	58.73
344.661	56.17
345.042	25.53
345.423	25.53
345.805	45.96
346.186	135.33
346.567	173.63
346.949	188.95
347.33	122.56
347.711	240.02
348.092	219.59
348.473	232.36
348.854	301.3
349.235	237.46
349.616	260.44
349.997	255.34
350.378	308.96
350.758	301.3
351.139	275.76
351.52	306.41
351.9	334.49
352.281	362.58
352.661	316.62
353.042	319.17
353.422	349.81
353.803	487.7
354.183	311.51
354.563	411.09
354.943	408.54
355.324	352.37
355.704	446.84
356.084	408.54
356.464	444.29
356.844	503.02
357.224	352.37
357.603	349.81
357.983	405.99
358.363	357.47
358.743	393.22
359.122	403.43
359.502	331.94
359.882	365.13
360.261	334.49
360.641	408.54
361.02	413.65
361.399	347.26
361.779	380.45
362.158	380.45
362.537	319.17
362.916	352.37
363.296	298.75
363.675	342.15
364.054	347.26
364.433	331.94
364.812	362.58
365.19	306.41
365.569	316.62
365.948	390.67
366.327	357.47
366.705	357.47
367.084	370.24
367.463	375.35
367.841	337.05
368.22	324.28
368.598	334.49
368.977	377.9
369.355	344.71
369.733	329.39
370.111	354.92
370.49	319.17
370.868	365.13
371.246	339.6
371.624	403.43
372.002	308.96
372.38	337.05
372.758	319.17
373.136	362.58
373.513	352.37
373.891	398.33
374.269	268.1
374.646	372.79
375.024	393.22
375.402	331.94
375.779	370.24
376.157	372.79
376.534	367.69
376.911	352.37
377.289	423.86
377.666	321.73
378.043	388.11
378.42	319.17
378.797	296.19
379.175	326.83
379.552	337.05
379.929	319.17
380.305	377.9
380.682	375.35
381.059	329.39
381.436	339.6
381.813	398.33
382.189	354.92
382.566	400.88
382.943	403.43
383.319	398.33
383.696	421.31
384.072	349.81
384.448	403.43
384.825	449.39
385.201	421.31
385.577	311.51
385.953	347.26
386.329	337.05
386.706	339.6
387.082	428.97
387.458	352.37
387.834	395.77
388.209	395.77
388.585	393.22
388.961	370.24
389.337	383.01
389.713	395.77
390.088	390.67
390.464	347.26
390.839	372.79
391.215	388.11
391.59	400.88
391.966	331.94
392.341	370.24
392.716	347.26
393.092	324.28
393.467	362.58
393.842	383.01
394.217	383.01
394.592	344.71
394.967	400.88
395.342	372.79
395.717	377.9
396.092	357.47
396.467	390.67
396.841	383.01
397.216	408.54
397.591	365.13
397.965	354.92
398.34	352.37
398.714	347.26
399.089	375.35
399.463	314.07
399.838	334.49
400.212	331.94
400.586	375.35
400.961	385.56
401.335	365.13
401.709	380.45
402.083	347.26
402.457	344.71
402.831	375.35
403.205	411.09
403.579	372.79
403.953	370.24
404.326	354.92
404.7	360.03
405.074	418.75
405.447	413.65
405.821	439.18
406.195	405.99
406.568	439.18
406.942	411.09
407.315	403.43
407.688	457.05
408.062	370.24
408.435	426.41
408.808	393.22
409.181	413.65
409.554	395.77
409.927	388.11
410.3	400.88
410.673	393.22
411.046	388.11
411.419	436.63
411.792	467.27
412.165	326.83
412.537	408.54
412.91	319.17
413.283	375.35
413.655	354.92
414.028	365.13
414.4	339.6
414.773	357.47
415.145	365.13
415.517	365.13
415.889	380.45
416.262	352.37
416.634	457.05
417.006	426.41
417.378	370.24
417.75	393.22
418.122	449.39
418.494	349.81
418.866	375.35
419.238	372.79
419.609	367.69
419.981	365.13
420.353	454.5
420.725	421.31
421.096	377.9
421.468	390.67
421.839	349.81
422.211	459.61
422.582	408.54
422.953	390.67
423.325	413.65
423.696	388.11
424.067	436.63
424.438	385.56
424.809	383.01
425.18	459.61
425.551	411.09
425.922	405.99
426.293	441.73
426.664	383.01
427.035	457.05
427.406	418.75
427.776	426.41
428.147	413.65
428.518	403.43
428.888	405.99
429.259	349.81
429.629	400.88
429.999	372.79
430.37	342.15
430.74	436.63
431.11	423.86
431.481	357.47
431.851	362.58
432.221	388.11
432.591	375.35
432.961	367.69
433.331	360.03
433.701	418.75
434.071	446.84
434.441	436.63
434.81	370.24
435.18	383.01
435.55	436.63
435.919	405.99
436.289	405.99
436.658	357.47
437.028	423.86
437.397	451.95
437.767	380.45
438.136	375.35
438.505	411.09
438.875	357.47
439.244	372.79
439.613	398.33
439.982	344.71
440.351	367.69
440.72	451.95
441.089	428.97
441.458	375.35
441.827	421.31
442.196	339.6
442.564	500.46
442.933	395.77
443.302	385.56
443.67	372.79
444.039	388.11
444.407	436.63
444.776	421.31
445.144	405.99
445.513	408.54
445.881	416.2
446.249	426.41
446.617	372.79
446.986	467.27
447.354	436.63
447.722	416.2
448.09	411.09
448.458	418.75
448.826	436.63
449.194	411.09
449.561	411.09
449.929	393.22
450.297	354.92
450.665	441.73
451.032	439.18
451.4	418.75
451.767	449.39
452.135	400.88
452.502	362.58
452.87	380.45
453.237	441.73
453.604	411.09
453.971	428.97
454.339	444.29
454.706	367.69
455.073	403.43
455.44	352.37
455.807	467.27
456.174	398.33
456.541	451.95
456.908	413.65
457.274	342.15
457.641	375.35
458.008	375.35
458.374	347.26
458.741	413.65
459.108	388.11
459.474	411.09
459.841	436.63
460.207	446.84
460.573	418.75
460.94	375.35
461.306	423.86
461.672	421.31
462.038	385.56
462.404	451.95
462.771	426.41
463.137	459.61
463.503	423.86
463.868	411.09
464.234	480.04
464.6	370.24
464.966	436.63
465.332	316.62
465.697	367.69
466.063	395.77
466.429	337.05
466.794	375.35
467.16	441.73
467.525	385.56
467.89	365.13
468.256	441.73
468.621	416.2
468.986	423.86
469.351	457.05
469.717	395.77
470.082	474.93
470.447	451.95
470.812	388.11
471.177	441.73
471.542	421.31
471.906	388.11
472.271	372.79
472.636	390.67
473.001	337.05
473.365	454.5
473.73	405.99
474.094	383.01
474.459	423.86
474.823	390.67
475.188	459.61
475.552	472.37
475.917	505.57
476.281	423.86
476.645	464.71
477.009	436.63
477.373	388.11
477.737	413.65
478.101	413.65
478.465	439.18
478.829	380.45
479.193	390.67
479.557	413.65
479.921	403.43
480.284	441.73
480.648	474.93
481.012	454.5
481.375	444.29
481.739	418.75
482.102	367.69
482.466	372.79
482.829	469.82
483.193	398.33
483.556	411.09
483.919	421.31
484.282	428.97
484.645	360.03
485.009	467.27
485.372	480.04
485.735	413.65
486.098	446.84
486.46	413.65
486.823	462.16
487.186	451.95
487.549	398.33
487.912	339.6
488.274	383.01
488.637	403.43
488.999	413.65
489.362	380.45
489.724	428.97
490.087	418.75
490.449	464.71
490.811	362.58
491.174	352.37
491.536	411.09
491.898	375.35
492.26	393.22
492.622	403.43
492.984	367.69
493.346	413.65
493.708	411.09
494.07	413.65
494.432	418.75
494.794	421.31
495.155	480.04
495.517	480.04
495.879	434.07
496.24	421.31
496.602	449.39
496.963	380.45
497.325	451.95
497.686	459.61
498.048	459.61
498.409	380.45
498.77	408.54
499.131	408.54
499.492	380.45
499.854	405.99
500.215	454.5
500.576	370.24
500.937	441.73
501.298	413.65
501.658	390.67
502.019	469.82
502.38	388.11
502.741	434.07
503.101	418.75
503.462	383.01
503.823	360.03
504.183	375.35
504.543	372.79
504.904	431.52
505.264	413.65
505.625	413.65
505.985	457.05
506.345	403.43
506.705	362.58
507.065	413.65
507.426	372.79
507.786	329.39
508.146	306.41
508.505	413.65
508.865	377.9
509.225	352.37
509.585	515.78
509.945	365.13
510.304	439.18
510.664	431.52
511.024	444.29
511.383	377.9
511.743	441.73
512.102	421.31
512.462	454.5
512.821	393.22
513.18	395.77
513.539	393.22
513.899	357.47
514.258	383.01
514.617	383.01
514.976	446.84
515.335	403.43
515.694	349.81
516.053	388.11
516.412	403.43
516.771	416.2
517.129	408.54
517.488	362.58
517.847	441.73
518.205	449.39
518.564	462.16
518.922	416.2
519.281	444.29
519.639	383.01
519.998	400.88
520.356	439.18
520.714	441.73
521.073	408.54
521.431	444.29
521.789	469.82
522.147	457.05
522.505	434.07
522.863	431.52
523.221	393.22
523.579	360.03
523.937	411.09
524.295	393.22
524.652	377.9
525.01	403.43
525.368	474.93
525.725	449.39
526.083	423.86
526.44	349.81
526.798	357.47
527.155	449.39
527.513	400.88
527.87	377.9
528.227	418.75
528.584	400.88
528.942	487.7
529.299	377.9
529.656	405.99
530.013	411.09
530.37	393.22
530.727	457.05
531.083	508.12
531.44	400.88
531.797	474.93
532.154	393.22
532.511	416.2
532.867	390.67
533.224	423.86
533.58	413.65
533.937	444.29
534.293	431.52
534.65	352.37
535.006	439.18
535.362	383.01
535.718	372.79
536.075	413.65
536.431	444.29
536.787	400.88
537.143	474.93
537.499	459.61
537.855	388.11
538.211	439.18
538.567	434.07
538.923	408.54
539.278	462.16
539.634	457.05
539.99	436.63
540.345	408.54
540.701	411.09
541.056	454.5
541.412	426.41
541.767	462.16
542.123	441.73
542.478	434.07
542.833	398.33
543.188	411.09
543.544	454.5
543.899	428.97
544.254	383.01
544.609	421.31
544.964	403.43
545.319	408.54
545.674	426.41
546.029	367.69
546.383	418.75
546.738	403.43
547.093	416.2
547.447	477.48
547.802	441.73
548.157	446.84
548.511	428.97
548.866	395.77
549.22	400.88
549.574	372.79
549.929	370.24
550.283	477.48
550.637	395.77
550.991	444.29
551.345	423.86
551.699	464.71
552.053	421.31
552.407	349.81
552.761	357.47
553.115	398.33
553.469	428.97
553.823	367.69
554.176	393.22
554.53	416.2
554.884	380.45
555.237	615.36
555.591	472.37
555.944	423.86
556.298	380.45
556.651	337.05
557.005	428.97
557.358	398.33
557.711	459.61
558.064	398.33
558.417	385.56
558.771	441.73
559.124	405.99
559.477	467.27
559.83	360.03
560.182	390.67
560.535	510.68
560.888	375.35
561.241	477.48
561.594	403.43
561.946	408.54
562.299	431.52
562.651	395.77
563.004	390.67
563.356	377.9
563.709	400.88
564.061	403.43
564.413	436.63
564.766	398.33
565.118	395.77
565.47	383.01
565.822	393.22
566.174	390.67
566.526	365.13
566.878	421.31
567.23	413.65
567.582	413.65
567.934	398.33
568.286	411.09
568.638	439.18
568.989	480.04
569.341	357.47
569.693	441.73
570.044	408.54
570.396	487.7
570.747	405.99
571.098	416.2
571.45	418.75
571.801	451.95
572.152	441.73
572.504	375.35
572.855	436.63
573.206	426.41
573.557	428.97
573.908	439.18
574.259	385.56
574.61	431.52
574.961	411.09
575.311	426.41
575.662	385.56
576.013	400.88
576.364	337.05
576.714	393.22
577.065	375.35
577.415	334.49
577.766	403.43
578.116	411.09
578.467	357.47
578.817	370.24
579.167	421.31
579.518	408.54
579.868	449.39
580.218	421.31
580.568	449.39
580.918	439.18
581.268	421.31
581.618	390.67
581.968	383.01
582.318	375.35
582.668	395.77
583.017	372.79
583.367	367.69
583.717	434.07
584.066	349.81
584.416	395.77
584.765	388.11
585.115	411.09
585.464	413.65
585.814	388.11
586.163	482.59
586.512	319.17
586.862	413.65
587.211	393.22
587.56	395.77
587.909	403.43
588.258	485.14
588.607	454.5
588.956	383.01
589.305	416.2
589.654	408.54
590.002	449.39
590.351	428.97
590.7	434.07
591.048	380.45
591.397	385.56
591.746	462.16
592.094	400.88
592.443	449.39
592.791	423.86
593.139	405.99
593.488	413.65
593.836	423.86
594.184	380.45
594.532	388.11
594.88	513.23
595.228	388.11
595.576	454.5
595.924	464.71
596.272	436.63
596.62	403.43
596.968	416.2
597.316	326.83
597.664	377.9
598.011	349.81
598.359	449.39
598.706	477.48
599.054	421.31
599.402	400.88
599.749	362.58
600.096	390.67
600.444	441.73
600.791	439.18
601.138	439.18
601.485	372.79
601.833	388.11
602.18	367.69
602.527	400.88
602.874	426.41
603.221	449.39
603.568	411.09
603.914	462.16
604.261	423.86
604.608	436.63
604.955	431.52
605.301	388.11
605.648	418.75
605.995	383.01
606.341	380.45
606.688	444.29
607.034	395.77
607.38	395.77
607.727	413.65
608.073	393.22
608.419	449.39
608.765	354.92
609.112	390.67
609.458	423.86
609.804	434.07
610.15	441.73
610.496	390.67
610.842	423.86
611.187	423.86
611.533	439.18
611.879	418.75
612.225	377.9
612.57	423.86
612.916	418.75
613.261	390.67
613.607	349.81
613.952	375.35
614.298	398.33
614.643	405.99
614.989	347.26
615.334	372.79
615.679	446.84
616.024	411.09
616.369	416.2
616.714	441.73
617.059	367.69
617.404	395.77
617.749	423.86
618.094	400.88
618.439	403.43
618.784	431.52
619.129	395.77
619.473	408.54
619.818	428.97
620.163	469.82
620.507	423.86
620.852	405.99
621.196	431.52
621.54	360.03
621.885	365.13
622.229	326.83
622.573	380.45
622.918	408.54
623.262	393.22
623.606	365.13
623.95	446.84
624.294	408.54
624.638	416.2
624.982	383.01
625.326	411.09
625.67	436.63
626.013	365.13
626.357	441.73
626.701	408.54
627.044	459.61
627.388	365.13
627.731	451.95
628.075	408.54
628.418	411.09
628.762	446.84
629.105	451.95
629.448	393.22
629.792	426.41
630.135	362.58
630.478	400.88
630.821	388.11
631.164	388.11
631.507	390.67
631.85	347.26
632.193	434.07
632.536	426.41
632.879	385.56
633.221	383.01
633.564	436.63
633.907	474.93
634.249	431.52
634.592	411.09
634.935	408.54
635.277	385.56
635.619	444.29
635.962	388.11
636.304	367.69
636.646	395.77
636.989	380.45
637.331	331.94
637.673	441.73
638.015	411.09
638.357	390.67
638.699	377.9
639.041	434.07
639.383	342.15
639.725	377.9
640.067	398.33
640.408	390.67
640.75	444.29
641.092	403.43
641.433	405.99
641.775	411.09
642.116	449.39
642.458	388.11
642.799	428.97
643.141	390.67
643.482	413.65
643.823	400.88
644.164	457.05
644.506	426.41
644.847	377.9
645.188	388.11
645.529	434.07
645.87	451.95
646.211	365.13
646.552	349.81
646.893	441.73
647.233	393.22
647.574	326.83
647.915	360.03
648.255	357.47
648.596	418.75
648.937	459.61
649.277	421.31
649.618	388.11
649.958	390.67
650.298	385.56
650.639	354.92
650.979	357.47
651.319	344.71
651.659	398.33
651.999	385.56
652.339	365.13
652.679	400.88
653.019	405.99
653.359	416.2
653.699	421.31
654.039	400.88
654.379	403.43
654.719	365.13
655.058	436.63
655.398	454.5
655.737	449.39
656.077	434.07
656.416	375.35
656.756	395.77
657.095	342.15
657.435	395.77
657.774	347.26
658.113	390.67
658.452	375.35
658.792	352.37
659.131	462.16
659.47	431.52
659.809	495.36
660.148	395.77
660.487	423.86
660.826	454.5
661.164	393.22
661.503	337.05
661.842	354.92
662.181	367.69
662.519	398.33
662.858	413.65
663.196	400.88
663.535	416.2
663.873	405.99
664.212	421.31
664.55	444.29
664.888	444.29
665.226	431.52
665.565	492.8
665.903	628.13
666.241	418.75
666.579	454.5
666.917	428.97
667.255	413.65
667.593	428.97
667.931	441.73
668.268	485.14
668.606	426.41
668.944	377.9
669.282	405.99
669.619	377.9
669.957	383.01
670.294	365.13
670.632	405.99
670.969	349.81
671.307	416.2
671.644	393.22
671.981	405.99
672.318	436.63
672.656	372.79
672.993	380.45
673.33	352.37
673.667	395.77
674.004	441.73
674.341	418.75
674.678	408.54
675.015	337.05
675.351	354.92
675.688	393.22
676.025	360.03
676.362	436.63
676.698	395.77
677.035	390.67
677.371	408.54
677.708	383.01
678.044	421.31
678.38	411.09
678.717	403.43
679.053	385.56
679.389	398.33
679.725	423.86
680.062	474.93
680.398	418.75
680.734	395.77
681.07	375.35
681.406	383.01
681.742	449.39
682.077	390.67
682.413	426.41
682.749	400.88
683.085	418.75
683.42	436.63
683.756	362.58
684.091	354.92
684.427	383.01
684.762	390.67
685.098	375.35
685.433	383.01
685.768	426.41
686.104	342.15
686.439	418.75
686.774	375.35
687.109	393.22
687.444	508.12
687.779	464.71
688.114	395.77
688.449	365.13
688.784	408.54
689.119	411.09
689.454	408.54
689.789	405.99
690.123	344.71
690.458	416.2
690.792	352.37
691.127	370.24
691.461	380.45
691.796	395.77
692.13	421.31
692.465	413.65
692.799	434.07
693.133	408.54
693.467	334.49
693.802	428.97
694.136	403.43
694.47	383.01
694.804	329.39
695.138	354.92
695.472	365.13
695.806	444.29
696.139	439.18
696.473	418.75
696.807	390.67
697.141	441.73
697.474	357.47
697.808	370.24
698.141	416.2
698.475	377.9
698.808	388.11
699.142	426.41
699.475	403.43
699.808	380.45
700.142	344.71
700.475	426.41
700.808	457.05
701.141	408.54
701.474	388.11
701.807	385.56
702.14	416.2
702.473	354.92
702.806	395.77
703.139	411.09
703.472	441.73
703.804	421.31
704.137	370.24
704.47	416.2
704.802	352.37
705.135	383.01
705.467	428.97
705.8	423.86
706.132	375.35
706.464	383.01
706.797	428.97
707.129	354.92
707.461	383.01
707.793	436.63
708.125	326.83
708.457	370.24
708.789	431.52
709.121	423.86
709.453	370.24
709.785	370.24
710.117	403.43
710.449	377.9
710.781	439.18
711.112	377.9
711.444	454.5
711.775	408.54
712.107	360.03
712.438	421.31
712.77	390.67
713.101	362.58
713.433	416.2
713.764	439.18
714.095	388.11
714.426	434.07
714.757	403.43
715.089	421.31
715.42	431.52
715.751	390.67
716.082	418.75
716.412	428.97
716.743	485.14
717.074	393.22
717.405	393.22
717.736	405.99
718.066	426.41
718.397	377.9
718.727	377.9
719.058	383.01
719.388	334.49
719.719	400.88
720.049	457.05
720.38	380.45
720.71	388.11
721.04	375.35
721.37	449.39
721.7	365.13
722.031	418.75
722.361	395.77
722.691	431.52
723.021	380.45
723.35	426.41
723.68	385.56
724.01	380.45
724.34	428.97
724.67	377.9
724.999	416.2
725.329	426.41
725.658	388.11
725.988	380.45
726.317	395.77
726.647	380.45
726.976	395.77
727.306	436.63
727.635	367.69
727.964	375.35
728.293	352.37
728.622	365.13
728.952	431.52
729.281	482.59
729.61	390.67
729.939	418.75
730.267	385.56
730.596	423.86
730.925	326.83
731.254	403.43
731.583	400.88
731.911	390.67
732.24	418.75
732.568	400.88
732.897	352.37
733.225	418.75
733.554	372.79
733.882	395.77
734.21	408.54
734.539	383.01
734.867	385.56
735.195	362.58
735.523	446.84
735.851	390.67
736.179	367.69
736.507	421.31
736.835	367.69
737.163	395.77
737.491	377.9
737.819	339.6
738.147	352.37
738.474	426.41
738.802	451.95
739.13	385.56
739.457	418.75
739.785	485.14
740.112	451.95
740.44	403.43
740.767	441.73
741.094	395.77
741.422	413.65
741.749	383.01
742.076	444.29
742.403	377.9
742.73	395.77
743.057	377.9
743.384	418.75
743.711	449.39
744.038	416.2
744.365	503.02
744.692	426.41
745.018	436.63
745.345	395.77
745.672	370.24
745.998	454.5
746.325	487.7
746.651	431.52
746.978	349.81
747.304	469.82
747.631	428.97
747.957	380.45
748.283	347.26
748.61	393.22
748.936	411.09
749.262	446.84
749.588	418.75
749.914	395.77
750.24	449.39
750.566	423.86
750.892	390.67
751.218	451.95
751.543	477.48
751.869	339.6
752.195	372.79
752.521	326.83
752.846	367.69
753.172	375.35
753.497	372.79
753.823	393.22
754.148	431.52
754.473	390.67
754.799	405.99
755.124	434.07
755.449	454.5
755.774	418.75
756.1	423.86
756.425	400.88
756.75	418.75
757.075	418.75
757.4	584.72
757.724	449.39
758.049	398.33
758.374	487.7
758.699	487.7
759.024	393.22
759.348	400.88
759.673	400.88
759.997	477.48
760.322	385.56
760.646	439.18
760.971	428.97
761.295	418.75
761.619	441.73
761.944	497.91
762.268	472.37
762.592	523.44
762.916	533.66
763.24	505.57
763.564	584.72
763.888	658.77
764.212	571.96
764.536	556.64
764.86	464.71
765.184	577.06
765.508	571.96
765.831	676.65
766.155	1000.92
766.478	949.86
766.802	1031.56
767.126	1263.92
767.449	1450.32
767.772	1600.97
768.096	1698
768.419	1657.14
768.742	1478.41
769.066	1340.52
769.389	1192.43
769.712	954.96
770.035	786.44
770.358	778.78
770.681	1016.24
771.004	1320.1
771.327	1542.24
771.65	1932.91
771.972	2476.78
772.295	2910.85
772.618	3227.47
772.941	3393.44
773.263	3196.83
773.586	3171.3
773.908	2836.8
774.231	2525.29
774.553	2058.02
774.875	1779.7
775.198	1440.11
775.52	1284.35
775.842	1445.21
776.164	1894.61
776.487	2635.09
776.809	3163.64
777.131	3878.58
777.453	4350.96
777.775	4652.25
778.096	5114.42
778.418	4869.29
778.74	4363.72
779.062	3771.34
779.384	3263.22
779.705	2867.44
780.027	2280.17
780.348	1782.26
780.67	1460.53
780.991	1572.88
781.313	2305.7
781.634	3181.51
781.955	4146.69
782.277	5482.1
782.598	6809.86
782.919	7427.78
783.24	7946.11
783.561	7958.88
783.882	7780.14
784.203	7197.97
784.524	6041.29
784.845	4624.17
785.166	3334.71
785.487	2484.44
785.807	1871.63
786.128	1521.81
786.449	1703.1
786.769	2226.55
787.09	3344.93
787.41	4795.24
787.731	6947.74
788.051	8842.35
788.372	10037.33
788.692	11520.84
789.012	12537.09
789.332	12230.68
789.653	11518.29
789.973	10221.17
790.293	7846.53
790.613	5484.66
790.933	3942.42
791.253	2698.92
791.573	1932.91
791.893	1639.27
792.212	1774.6
792.532	2331.23
792.852	3390.89
793.171	4688
793.491	5627.65
793.811	6799.65
794.13	7568.21
794.45	7841.42
794.769	7361.39
795.088	7340.96
795.408	6789.43
795.727	6084.7
796.046	4705.88
796.365	3715.17
796.684	2668.28
797.004	1856.31
797.323	1412.02
797.642	1248.6
797.96	1789.92
798.279	2456.35
798.598	3480.25
798.917	4647.15
799.236	5545.94
