Data from 2025-12-03_xpw_interference_micrometer_634_FLMS141361__11__061.txt Node

Date: Wed Dec 03 15:48:37 MST 2025
User: james
Spectrometer: FLMS14136
Trigger mode: 0
Integration Time (sec): 1.000000E-1
Scans to average: 1
Electric dark correction enabled: true
Nonlinearity correction enabled: false
Boxcar width: 0
XAxis mode: Wavelengths
Number of Pixels in Spectrum: 2048
>>>>>Begin Spectral Data<<<<<
339.315	-83.46
339.697	-83.46
340.079	-83.46
340.461	-19.63
340.843	-101.34
341.225	-55.38
341.607	-93.68
341.989	-109
342.371	-73.25
342.752	-1.76
343.134	-80.91
343.516	-60.48
343.897	-52.82
344.279	11.01
344.661	0.8
345.042	18.67
345.423	49.31
345.805	97.83
346.186	105.49
346.567	105.49
346.949	138.68
347.33	240.82
347.711	174.43
348.092	192.3
348.473	192.3
348.854	251.03
349.235	266.35
349.616	294.44
349.997	291.88
350.378	296.99
350.758	286.78
351.139	319.97
351.52	358.27
351.9	342.95
352.281	330.18
352.661	360.82
353.042	452.75
353.422	401.68
353.803	475.73
354.183	386.36
354.563	427.21
354.943	335.29
355.324	432.32
355.704	373.59
356.084	450.19
356.464	388.91
356.844	399.12
357.224	447.64
357.603	465.51
357.983	401.68
358.363	401.68
358.743	432.32
359.122	414.45
359.502	394.02
359.882	360.82
360.261	345.5
360.641	371.04
361.02	348.06
361.399	342.95
361.779	360.82
362.158	363.38
362.537	325.08
362.916	365.93
363.296	358.27
363.675	335.29
364.054	368.48
364.433	383.8
364.812	358.27
365.19	304.65
365.569	332.74
365.948	376.14
366.327	358.27
366.705	335.29
367.084	322.52
367.463	353.16
367.841	353.16
368.22	299.54
368.598	307.2
368.977	342.95
369.355	358.27
369.733	378.7
370.111	289.33
370.49	376.14
370.868	378.7
371.246	345.5
371.624	365.93
372.002	299.54
372.38	434.87
372.758	365.93
373.136	353.16
373.513	363.38
373.891	452.75
374.269	383.8
374.646	424.66
375.024	399.12
375.402	419.55
375.779	314.86
376.157	429.77
376.534	373.59
376.911	376.14
377.289	371.04
377.666	470.62
378.043	401.68
378.42	363.38
378.797	383.8
379.175	299.54
379.552	386.36
379.929	391.46
380.305	358.27
380.682	388.91
381.059	381.25
381.436	342.95
381.813	371.04
382.189	376.14
382.566	309.76
382.943	381.25
383.319	388.91
383.696	376.14
384.072	388.91
384.448	340.4
384.825	376.14
385.201	371.04
385.577	307.2
385.953	325.08
386.329	355.72
386.706	394.02
387.082	376.14
387.458	350.61
387.834	439.98
388.209	373.59
388.585	439.98
388.961	485.94
389.337	391.46
389.713	365.93
390.088	337.84
390.464	376.14
390.839	394.02
391.215	381.25
391.59	291.88
391.966	365.93
392.341	348.06
392.716	358.27
393.092	340.4
393.467	348.06
393.842	388.91
394.217	371.04
394.592	345.5
394.967	365.93
395.342	289.33
395.717	314.86
396.092	376.14
396.467	358.27
396.841	378.7
397.216	406.79
397.591	394.02
397.965	445.09
398.34	396.57
398.714	365.93
399.089	368.48
399.463	419.55
399.838	368.48
400.212	368.48
400.586	348.06
400.961	376.14
401.335	417
401.709	381.25
402.083	422.11
402.457	401.68
402.831	424.66
403.205	353.16
403.579	422.11
403.953	381.25
404.326	330.18
404.7	378.7
405.074	434.87
405.447	391.46
405.821	396.57
406.195	396.57
406.568	371.04
406.942	439.98
407.315	437.43
407.688	485.94
408.062	404.23
408.435	309.76
408.808	371.04
409.181	373.59
409.554	404.23
409.927	460.41
410.3	365.93
410.673	345.5
411.046	332.74
411.419	394.02
411.792	442.53
412.165	434.87
412.537	414.45
412.91	337.84
413.283	373.59
413.655	381.25
414.028	434.87
414.4	327.63
414.773	340.4
415.145	445.09
415.517	371.04
415.889	445.09
416.262	447.64
416.634	386.36
417.006	465.51
417.378	319.97
417.75	445.09
418.122	419.55
418.494	419.55
418.866	460.41
419.238	355.72
419.609	378.7
419.981	427.21
420.353	432.32
420.725	411.89
421.096	399.12
421.468	391.46
421.839	414.45
422.211	376.14
422.582	345.5
422.953	391.46
423.325	422.11
423.696	429.77
424.067	424.66
424.438	378.7
424.809	406.79
425.18	371.04
425.551	365.93
425.922	368.48
426.293	355.72
426.664	368.48
427.035	427.21
427.406	445.09
427.776	452.75
428.147	404.23
428.518	406.79
428.888	388.91
429.259	424.66
429.629	391.46
429.999	394.02
430.37	322.52
430.74	386.36
431.11	445.09
431.481	365.93
431.851	455.3
432.221	424.66
432.591	429.77
432.961	404.23
433.331	404.23
433.701	404.23
434.071	414.45
434.441	437.43
434.81	424.66
435.18	455.3
435.55	429.77
435.919	419.55
436.289	378.7
436.658	399.12
437.028	399.12
437.397	391.46
437.767	478.28
438.136	386.36
438.505	391.46
438.875	478.28
439.244	442.53
439.613	460.41
439.982	409.34
440.351	493.6
440.72	455.3
441.089	442.53
441.458	401.68
441.827	447.64
442.196	432.32
442.564	470.62
442.933	411.89
443.302	360.82
443.67	404.23
444.039	396.57
444.407	406.79
444.776	473.17
445.144	452.75
445.513	409.34
445.881	404.23
446.249	485.94
446.617	422.11
446.986	411.89
447.354	355.72
447.722	358.27
448.09	383.8
448.458	422.11
448.826	417
449.194	460.41
449.561	452.75
449.929	439.98
450.297	432.32
450.665	388.91
451.032	365.93
451.4	452.75
451.767	437.43
452.135	498.71
452.502	457.85
452.87	394.02
453.237	437.43
453.604	414.45
453.971	434.87
454.339	414.45
454.706	409.34
455.073	383.8
455.44	399.12
455.807	409.34
456.174	434.87
456.541	437.43
456.908	404.23
457.274	437.43
457.641	483.39
458.008	506.37
458.374	409.34
458.741	388.91
459.108	394.02
459.474	360.82
459.841	394.02
460.207	391.46
460.573	478.28
460.94	439.98
461.306	473.17
461.672	450.19
462.038	442.53
462.404	429.77
462.771	396.57
463.137	411.89
463.503	488.49
463.868	442.53
464.234	381.25
464.6	414.45
464.966	376.14
465.332	419.55
465.697	447.64
466.063	371.04
466.429	373.59
466.794	450.19
467.16	452.75
467.525	450.19
467.89	457.85
468.256	434.87
468.621	396.57
468.986	417
469.351	432.32
469.717	394.02
470.082	409.34
470.447	470.62
470.812	394.02
471.177	391.46
471.542	394.02
471.906	427.21
472.271	391.46
472.636	450.19
473.001	488.49
473.365	460.41
473.73	419.55
474.094	417
474.459	427.21
474.823	404.23
475.188	401.68
475.552	396.57
475.917	404.23
476.281	404.23
476.645	455.3
477.009	371.04
477.373	383.8
477.737	419.55
478.101	455.3
478.465	388.91
478.829	391.46
479.193	388.91
479.557	437.43
479.921	399.12
480.284	391.46
480.648	386.36
481.012	401.68
481.375	388.91
481.739	422.11
482.102	391.46
482.466	465.51
482.829	417
483.193	417
483.556	442.53
483.919	422.11
484.282	404.23
484.645	368.48
485.009	373.59
485.372	473.17
485.735	447.64
486.098	414.45
486.46	417
486.823	419.55
487.186	468.07
487.549	394.02
487.912	450.19
488.274	388.91
488.637	360.82
488.999	419.55
489.362	378.7
489.724	396.57
490.087	503.81
490.449	457.85
490.811	376.14
491.174	406.79
491.536	404.23
491.898	519.13
492.26	439.98
492.622	378.7
492.984	434.87
493.346	394.02
493.708	424.66
494.07	442.53
494.432	386.36
494.794	445.09
495.155	429.77
495.517	368.48
495.879	391.46
496.24	373.59
496.602	434.87
496.963	391.46
497.325	391.46
497.686	406.79
498.048	399.12
498.409	414.45
498.77	391.46
499.131	468.07
499.492	470.62
499.854	473.17
500.215	434.87
500.576	417
500.937	378.7
501.298	417
501.658	396.57
502.019	434.87
502.38	470.62
502.741	432.32
503.101	491.05
503.462	434.87
503.823	424.66
504.183	457.85
504.543	396.57
504.904	432.32
505.264	414.45
505.625	388.91
505.985	388.91
506.345	404.23
506.705	406.79
507.065	363.38
507.426	457.85
507.786	432.32
508.146	419.55
508.505	434.87
508.865	429.77
509.225	470.62
509.585	514.03
509.945	437.43
510.304	455.3
510.664	417
511.024	396.57
511.383	457.85
511.743	353.16
512.102	414.45
512.462	419.55
512.821	363.38
513.18	348.06
513.539	475.73
513.899	409.34
514.258	401.68
514.617	414.45
514.976	406.79
515.335	378.7
515.694	345.5
516.053	457.85
516.412	419.55
516.771	388.91
517.129	452.75
517.488	434.87
517.847	373.59
518.205	437.43
518.564	437.43
518.922	452.75
519.281	419.55
519.639	450.19
519.998	439.98
520.356	445.09
520.714	340.4
521.073	376.14
521.431	427.21
521.789	437.43
522.147	470.62
522.505	360.82
522.863	394.02
523.221	378.7
523.579	388.91
523.937	411.89
524.295	411.89
524.652	394.02
525.01	437.43
525.368	376.14
525.725	437.43
526.083	406.79
526.44	378.7
526.798	373.59
527.155	434.87
527.513	475.73
527.87	429.77
528.227	437.43
528.584	470.62
528.942	506.37
529.299	491.05
529.656	427.21
530.013	445.09
530.37	406.79
530.727	399.12
531.083	432.32
531.44	409.34
531.797	404.23
532.154	368.48
532.511	386.36
532.867	376.14
533.224	396.57
533.58	368.48
533.937	411.89
534.293	434.87
534.65	501.26
535.006	378.7
535.362	406.79
535.718	376.14
536.075	450.19
536.431	386.36
536.787	406.79
537.143	496.15
537.499	404.23
537.855	442.53
538.211	404.23
538.567	496.15
538.923	485.94
539.278	445.09
539.634	417
539.99	429.77
540.345	414.45
540.701	409.34
541.056	373.59
541.412	394.02
541.767	406.79
542.123	378.7
542.478	422.11
542.833	378.7
543.188	419.55
543.544	434.87
543.899	350.61
544.254	411.89
544.609	319.97
544.964	427.21
545.319	409.34
545.674	355.72
546.029	442.53
546.383	411.89
546.738	475.73
547.093	432.32
547.447	409.34
547.802	417
548.157	452.75
548.511	414.45
548.866	447.64
549.22	432.32
549.574	445.09
549.929	447.64
550.283	414.45
550.637	424.66
550.991	452.75
551.345	383.8
551.699	378.7
552.053	450.19
552.407	424.66
552.761	417
553.115	409.34
553.469	376.14
553.823	396.57
554.176	388.91
554.53	470.62
554.884	391.46
555.237	705.53
555.591	439.98
555.944	422.11
556.298	274.01
556.651	462.96
557.005	422.11
557.358	422.11
557.711	452.75
558.064	394.02
558.417	432.32
558.771	559.99
559.124	422.11
559.477	417
559.83	460.41
560.182	452.75
560.535	414.45
560.888	442.53
561.241	470.62
561.594	391.46
561.946	381.25
562.299	424.66
562.651	386.36
563.004	401.68
563.356	411.89
563.709	473.17
564.061	485.94
564.413	419.55
564.766	442.53
565.118	406.79
565.47	452.75
565.822	465.51
566.174	371.04
566.526	488.49
566.878	394.02
567.23	406.79
567.582	414.45
567.934	442.53
568.286	491.05
568.638	501.26
568.989	450.19
569.341	373.59
569.693	381.25
570.044	396.57
570.396	335.29
570.747	432.32
571.098	394.02
571.45	365.93
571.801	414.45
572.152	439.98
572.504	360.82
572.855	419.55
573.206	450.19
573.557	434.87
573.908	427.21
574.259	335.29
574.61	340.4
574.961	406.79
575.311	419.55
575.662	434.87
576.013	465.51
576.364	488.49
576.714	409.34
577.065	355.72
577.415	450.19
577.766	424.66
578.116	317.42
578.467	452.75
578.817	450.19
579.167	391.46
579.518	394.02
579.868	427.21
580.218	457.85
580.568	355.72
580.918	432.32
581.268	373.59
581.618	414.45
581.968	434.87
582.318	424.66
582.668	401.68
583.017	434.87
583.367	424.66
583.717	419.55
584.066	394.02
584.416	355.72
584.765	368.48
585.115	434.87
585.464	437.43
585.814	434.87
586.163	429.77
586.512	376.14
586.862	409.34
587.211	455.3
587.56	434.87
587.909	468.07
588.258	358.27
588.607	406.79
588.956	409.34
589.305	409.34
589.654	424.66
590.002	422.11
590.351	465.51
590.7	411.89
591.048	442.53
591.397	491.05
591.746	442.53
592.094	439.98
592.443	442.53
592.791	401.68
593.139	360.82
593.488	406.79
593.836	427.21
594.184	422.11
594.532	386.36
594.88	427.21
595.228	419.55
595.576	383.8
595.924	386.36
596.272	450.19
596.62	424.66
596.968	401.68
597.316	327.63
597.664	409.34
598.011	417
598.359	485.94
598.706	493.6
599.054	427.21
599.402	432.32
599.749	439.98
600.096	460.41
600.444	422.11
600.791	409.34
601.138	376.14
601.485	386.36
601.833	401.68
602.18	411.89
602.527	360.82
602.874	368.48
603.221	439.98
603.568	411.89
603.914	432.32
604.261	371.04
604.608	376.14
604.955	411.89
605.301	447.64
605.648	376.14
605.995	406.79
606.341	399.12
606.688	391.46
607.034	353.16
607.38	399.12
607.727	414.45
608.073	432.32
608.419	442.53
608.765	394.02
609.112	437.43
609.458	388.91
609.804	386.36
610.15	478.28
610.496	399.12
610.842	470.62
611.187	442.53
611.533	388.91
611.879	368.48
612.225	417
612.57	340.4
612.916	427.21
613.261	411.89
613.607	406.79
613.952	424.66
614.298	355.72
614.643	470.62
614.989	432.32
615.334	434.87
615.679	404.23
616.024	388.91
616.369	422.11
616.714	376.14
617.059	368.48
617.404	399.12
617.749	401.68
618.094	360.82
618.439	404.23
618.784	447.64
619.129	432.32
619.473	340.4
619.818	386.36
620.163	409.34
620.507	475.73
620.852	457.85
621.196	376.14
621.54	378.7
621.885	406.79
622.229	465.51
622.573	465.51
622.918	450.19
623.262	468.07
623.606	419.55
623.95	394.02
624.294	470.62
624.638	442.53
624.982	378.7
625.326	386.36
625.67	378.7
626.013	427.21
626.357	417
626.701	432.32
627.044	373.59
627.388	340.4
627.731	419.55
628.075	434.87
628.418	442.53
628.762	383.8
629.105	376.14
629.448	401.68
629.792	439.98
630.135	355.72
630.478	445.09
630.821	429.77
631.164	427.21
631.507	376.14
631.85	445.09
632.193	439.98
632.536	427.21
632.879	404.23
633.221	368.48
633.564	383.8
633.907	381.25
634.249	388.91
634.592	388.91
634.935	406.79
635.277	378.7
635.619	432.32
635.962	422.11
636.304	376.14
636.646	399.12
636.989	411.89
637.331	447.64
637.673	422.11
638.015	373.59
638.357	422.11
638.699	432.32
639.041	409.34
639.383	376.14
639.725	404.23
640.067	401.68
640.408	452.75
640.75	411.89
641.092	358.27
641.433	383.8
641.775	462.96
642.116	386.36
642.458	427.21
642.799	462.96
643.141	480.83
643.482	406.79
643.823	434.87
644.164	378.7
644.506	544.67
644.847	381.25
645.188	399.12
645.529	383.8
645.87	406.79
646.211	442.53
646.552	365.93
646.893	386.36
647.233	404.23
647.574	450.19
647.915	396.57
648.255	445.09
648.596	439.98
648.937	404.23
649.277	391.46
649.618	404.23
649.958	419.55
650.298	452.75
650.639	373.59
650.979	452.75
651.319	353.16
651.659	371.04
651.999	417
652.339	404.23
652.679	422.11
653.019	424.66
653.359	417
653.699	409.34
654.039	368.48
654.379	401.68
654.719	424.66
655.058	475.73
655.398	422.11
655.737	462.96
656.077	391.46
656.416	399.12
656.756	445.09
657.095	447.64
657.435	386.36
657.774	401.68
658.113	401.68
658.452	470.62
658.792	424.66
659.131	414.45
659.47	386.36
659.809	411.89
660.148	462.96
660.487	337.84
660.826	358.27
661.164	378.7
661.503	365.93
661.842	457.85
662.181	427.21
662.519	417
662.858	381.25
663.196	383.8
663.535	404.23
663.873	327.63
664.212	373.59
664.55	376.14
664.888	404.23
665.226	424.66
665.565	376.14
665.903	618.72
666.241	445.09
666.579	434.87
666.917	394.02
667.255	414.45
667.593	475.73
667.931	424.66
668.268	399.12
668.606	378.7
668.944	475.73
669.282	404.23
669.619	424.66
669.957	371.04
670.294	447.64
670.632	439.98
670.969	409.34
671.307	368.48
671.644	330.18
671.981	460.41
672.318	396.57
672.656	401.68
672.993	473.17
673.33	371.04
673.667	371.04
674.004	348.06
674.341	432.32
674.678	411.89
675.015	340.4
675.351	411.89
675.688	457.85
676.025	386.36
676.362	411.89
676.698	345.5
677.035	325.08
677.371	424.66
677.708	409.34
678.044	406.79
678.38	378.7
678.717	383.8
679.053	450.19
679.389	411.89
679.725	404.23
680.062	411.89
680.398	460.41
680.734	386.36
681.07	422.11
681.406	450.19
681.742	401.68
682.077	401.68
682.413	419.55
682.749	442.53
683.085	417
683.42	345.5
683.756	442.53
684.091	462.96
684.427	411.89
684.762	322.52
685.098	394.02
685.433	452.75
685.768	457.85
686.104	488.49
686.439	383.8
686.774	419.55
687.109	371.04
687.444	409.34
687.779	358.27
688.114	378.7
688.449	442.53
688.784	493.6
689.119	447.64
689.454	350.61
689.789	350.61
690.123	319.97
690.458	396.57
690.792	424.66
691.127	360.82
691.461	396.57
691.796	355.72
692.13	414.45
692.465	434.87
692.799	391.46
693.133	399.12
693.467	409.34
693.802	455.3
694.136	414.45
694.47	386.36
694.804	386.36
695.138	442.53
695.472	429.77
695.806	470.62
696.139	419.55
696.473	342.95
696.807	422.11
697.141	422.11
697.474	355.72
697.808	417
698.141	373.59
698.475	371.04
698.808	422.11
699.142	368.48
699.475	383.8
699.808	378.7
700.142	376.14
700.475	457.85
700.808	406.79
701.141	414.45
701.474	417
701.807	475.73
702.14	368.48
702.473	434.87
702.806	383.8
703.139	465.51
703.472	419.55
703.804	396.57
704.137	399.12
704.47	460.41
704.802	399.12
705.135	365.93
705.467	332.74
705.8	437.43
706.132	447.64
706.464	447.64
706.797	404.23
707.129	439.98
707.461	434.87
707.793	450.19
708.125	434.87
708.457	378.7
708.789	422.11
709.121	388.91
709.453	427.21
709.785	358.27
710.117	432.32
710.449	457.85
710.781	468.07
711.112	491.05
711.444	406.79
711.775	360.82
712.107	404.23
712.438	363.38
712.77	406.79
713.101	445.09
713.433	432.32
713.764	399.12
714.095	450.19
714.426	414.45
714.757	409.34
715.089	447.64
715.42	427.21
715.751	447.64
716.082	429.77
716.412	417
716.743	445.09
717.074	378.7
717.405	470.62
717.736	422.11
718.066	353.16
718.397	388.91
718.727	411.89
719.058	437.43
719.388	396.57
719.719	470.62
720.049	468.07
720.38	381.25
720.71	404.23
721.04	424.66
721.37	396.57
721.7	414.45
722.031	432.32
722.361	434.87
722.691	419.55
723.021	424.66
723.35	434.87
723.68	452.75
724.01	429.77
724.34	299.54
724.67	485.94
724.999	404.23
725.329	498.71
725.658	401.68
725.988	422.11
726.317	388.91
726.647	424.66
726.976	378.7
727.306	381.25
727.635	437.43
727.964	417
728.293	409.34
728.622	468.07
728.952	473.17
729.281	404.23
729.61	470.62
729.939	314.86
730.267	373.59
730.596	381.25
730.925	429.77
731.254	437.43
731.583	363.38
731.911	455.3
732.24	396.57
732.568	437.43
732.897	424.66
733.225	414.45
733.554	485.94
733.882	404.23
734.21	450.19
734.539	368.48
734.867	358.27
735.195	404.23
735.523	378.7
735.851	391.46
736.179	478.28
736.507	406.79
736.835	383.8
737.163	427.21
737.491	473.17
737.819	409.34
738.147	404.23
738.474	378.7
738.802	455.3
739.13	406.79
739.457	432.32
739.785	429.77
740.112	391.46
740.44	409.34
740.767	460.41
741.094	524.24
741.422	447.64
741.749	427.21
742.076	437.43
742.403	406.79
742.73	432.32
743.057	429.77
743.384	388.91
743.711	363.38
744.038	322.52
744.365	483.39
744.692	519.13
745.018	427.21
745.345	368.48
745.672	378.7
745.998	396.57
746.325	388.91
746.651	388.91
746.978	365.93
747.304	437.43
747.631	450.19
747.957	422.11
748.283	360.82
748.61	394.02
748.936	404.23
749.262	386.36
749.588	360.82
749.914	355.72
750.24	424.66
750.566	394.02
750.892	404.23
751.218	365.93
751.543	399.12
751.869	348.06
752.195	419.55
752.521	388.91
752.846	445.09
753.172	432.32
753.497	432.32
753.823	422.11
754.148	411.89
754.473	383.8
754.799	381.25
755.124	417
755.449	427.21
755.774	447.64
756.1	383.8
756.425	417
756.75	373.59
757.075	409.34
757.4	511.47
757.724	445.09
758.049	419.55
758.374	439.98
758.699	365.93
759.024	427.21
759.348	445.09
759.673	483.39
759.997	457.85
760.322	439.98
760.646	460.41
760.971	465.51
761.295	422.11
761.619	424.66
761.944	411.89
762.268	427.21
762.592	470.62
762.916	549.77
763.24	582.97
763.564	534.45
763.888	531.9
764.212	559.99
764.536	547.22
764.86	534.45
765.184	503.81
765.508	544.67
765.831	654.46
766.155	976.19
766.478	784.68
766.802	876.61
767.126	963.42
767.449	1244.29
767.772	1491.97
768.096	1563.47
768.419	1532.82
768.742	1407.71
769.066	1394.94
769.389	1172.8
769.712	978.74
770.035	764.26
770.358	812.77
770.681	817.88
771.004	935.33
771.327	1149.82
771.65	1548.15
771.972	2012.86
772.295	2439.27
772.618	2538.86
772.941	2809.51
773.263	2773.77
773.586	2796.75
773.908	2794.19
774.231	2508.22
774.553	2168.62
774.875	1783.06
775.198	1369.41
775.52	1180.46
775.842	1170.25
776.164	1499.63
776.487	1915.83
776.809	2526.09
777.131	3054.64
777.453	3534.67
777.775	3835.97
778.096	4280.26
778.418	4395.16
778.74	4083.65
779.062	3562.76
779.384	3248.69
779.705	3046.98
780.027	2607.8
780.348	2012.86
780.67	1573.68
780.991	1417.92
781.313	1668.15
781.634	2265.64
781.955	2965.27
782.277	4073.44
782.598	5306.72
782.919	6070.18
783.24	6726.4
783.561	6948.54
783.882	7104.3
784.203	6726.4
784.524	5830.16
784.845	4653.05
785.166	3578.08
785.487	2727.81
785.807	2002.65
786.128	1558.36
786.449	1410.26
786.769	1632.41
787.09	2347.35
787.41	3455.52
787.731	5056.49
788.051	6534.89
788.372	7783.49
788.692	9514.68
789.012	10589.66
789.332	10742.86
789.653	10561.57
789.973	9644.91
790.293	8018.4
790.613	5807.18
790.933	4142.38
791.253	2955.06
791.573	2081.8
791.893	1566.02
792.212	1446.01
792.532	1783.06
792.852	2439.27
793.171	3345.72
793.491	4446.23
793.811	5368
794.13	6149.33
794.45	6465.95
794.769	6552.77
795.088	6877.04
795.408	6343.39
795.727	5973.15
796.046	4916.05
796.365	3815.54
796.684	2909.1
797.004	2112.44
797.323	1589
797.642	1254.51
797.96	1374.52
798.279	1788.16
798.598	2421.4
798.917	3529.57
799.236	4224.09
799.554	4923.71
799.873	5513.54
800.192	6417.44
800.51	7288.14
800.829	6986.84
801.147	6340.84
