Data from 2025-12-03_xpw_interference_micrometer_634_FLMS141361__29__079.txt Node

Date: Wed Dec 03 15:48:39 MST 2025
User: james
Spectrometer: FLMS14136
Trigger mode: 0
Integration Time (sec): 1.000000E-1
Scans to average: 1
Electric dark correction enabled: true
Nonlinearity correction enabled: false
Boxcar width: 0
XAxis mode: Wavelengths
Number of Pixels in Spectrum: 2048
>>>>>Begin Spectral Data<<<<<
339.315	-46.12
339.697	-46.12
340.079	-46.12
340.461	-120.17
340.843	-76.76
341.225	-104.85
341.607	-56.33
341.989	-46.12
342.371	-143.15
342.752	-135.49
343.134	-48.67
343.516	-58.89
343.897	-2.71
344.279	-5.27
344.661	2.39
345.042	25.37
345.423	153.04
345.805	48.35
346.186	114.74
346.567	142.83
346.949	114.74
347.33	183.68
347.711	201.56
348.092	204.11
348.473	188.79
348.854	296.03
349.235	234.75
349.616	319.01
349.997	367.53
350.378	324.12
350.758	285.82
351.139	403.27
351.52	347.1
351.9	331.78
352.281	344.55
352.661	408.38
353.042	324.12
353.422	413.49
353.803	431.36
354.183	441.57
354.563	398.17
354.943	426.25
355.324	400.72
355.704	362.42
356.084	347.1
356.464	372.63
356.844	359.87
357.224	439.02
357.603	426.25
357.983	377.74
358.363	467.11
358.743	367.53
359.122	464.56
359.502	441.57
359.882	439.02
360.261	359.87
360.641	444.13
361.02	385.4
361.399	341.99
361.779	341.99
362.158	331.78
362.537	349.65
362.916	370.08
363.296	349.65
363.675	385.4
364.054	390.51
364.433	347.1
364.812	398.17
365.19	387.95
365.569	405.83
365.948	382.85
366.327	352.21
366.705	418.59
367.084	398.17
367.463	380.29
367.841	431.36
368.22	375.19
368.598	387.95
368.977	408.38
369.355	357.31
369.733	377.74
370.111	364.97
370.49	403.27
370.868	367.53
371.246	347.1
371.624	357.31
372.002	329.23
372.38	344.55
372.758	372.63
373.136	428.81
373.513	382.85
373.891	428.81
374.269	359.87
374.646	349.65
375.024	316.46
375.402	370.08
375.779	398.17
376.157	403.27
376.534	439.02
376.911	382.85
377.289	444.13
377.666	336.89
378.043	364.97
378.42	408.38
378.797	370.08
379.175	456.9
379.552	398.17
379.929	370.08
380.305	311.35
380.682	387.95
381.059	319.01
381.436	331.78
381.813	321.57
382.189	349.65
382.566	372.63
382.943	306.25
383.319	375.19
383.696	344.55
384.072	403.27
384.448	329.23
384.825	413.49
385.201	410.93
385.577	354.76
385.953	395.61
386.329	413.49
386.706	380.29
387.082	341.99
387.458	385.4
387.834	416.04
388.209	395.61
388.585	352.21
388.961	395.61
389.337	436.47
389.713	324.12
390.088	370.08
390.464	334.33
390.839	446.68
391.215	359.87
391.59	370.08
391.966	362.42
392.341	410.93
392.716	441.57
393.092	362.42
393.467	367.53
393.842	410.93
394.217	382.85
394.592	408.38
394.967	359.87
395.342	423.7
395.717	454.34
396.092	410.93
396.467	362.42
396.841	352.21
397.216	416.04
397.591	416.04
397.965	403.27
398.34	370.08
398.714	364.97
399.089	354.76
399.463	416.04
399.838	380.29
400.212	382.85
400.586	405.83
400.961	364.97
401.335	385.4
401.709	454.34
402.083	344.55
402.457	395.61
402.831	395.61
403.205	436.47
403.579	385.4
403.953	400.72
404.326	395.61
404.7	416.04
405.074	364.97
405.447	349.65
405.821	433.91
406.195	385.4
406.568	380.29
406.942	354.76
407.315	403.27
407.688	400.72
408.062	359.87
408.435	362.42
408.808	416.04
409.181	431.36
409.554	433.91
409.927	362.42
410.3	487.54
410.673	405.83
411.046	382.85
411.419	375.19
411.792	395.61
412.165	400.72
412.537	303.69
412.91	364.97
413.283	410.93
413.655	431.36
414.028	433.91
414.4	426.25
414.773	324.12
415.145	352.21
415.517	413.49
415.889	364.97
416.262	421.15
416.634	364.97
417.006	431.36
417.378	487.54
417.75	416.04
418.122	372.63
418.494	400.72
418.866	444.13
419.238	467.11
419.609	385.4
419.981	364.97
420.353	428.81
420.725	446.68
421.096	405.83
421.468	436.47
421.839	451.79
422.211	433.91
422.582	359.87
422.953	390.51
423.325	426.25
423.696	403.27
424.067	375.19
424.438	387.95
424.809	423.7
425.18	451.79
425.551	400.72
425.922	344.55
426.293	479.88
426.664	421.15
427.035	352.21
427.406	393.06
427.776	410.93
428.147	454.34
428.518	459.45
428.888	375.19
429.259	416.04
429.629	428.81
429.999	410.93
430.37	464.56
430.74	410.93
431.11	354.76
431.481	403.27
431.851	347.1
432.221	421.15
432.591	377.74
432.961	446.68
433.331	421.15
433.701	515.62
434.071	433.91
434.441	403.27
434.81	344.55
435.18	413.49
435.55	441.57
435.919	416.04
436.289	405.83
436.658	523.28
437.028	462
437.397	413.49
437.767	436.47
438.136	380.29
438.505	321.57
438.875	372.63
439.244	492.64
439.613	416.04
439.982	433.91
440.351	410.93
440.72	370.08
441.089	418.59
441.458	354.76
441.827	400.72
442.196	372.63
442.564	530.94
442.933	474.77
443.302	385.4
443.67	387.95
444.039	426.25
444.407	403.27
444.776	426.25
445.144	390.51
445.513	382.85
445.881	431.36
446.249	375.19
446.617	436.47
446.986	433.91
447.354	477.32
447.722	423.7
448.09	395.61
448.458	416.04
448.826	421.15
449.194	329.23
449.561	359.87
449.929	405.83
450.297	441.57
450.665	418.59
451.032	377.74
451.4	382.85
451.767	467.11
452.135	423.7
452.502	403.27
452.87	449.23
453.237	431.36
453.604	395.61
453.971	390.51
454.339	441.57
454.706	362.42
455.073	367.53
455.44	436.47
455.807	413.49
456.174	393.06
456.541	405.83
456.908	377.74
457.274	472.22
457.641	390.51
458.008	370.08
458.374	436.47
458.741	444.13
459.108	347.1
459.474	479.88
459.841	408.38
460.207	421.15
460.573	456.9
460.94	418.59
461.306	367.53
461.672	352.21
462.038	433.91
462.404	456.9
462.771	393.06
463.137	433.91
463.503	462
463.868	436.47
464.234	451.79
464.6	385.4
464.966	400.72
465.332	398.17
465.697	431.36
466.063	423.7
466.429	410.93
466.794	479.88
467.16	393.06
467.525	449.23
467.89	390.51
468.256	464.56
468.621	439.02
468.986	467.11
469.351	423.7
469.717	423.7
470.082	431.36
470.447	439.02
470.812	436.47
471.177	405.83
471.542	390.51
471.906	433.91
472.271	377.74
472.636	410.93
473.001	421.15
473.365	444.13
473.73	462
474.094	418.59
474.459	433.91
474.823	393.06
475.188	436.47
475.552	393.06
475.917	433.91
476.281	405.83
476.645	426.25
477.009	451.79
477.373	456.9
477.737	472.22
478.101	431.36
478.465	410.93
478.829	382.85
479.193	451.79
479.557	403.27
479.921	413.49
480.284	469.66
480.648	446.68
481.012	449.23
481.375	390.51
481.739	354.76
482.102	474.77
482.466	405.83
482.829	418.59
483.193	398.17
483.556	385.4
483.919	426.25
484.282	467.11
484.645	382.85
485.009	428.81
485.372	487.54
485.735	451.79
486.098	395.61
486.46	370.08
486.823	459.45
487.186	436.47
487.549	459.45
487.912	467.11
488.274	423.7
488.637	454.34
488.999	390.51
489.362	413.49
489.724	446.68
490.087	410.93
490.449	482.43
490.811	439.02
491.174	349.65
491.536	456.9
491.898	398.17
492.26	449.23
492.622	362.42
492.984	449.23
493.346	405.83
493.708	479.88
494.07	428.81
494.432	451.79
494.794	382.85
495.155	375.19
495.517	433.91
495.879	418.59
496.24	393.06
496.602	349.65
496.963	410.93
497.325	426.25
497.686	433.91
498.048	405.83
498.409	367.53
498.77	479.88
499.131	436.47
499.492	441.57
499.854	426.25
500.215	433.91
500.576	413.49
500.937	477.32
501.298	439.02
501.658	421.15
502.019	405.83
502.38	410.93
502.741	359.87
503.101	449.23
503.462	490.09
503.823	410.93
504.183	464.56
504.543	418.59
504.904	403.27
505.264	362.42
505.625	479.88
505.985	441.57
506.345	439.02
506.705	492.64
507.065	426.25
507.426	393.06
507.786	387.95
508.146	433.91
508.505	439.02
508.865	426.25
509.225	451.79
509.585	500.3
509.945	405.83
510.304	372.63
510.664	446.68
511.024	469.66
511.383	382.85
511.743	405.83
512.102	482.43
512.462	436.47
512.821	408.38
513.18	364.97
513.539	467.11
513.899	428.81
514.258	400.72
514.617	393.06
514.976	390.51
515.335	472.22
515.694	393.06
516.053	382.85
516.412	451.79
516.771	439.02
517.129	408.38
517.488	446.68
517.847	385.4
518.205	449.23
518.564	428.81
518.922	479.88
519.281	456.9
519.639	385.4
519.998	444.13
520.356	352.21
520.714	459.45
521.073	431.36
521.431	375.19
521.789	446.68
522.147	431.36
522.505	423.7
522.863	403.27
523.221	375.19
523.579	385.4
523.937	418.59
524.295	416.04
524.652	410.93
525.01	431.36
525.368	370.08
525.725	418.59
526.083	436.47
526.44	387.95
526.798	428.81
527.155	479.88
527.513	469.66
527.87	400.72
528.227	413.49
528.584	459.45
528.942	428.81
529.299	444.13
529.656	439.02
530.013	467.11
530.37	413.49
530.727	413.49
531.083	410.93
531.44	382.85
531.797	431.36
532.154	426.25
532.511	492.64
532.867	474.77
533.224	431.36
533.58	403.27
533.937	451.79
534.293	444.13
534.65	456.9
535.006	439.02
535.362	416.04
535.718	474.77
536.075	349.65
536.431	436.47
536.787	413.49
537.143	456.9
537.499	364.97
537.855	428.81
538.211	467.11
538.567	410.93
538.923	462
539.278	436.47
539.634	428.81
539.99	370.08
540.345	357.31
540.701	387.95
541.056	410.93
541.412	387.95
541.767	408.38
542.123	428.81
542.478	423.7
542.833	454.34
543.188	362.42
543.544	372.63
543.899	393.06
544.254	375.19
544.609	395.61
544.964	441.57
545.319	375.19
545.674	370.08
546.029	375.19
546.383	390.51
546.738	393.06
547.093	436.47
547.447	444.13
547.802	436.47
548.157	398.17
548.511	364.97
548.866	405.83
549.22	405.83
549.574	446.68
549.929	484.98
550.283	462
550.637	441.57
550.991	380.29
551.345	385.4
551.699	405.83
552.053	444.13
552.407	423.7
552.761	428.81
553.115	416.04
553.469	390.51
553.823	390.51
554.176	472.22
554.53	449.23
554.884	375.19
555.237	684.15
555.591	464.56
555.944	449.23
556.298	464.56
556.651	416.04
557.005	449.23
557.358	395.61
557.711	464.56
558.064	431.36
558.417	441.57
558.771	500.3
559.124	431.36
559.477	410.93
559.83	398.17
560.182	433.91
560.535	490.09
560.888	423.7
561.241	459.45
561.594	393.06
561.946	410.93
562.299	433.91
562.651	421.15
563.004	403.27
563.356	441.57
563.709	449.23
564.061	410.93
564.413	444.13
564.766	385.4
565.118	372.63
565.47	372.63
565.822	331.78
566.174	390.51
566.526	390.51
566.878	436.47
567.23	395.61
567.582	385.4
567.934	398.17
568.286	403.27
568.638	370.08
568.989	482.43
569.341	431.36
569.693	418.59
570.044	451.79
570.396	428.81
570.747	387.95
571.098	387.95
571.45	393.06
571.801	428.81
572.152	357.31
572.504	428.81
572.855	387.95
573.206	405.83
573.557	382.85
573.908	449.23
574.259	418.59
574.61	413.49
574.961	451.79
575.311	441.57
575.662	377.74
576.013	403.27
576.364	451.79
576.714	464.56
577.065	439.02
577.415	393.06
577.766	467.11
578.116	433.91
578.467	416.04
578.817	382.85
579.167	410.93
579.518	436.47
579.868	364.97
580.218	462
580.568	446.68
580.918	449.23
581.268	359.87
581.618	467.11
581.968	387.95
582.318	426.25
582.668	280.71
583.017	413.49
583.367	523.28
583.717	428.81
584.066	446.68
584.416	431.36
584.765	400.72
585.115	367.53
585.464	382.85
585.814	370.08
586.163	372.63
586.512	423.7
586.862	418.59
587.211	354.76
587.56	341.99
587.909	385.4
588.258	395.61
588.607	418.59
588.956	364.97
589.305	405.83
589.654	395.61
590.002	410.93
590.351	413.49
590.7	431.36
591.048	472.22
591.397	482.43
591.746	423.7
592.094	467.11
592.443	352.21
592.791	439.02
593.139	428.81
593.488	385.4
593.836	390.51
594.184	395.61
594.532	423.7
594.88	423.7
595.228	313.91
595.576	367.53
595.924	436.47
596.272	400.72
596.62	375.19
596.968	426.25
597.316	418.59
597.664	421.15
598.011	403.27
598.359	421.15
598.706	375.19
599.054	398.17
599.402	377.74
599.749	410.93
600.096	428.81
600.444	400.72
600.791	387.95
601.138	413.49
601.485	372.63
601.833	377.74
602.18	382.85
602.527	377.74
602.874	344.55
603.221	441.57
603.568	444.13
603.914	492.64
604.261	398.17
604.608	487.54
604.955	423.7
605.301	472.22
605.648	474.77
605.995	413.49
606.341	370.08
606.688	390.51
607.034	372.63
607.38	421.15
607.727	405.83
608.073	433.91
608.419	454.34
608.765	400.72
609.112	408.38
609.458	436.47
609.804	456.9
610.15	482.43
610.496	459.45
610.842	377.74
611.187	339.44
611.533	472.22
611.879	464.56
612.225	464.56
612.57	479.88
612.916	423.7
613.261	433.91
613.607	436.47
613.952	446.68
614.298	418.59
614.643	385.4
614.989	436.47
615.334	462
615.679	395.61
616.024	408.38
616.369	370.08
616.714	359.87
617.059	444.13
617.404	359.87
617.749	413.49
618.094	377.74
618.439	439.02
618.784	375.19
619.129	382.85
619.473	359.87
619.818	439.02
620.163	464.56
620.507	436.47
620.852	436.47
621.196	418.59
621.54	413.49
621.885	410.93
622.229	436.47
622.573	467.11
622.918	403.27
623.262	364.97
623.606	357.31
623.95	405.83
624.294	400.72
624.638	390.51
624.982	426.25
625.326	449.23
625.67	492.64
626.013	423.7
626.357	413.49
626.701	370.08
627.044	444.13
627.388	408.38
627.731	395.61
628.075	410.93
628.418	449.23
628.762	370.08
629.105	393.06
629.448	421.15
629.792	398.17
630.135	372.63
630.478	439.02
630.821	467.11
631.164	387.95
631.507	444.13
631.85	421.15
632.193	362.42
632.536	395.61
632.879	444.13
633.221	364.97
633.564	454.34
633.907	431.36
634.249	426.25
634.592	375.19
634.935	410.93
635.277	410.93
635.619	387.95
635.962	344.55
636.304	431.36
636.646	449.23
636.989	454.34
637.331	393.06
637.673	344.55
638.015	393.06
638.357	418.59
638.699	390.51
639.041	400.72
639.383	410.93
639.725	421.15
640.067	403.27
640.408	377.74
640.75	341.99
641.092	382.85
641.433	428.81
641.775	416.04
642.116	444.13
642.458	416.04
642.799	492.64
643.141	377.74
643.482	421.15
643.823	436.47
644.164	405.83
644.506	495.2
644.847	398.17
645.188	357.31
645.529	426.25
645.87	380.29
646.211	451.79
646.552	408.38
646.893	413.49
647.233	416.04
647.574	428.81
647.915	515.62
648.255	469.66
648.596	456.9
648.937	426.25
649.277	362.42
649.618	405.83
649.958	459.45
650.298	380.29
650.639	390.51
650.979	370.08
651.319	410.93
651.659	398.17
651.999	326.67
652.339	377.74
652.679	408.38
653.019	393.06
653.359	393.06
653.699	474.77
654.039	418.59
654.379	408.38
654.719	441.57
655.058	426.25
655.398	375.19
655.737	500.3
656.077	479.88
656.416	403.27
656.756	339.44
657.095	477.32
657.435	449.23
657.774	449.23
658.113	400.72
658.452	372.63
658.792	344.55
659.131	403.27
659.47	423.7
659.809	454.34
660.148	426.25
660.487	472.22
660.826	451.79
661.164	451.79
661.503	421.15
661.842	400.72
662.181	357.31
662.519	418.59
662.858	398.17
663.196	372.63
663.535	439.02
663.873	393.06
664.212	403.27
664.55	428.81
664.888	410.93
665.226	433.91
665.565	400.72
665.903	574.35
666.241	428.81
666.579	408.38
666.917	426.25
667.255	433.91
667.593	372.63
667.931	387.95
668.268	347.1
668.606	359.87
668.944	395.61
669.282	416.04
669.619	433.91
669.957	352.21
670.294	403.27
670.632	359.87
670.969	334.33
671.307	370.08
671.644	395.61
671.981	436.47
672.318	449.23
672.656	416.04
672.993	382.85
673.33	405.83
673.667	421.15
674.004	433.91
674.341	451.79
674.678	400.72
675.015	390.51
675.351	377.74
675.688	380.29
676.025	418.59
676.362	418.59
676.698	418.59
677.035	336.89
677.371	362.42
677.708	341.99
678.044	439.02
678.38	352.21
678.717	367.53
679.053	451.79
679.389	426.25
679.725	413.49
680.062	426.25
680.398	372.63
680.734	398.17
681.07	441.57
681.406	426.25
681.742	451.79
682.077	456.9
682.413	449.23
682.749	413.49
683.085	426.25
683.42	433.91
683.756	416.04
684.091	444.13
684.427	405.83
684.762	400.72
685.098	421.15
685.433	405.83
685.768	416.04
686.104	431.36
686.439	341.99
686.774	372.63
687.109	400.72
687.444	421.15
687.779	403.27
688.114	451.79
688.449	339.44
688.784	444.13
689.119	423.7
689.454	462
689.789	387.95
690.123	377.74
690.458	426.25
690.792	462
691.127	454.34
691.461	413.49
691.796	352.21
692.13	451.79
692.465	398.17
692.799	416.04
693.133	421.15
693.467	395.61
693.802	423.7
694.136	413.49
694.47	436.47
694.804	408.38
695.138	354.76
695.472	354.76
695.806	395.61
696.139	436.47
696.473	408.38
696.807	477.32
697.141	472.22
697.474	492.64
697.808	513.07
698.141	372.63
698.475	421.15
698.808	423.7
699.142	459.45
699.475	439.02
699.808	410.93
700.142	444.13
700.475	416.04
700.808	449.23
701.141	433.91
701.474	387.95
701.807	364.97
702.14	441.57
702.473	454.34
702.806	416.04
703.139	469.66
703.472	426.25
703.804	387.95
704.137	426.25
704.47	410.93
704.802	372.63
705.135	410.93
705.467	387.95
705.8	416.04
706.132	469.66
706.464	462
706.797	433.91
707.129	449.23
707.461	339.44
707.793	418.59
708.125	372.63
708.457	456.9
708.789	500.3
709.121	367.53
709.453	428.81
709.785	441.57
710.117	375.19
710.449	444.13
710.781	423.7
711.112	408.38
711.444	439.02
711.775	390.51
712.107	421.15
712.438	359.87
712.77	362.42
713.101	393.06
713.433	444.13
713.764	423.7
714.095	454.34
714.426	405.83
714.757	426.25
715.089	349.65
715.42	421.15
715.751	421.15
716.082	426.25
716.412	431.36
716.743	459.45
717.074	433.91
717.405	336.89
717.736	410.93
718.066	408.38
718.397	428.81
718.727	421.15
719.058	357.31
719.388	372.63
719.719	413.49
720.049	377.74
720.38	336.89
720.71	398.17
721.04	395.61
721.37	354.76
721.7	433.91
722.031	403.27
722.361	387.95
722.691	421.15
723.021	400.72
723.35	513.07
723.68	334.33
724.01	413.49
724.34	362.42
724.67	352.21
724.999	423.7
725.329	410.93
725.658	436.47
725.988	405.83
726.317	416.04
726.647	482.43
726.976	387.95
727.306	426.25
727.635	380.29
727.964	451.79
728.293	377.74
728.622	459.45
728.952	421.15
729.281	444.13
729.61	398.17
729.939	418.59
730.267	408.38
730.596	444.13
730.925	410.93
731.254	449.23
731.583	398.17
731.911	495.2
732.24	477.32
732.568	418.59
732.897	362.42
733.225	403.27
733.554	380.29
733.882	380.29
734.21	367.53
734.539	395.61
734.867	405.83
735.195	454.34
735.523	377.74
735.851	433.91
736.179	416.04
736.507	370.08
736.835	385.4
737.163	403.27
737.491	400.72
737.819	380.29
738.147	372.63
738.474	456.9
738.802	380.29
739.13	418.59
739.457	398.17
739.785	385.4
740.112	405.83
740.44	423.7
740.767	423.7
741.094	387.95
741.422	441.57
741.749	400.72
742.076	441.57
742.403	370.08
742.73	367.53
743.057	444.13
743.384	393.06
743.711	433.91
744.038	495.2
744.365	474.77
744.692	416.04
745.018	441.57
745.345	395.61
745.672	390.51
745.998	375.19
746.325	451.79
746.651	347.1
746.978	339.44
747.304	439.02
747.631	482.43
747.957	433.91
748.283	377.74
748.61	418.59
748.936	439.02
749.262	413.49
749.588	446.68
749.914	433.91
750.24	449.23
750.566	439.02
750.892	492.64
751.218	487.54
751.543	456.9
751.869	474.77
752.195	418.59
752.521	413.49
752.846	410.93
753.172	462
753.497	492.64
753.823	444.13
754.148	400.72
754.473	474.77
754.799	474.77
755.124	418.59
755.449	446.68
755.774	393.06
756.1	370.08
756.425	370.08
756.75	418.59
757.075	431.36
757.4	533.5
757.724	479.88
758.049	387.95
758.374	449.23
758.699	439.02
759.024	469.66
759.348	439.02
759.673	444.13
759.997	428.81
760.322	413.49
760.646	449.23
760.971	459.45
761.295	436.47
761.619	520.73
761.944	375.19
762.268	484.98
762.592	566.69
762.916	528.39
763.24	576.9
763.564	615.2
763.888	594.78
764.212	620.31
764.536	497.75
764.86	497.75
765.184	546.26
765.508	536.05
765.831	650.95
766.155	865.44
766.478	845.01
766.802	921.61
767.126	1018.64
767.449	1340.36
767.772	1513.99
768.096	1508.89
768.419	1506.33
768.742	1396.54
769.066	1317.38
769.389	1169.29
769.712	1023.74
770.035	875.65
770.358	804.15
770.681	908.84
771.004	1013.53
771.327	1332.7
771.65	1616.13
771.972	2045.1
772.295	2425.55
772.618	2783.02
772.941	2816.22
773.263	2783.02
773.586	2640.03
773.908	2739.62
774.231	2377.04
774.553	1983.82
774.875	1692.73
775.198	1365.9
775.52	1174.39
775.842	1248.44
776.164	1552.29
776.487	2152.34
776.809	2647.69
777.131	3227.31
777.453	3620.53
777.775	3978
778.096	4516.77
778.418	4519.32
778.74	3957.58
779.062	3469.88
779.384	3051.13
779.705	2757.49
780.027	2382.14
780.348	1876.57
780.67	1549.74
780.991	1503.78
781.313	1996.58
781.634	2491.94
781.955	3291.14
782.277	4450.38
782.598	5591.74
782.919	6334.77
783.24	6812.25
783.561	6955.24
783.882	7065.04
784.203	6717.78
784.524	5673.45
784.845	4504
785.166	3365.19
785.487	2560.88
785.807	1856.15
786.128	1585.49
786.449	1496.12
786.769	1697.84
787.09	2668.12
787.41	3980.56
787.731	5688.77
788.051	7299.95
788.372	8390.24
788.692	10060.15
789.012	10956.39
789.332	10729.13
789.653	10409.96
789.973	9669.48
790.293	7751.9
790.613	5497.26
790.933	3924.38
791.253	2696.21
791.573	1963.39
791.893	1562.51
792.212	1547.19
792.532	1925.09
792.852	2910.69
793.171	3921.83
793.491	4682.74
793.811	5803.67
794.13	6442.01
794.45	6705.01
794.769	6633.52
795.088	6661.6
795.408	6143.27
795.727	5859.84
796.046	4654.65
796.365	3694.58
796.684	2701.31
797.004	1937.85
797.323	1452.71
797.642	1335.26
797.96	1483.35
798.279	1937.85
798.598	2754.94
798.917	3937.15
799.236	4710.82
799.554	5147.45
799.873	5778.13
