Data from 2025-12-03_xpw_interference_micrometer_634_FLMS141361__13__063.txt Node

Date: Wed Dec 03 15:48:37 MST 2025
User: james
Spectrometer: FLMS14136
Trigger mode: 0
Integration Time (sec): 1.000000E-1
Scans to average: 1
Electric dark correction enabled: true
Nonlinearity correction enabled: false
Boxcar width: 0
XAxis mode: Wavelengths
Number of Pixels in Spectrum: 2048
>>>>>Begin Spectral Data<<<<<
339.315	-62.88
339.697	-62.88
340.079	-62.88
340.461	-73.09
340.843	-45
341.225	-119.05
341.607	-50.11
341.989	-147.14
342.371	-159.91
342.752	-83.3
343.134	-50.11
343.516	-29.68
343.897	49.47
344.279	26.49
344.661	90.33
345.042	31.6
345.423	77.56
345.805	29.04
346.186	75.01
346.567	131.18
346.949	128.63
347.33	151.61
347.711	238.42
348.092	225.65
348.473	233.31
348.854	284.38
349.235	299.7
349.616	230.76
349.997	317.58
350.378	284.38
350.758	304.81
351.139	276.72
351.52	330.34
351.9	281.83
352.281	304.81
352.661	412.05
353.042	338
353.422	399.28
353.803	427.37
354.183	406.94
354.563	424.82
354.943	383.96
355.324	404.39
355.704	391.62
356.084	360.98
356.464	330.34
356.844	386.52
357.224	340.56
357.603	353.32
357.983	363.54
358.363	480.99
358.743	412.05
359.122	424.82
359.502	335.45
359.882	401.84
360.261	383.96
360.641	389.07
361.02	366.09
361.399	371.2
361.779	419.71
362.158	432.48
362.537	358.43
362.916	360.98
363.296	373.75
363.675	322.68
364.054	307.36
364.433	368.64
364.812	338
365.19	309.92
365.569	386.52
365.948	389.07
366.327	312.47
366.705	343.11
367.084	358.43
367.463	355.88
367.841	338
368.22	355.88
368.598	366.09
368.977	317.58
369.355	381.41
369.733	378.86
370.111	325.24
370.49	330.34
370.868	343.11
371.246	343.11
371.624	348.22
372.002	309.92
372.38	414.6
372.758	371.2
373.136	422.26
373.513	302.26
373.891	358.43
374.269	325.24
374.646	368.64
375.024	363.54
375.402	315.02
375.779	394.18
376.157	412.05
376.534	338
376.911	396.73
377.289	366.09
377.666	381.41
378.043	409.5
378.42	348.22
378.797	335.45
379.175	391.62
379.552	373.75
379.929	435.03
380.305	348.22
380.682	345.66
381.059	383.96
381.436	366.09
381.813	366.09
382.189	353.32
382.566	412.05
382.943	371.2
383.319	350.77
383.696	335.45
384.072	422.26
384.448	358.43
384.825	378.86
385.201	383.96
385.577	340.56
385.953	343.11
386.329	368.64
386.706	389.07
387.082	371.2
387.458	332.9
387.834	340.56
388.209	363.54
388.585	383.96
388.961	404.39
389.337	376.3
389.713	348.22
390.088	386.52
390.464	386.52
390.839	401.84
391.215	401.84
391.59	389.07
391.966	350.77
392.341	396.73
392.716	445.25
393.092	389.07
393.467	358.43
393.842	383.96
394.217	432.48
394.592	381.41
394.967	373.75
395.342	368.64
395.717	401.84
396.092	332.9
396.467	348.22
396.841	406.94
397.216	429.93
397.591	383.96
397.965	350.77
398.34	332.9
398.714	304.81
399.089	394.18
399.463	432.48
399.838	378.86
400.212	396.73
400.586	340.56
400.961	350.77
401.335	383.96
401.709	419.71
402.083	366.09
402.457	394.18
402.831	353.32
403.205	376.3
403.579	373.75
403.953	345.66
404.326	386.52
404.7	366.09
405.074	442.69
405.447	381.41
405.821	412.05
406.195	391.62
406.568	381.41
406.942	496.31
407.315	409.5
407.688	409.5
408.062	399.28
408.435	394.18
408.808	366.09
409.181	414.6
409.554	332.9
409.927	414.6
410.3	391.62
410.673	355.88
411.046	330.34
411.419	458.01
411.792	396.73
412.165	435.03
412.537	366.09
412.91	383.96
413.283	340.56
413.655	432.48
414.028	432.48
414.4	458.01
414.773	366.09
415.145	348.22
415.517	373.75
415.889	383.96
416.262	422.26
416.634	350.77
417.006	399.28
417.378	381.41
417.75	417.16
418.122	414.6
418.494	378.86
418.866	404.39
419.238	358.43
419.609	401.84
419.981	447.8
420.353	440.14
420.725	437.59
421.096	332.9
421.468	440.14
421.839	391.62
422.211	378.86
422.582	340.56
422.953	412.05
423.325	435.03
423.696	281.83
424.067	363.54
424.438	394.18
424.809	491.21
425.18	422.26
425.551	396.73
425.922	483.55
426.293	442.69
426.664	445.25
427.035	475.89
427.406	473.33
427.776	414.6
428.147	373.75
428.518	447.8
428.888	422.26
429.259	383.96
429.629	406.94
429.999	412.05
430.37	432.48
430.74	445.25
431.11	386.52
431.481	360.98
431.851	389.07
432.221	378.86
432.591	355.88
432.961	371.2
433.331	358.43
433.701	414.6
434.071	465.67
434.441	458.01
434.81	496.31
435.18	429.93
435.55	417.16
435.919	417.16
436.289	427.37
436.658	422.26
437.028	409.5
437.397	386.52
437.767	366.09
438.136	437.59
438.505	389.07
438.875	332.9
439.244	412.05
439.613	366.09
439.982	432.48
440.351	399.28
440.72	391.62
441.089	424.82
441.458	427.37
441.827	373.75
442.196	399.28
442.564	552.49
442.933	509.08
443.302	391.62
443.67	304.81
444.039	455.46
444.407	460.57
444.776	412.05
445.144	399.28
445.513	406.94
445.881	401.84
446.249	419.71
446.617	389.07
446.986	394.18
447.354	401.84
447.722	368.64
448.09	460.57
448.458	455.46
448.826	483.55
449.194	460.57
449.561	460.57
449.929	338
450.297	412.05
450.665	440.14
451.032	465.67
451.4	455.46
451.767	440.14
452.135	414.6
452.502	363.54
452.87	452.91
453.237	412.05
453.604	440.14
453.971	417.16
454.339	386.52
454.706	368.64
455.073	399.28
455.44	404.39
455.807	406.94
456.174	422.26
456.541	470.78
456.908	445.25
457.274	406.94
457.641	391.62
458.008	424.82
458.374	445.25
458.741	458.01
459.108	422.26
459.474	409.5
459.841	437.59
460.207	417.16
460.573	345.66
460.94	445.25
461.306	419.71
461.672	452.91
462.038	432.48
462.404	452.91
462.771	396.73
463.137	358.43
463.503	383.96
463.868	419.71
464.234	424.82
464.6	401.84
464.966	394.18
465.332	422.26
465.697	424.82
466.063	376.3
466.429	394.18
466.794	422.26
467.16	419.71
467.525	422.26
467.89	355.88
468.256	463.12
468.621	450.35
468.986	404.39
469.351	409.5
469.717	432.48
470.082	409.5
470.447	435.03
470.812	442.69
471.177	363.54
471.542	419.71
471.906	409.5
472.271	422.26
472.636	378.86
473.001	381.41
473.365	399.28
473.73	429.93
474.094	394.18
474.459	409.5
474.823	440.14
475.188	419.71
475.552	419.71
475.917	350.77
476.281	404.39
476.645	363.54
477.009	445.25
477.373	455.46
477.737	373.75
478.101	422.26
478.465	371.2
478.829	396.73
479.193	412.05
479.557	463.12
479.921	404.39
480.284	440.14
480.648	427.37
481.012	353.32
481.375	373.75
481.739	396.73
482.102	429.93
482.466	406.94
482.829	417.16
483.193	340.56
483.556	396.73
483.919	394.18
484.282	401.84
484.645	412.05
485.009	409.5
485.372	437.59
485.735	396.73
486.098	450.35
486.46	409.5
486.823	424.82
487.186	417.16
487.549	386.52
487.912	404.39
488.274	486.1
488.637	412.05
488.999	366.09
489.362	473.33
489.724	488.65
490.087	371.2
490.449	414.6
490.811	458.01
491.174	343.11
491.536	437.59
491.898	404.39
492.26	488.65
492.622	422.26
492.984	412.05
493.346	381.41
493.708	442.69
494.07	376.3
494.432	399.28
494.794	414.6
495.155	389.07
495.517	378.86
495.879	366.09
496.24	414.6
496.602	493.76
496.963	424.82
497.325	348.22
497.686	463.12
498.048	473.33
498.409	470.78
498.77	437.59
499.131	429.93
499.492	455.46
499.854	414.6
500.215	465.67
500.576	452.91
500.937	419.71
501.298	442.69
501.658	437.59
502.019	442.69
502.38	445.25
502.741	338
503.101	440.14
503.462	417.16
503.823	332.9
504.183	371.2
504.543	363.54
504.904	383.96
505.264	401.84
505.625	427.37
505.985	429.93
506.345	386.52
506.705	442.69
507.065	353.32
507.426	360.98
507.786	373.75
508.146	412.05
508.505	389.07
508.865	473.33
509.225	501.42
509.585	493.76
509.945	404.39
510.304	429.93
510.664	409.5
511.024	363.54
511.383	383.96
511.743	422.26
512.102	404.39
512.462	394.18
512.821	366.09
513.18	417.16
513.539	404.39
513.899	401.84
514.258	412.05
514.617	360.98
514.976	391.62
515.335	391.62
515.694	409.5
516.053	399.28
516.412	445.25
516.771	450.35
517.129	435.03
517.488	506.53
517.847	419.71
518.205	447.8
518.564	424.82
518.922	406.94
519.281	442.69
519.639	383.96
519.998	355.88
520.356	447.8
520.714	463.12
521.073	465.67
521.431	437.59
521.789	381.41
522.147	401.84
522.505	429.93
522.863	437.59
523.221	488.65
523.579	404.39
523.937	404.39
524.295	429.93
524.652	386.52
525.01	422.26
525.368	386.52
525.725	376.3
526.083	343.11
526.44	396.73
526.798	440.14
527.155	401.84
527.513	386.52
527.87	386.52
528.227	432.48
528.584	450.35
528.942	414.6
529.299	366.09
529.656	366.09
530.013	440.14
530.37	389.07
530.727	442.69
531.083	381.41
531.44	432.48
531.797	445.25
532.154	399.28
532.511	383.96
532.867	358.43
533.224	399.28
533.58	406.94
533.937	368.64
534.293	437.59
534.65	409.5
535.006	440.14
535.362	458.01
535.718	429.93
536.075	437.59
536.431	440.14
536.787	394.18
537.143	442.69
537.499	399.28
537.855	412.05
538.211	470.78
538.567	401.84
538.923	363.54
539.278	394.18
539.634	348.22
539.99	383.96
540.345	440.14
540.701	412.05
541.056	345.66
541.412	424.82
541.767	406.94
542.123	470.78
542.478	429.93
542.833	386.52
543.188	396.73
543.544	406.94
543.899	460.57
544.254	368.64
544.609	401.84
544.964	463.12
545.319	396.73
545.674	409.5
546.029	373.75
546.383	373.75
546.738	378.86
547.093	422.26
547.447	363.54
547.802	427.37
548.157	391.62
548.511	363.54
548.866	394.18
549.22	422.26
549.574	391.62
549.929	450.35
550.283	412.05
550.637	417.16
550.991	409.5
551.345	460.57
551.699	460.57
552.053	419.71
552.407	371.2
552.761	394.18
553.115	409.5
553.469	424.82
553.823	450.35
554.176	424.82
554.53	355.88
554.884	378.86
555.237	682.71
555.591	409.5
555.944	468.23
556.298	447.8
556.651	465.67
557.005	447.8
557.358	511.63
557.711	401.84
558.064	406.94
558.417	391.62
558.771	509.08
559.124	506.53
559.477	470.78
559.83	294.6
560.182	435.03
560.535	473.33
560.888	427.37
561.241	480.99
561.594	452.91
561.946	442.69
562.299	435.03
562.651	396.73
563.004	383.96
563.356	429.93
563.709	501.42
564.061	417.16
564.413	412.05
564.766	396.73
565.118	419.71
565.47	440.14
565.822	447.8
566.174	435.03
566.526	432.48
566.878	465.67
567.23	404.39
567.582	427.37
567.934	396.73
568.286	475.89
568.638	396.73
568.989	463.12
569.341	478.44
569.693	391.62
570.044	432.48
570.396	391.62
570.747	378.86
571.098	391.62
571.45	338
571.801	445.25
572.152	353.32
572.504	399.28
572.855	389.07
573.206	343.11
573.557	386.52
573.908	412.05
574.259	383.96
574.61	383.96
574.961	437.59
575.311	432.48
575.662	414.6
576.013	396.73
576.364	355.88
576.714	422.26
577.065	435.03
577.415	422.26
577.766	396.73
578.116	432.48
578.467	455.46
578.817	406.94
579.167	394.18
579.518	412.05
579.868	409.5
580.218	386.52
580.568	401.84
580.918	386.52
581.268	440.14
581.618	394.18
581.968	396.73
582.318	394.18
582.668	432.48
583.017	409.5
583.367	468.23
583.717	458.01
584.066	432.48
584.416	409.5
584.765	394.18
585.115	412.05
585.464	442.69
585.814	389.07
586.163	327.79
586.512	396.73
586.862	338
587.211	409.5
587.56	440.14
587.909	363.54
588.258	376.3
588.607	501.42
588.956	429.93
589.305	348.22
589.654	376.3
590.002	422.26
590.351	470.78
590.7	378.86
591.048	353.32
591.397	452.91
591.746	424.82
592.094	450.35
592.443	394.18
592.791	509.08
593.139	414.6
593.488	442.69
593.836	394.18
594.184	422.26
594.532	396.73
594.88	488.65
595.228	419.71
595.576	381.41
595.924	440.14
596.272	468.23
596.62	401.84
596.968	419.71
597.316	317.58
597.664	414.6
598.011	355.88
598.359	470.78
598.706	419.71
599.054	424.82
599.402	381.41
599.749	412.05
600.096	470.78
600.444	424.82
600.791	412.05
601.138	419.71
601.485	404.39
601.833	440.14
602.18	412.05
602.527	445.25
602.874	475.89
603.221	473.33
603.568	450.35
603.914	450.35
604.261	468.23
604.608	376.3
604.955	429.93
605.301	378.86
605.648	429.93
605.995	427.37
606.341	350.77
606.688	353.32
607.034	373.75
607.38	404.39
607.727	452.91
608.073	389.07
608.419	396.73
608.765	447.8
609.112	406.94
609.458	404.39
609.804	424.82
610.15	458.01
610.496	442.69
610.842	519.29
611.187	422.26
611.533	432.48
611.879	391.62
612.225	450.35
612.57	447.8
612.916	440.14
613.261	470.78
613.607	419.71
613.952	322.68
614.298	381.41
614.643	373.75
614.989	338
615.334	389.07
615.679	432.48
616.024	435.03
616.369	452.91
616.714	399.28
617.059	383.96
617.404	363.54
617.749	417.16
618.094	368.64
618.439	394.18
618.784	422.26
619.129	396.73
619.473	432.48
619.818	404.39
620.163	412.05
620.507	414.6
620.852	458.01
621.196	440.14
621.54	381.41
621.885	414.6
622.229	463.12
622.573	442.69
622.918	373.75
623.262	419.71
623.606	371.2
623.95	363.54
624.294	353.32
624.638	355.88
624.982	480.99
625.326	389.07
625.67	442.69
626.013	417.16
626.357	371.2
626.701	327.79
627.044	327.79
627.388	409.5
627.731	371.2
628.075	368.64
628.418	414.6
628.762	383.96
629.105	358.43
629.448	353.32
629.792	455.46
630.135	468.23
630.478	386.52
630.821	394.18
631.164	396.73
631.507	406.94
631.85	381.41
632.193	432.48
632.536	371.2
632.879	381.41
633.221	360.98
633.564	327.79
633.907	373.75
634.249	435.03
634.592	419.71
634.935	404.39
635.277	383.96
635.619	376.3
635.962	401.84
636.304	389.07
636.646	355.88
636.989	437.59
637.331	396.73
637.673	440.14
638.015	435.03
638.357	386.52
638.699	335.45
639.041	406.94
639.383	389.07
639.725	371.2
640.067	371.2
640.408	447.8
640.75	427.37
641.092	414.6
641.433	409.5
641.775	399.28
642.116	386.52
642.458	406.94
642.799	447.8
643.141	409.5
643.482	358.43
643.823	371.2
644.164	355.88
644.506	503.97
644.847	440.14
645.188	399.28
645.529	322.68
645.87	417.16
646.211	409.5
646.552	383.96
646.893	450.35
647.233	330.34
647.574	442.69
647.915	399.28
648.255	299.7
648.596	348.22
648.937	419.71
649.277	409.5
649.618	394.18
649.958	460.57
650.298	419.71
650.639	389.07
650.979	399.28
651.319	401.84
651.659	368.64
651.999	373.75
652.339	424.82
652.679	327.79
653.019	399.28
653.359	389.07
653.699	366.09
654.039	355.88
654.379	389.07
654.719	465.67
655.058	429.93
655.398	386.52
655.737	468.23
656.077	445.25
656.416	427.37
656.756	353.32
657.095	371.2
657.435	406.94
657.774	396.73
658.113	371.2
658.452	386.52
658.792	445.25
659.131	396.73
659.47	422.26
659.809	419.71
660.148	447.8
660.487	371.2
660.826	360.98
661.164	409.5
661.503	429.93
661.842	376.3
662.181	404.39
662.519	419.71
662.858	368.64
663.196	455.46
663.535	360.98
663.873	447.8
664.212	424.82
664.55	389.07
664.888	417.16
665.226	445.25
665.565	366.09
665.903	560.15
666.241	486.1
666.579	432.48
666.917	493.76
667.255	401.84
667.593	345.66
667.931	427.37
668.268	435.03
668.606	429.93
668.944	414.6
669.282	412.05
669.619	371.2
669.957	345.66
670.294	419.71
670.632	427.37
670.969	373.75
671.307	399.28
671.644	427.37
671.981	435.03
672.318	417.16
672.656	447.8
672.993	389.07
673.33	458.01
673.667	406.94
674.004	463.12
674.341	401.84
674.678	409.5
675.015	473.33
675.351	391.62
675.688	338
676.025	409.5
676.362	404.39
676.698	491.21
677.035	312.47
677.371	312.47
677.708	445.25
678.044	473.33
678.38	404.39
678.717	458.01
679.053	417.16
679.389	468.23
679.725	419.71
680.062	376.3
680.398	401.84
680.734	417.16
681.07	417.16
681.406	394.18
681.742	412.05
682.077	399.28
682.413	366.09
682.749	406.94
683.085	396.73
683.42	424.82
683.756	429.93
684.091	396.73
684.427	350.77
684.762	376.3
685.098	391.62
685.433	389.07
685.768	437.59
686.104	332.9
686.439	452.91
686.774	455.46
687.109	348.22
687.444	366.09
687.779	360.98
688.114	399.28
688.449	396.73
688.784	440.14
689.119	422.26
689.454	389.07
689.789	404.39
690.123	463.12
690.458	409.5
690.792	404.39
691.127	409.5
691.461	376.3
691.796	460.57
692.13	450.35
692.465	381.41
692.799	424.82
693.133	417.16
693.467	389.07
693.802	445.25
694.136	414.6
694.47	422.26
694.804	432.48
695.138	409.5
695.472	417.16
695.806	345.66
696.139	373.75
696.473	414.6
696.807	450.35
697.141	381.41
697.474	417.16
697.808	406.94
698.141	406.94
698.475	363.54
698.808	389.07
699.142	442.69
699.475	366.09
699.808	401.84
700.142	371.2
700.475	419.71
700.808	363.54
701.141	406.94
701.474	435.03
701.807	414.6
702.14	368.64
702.473	350.77
702.806	381.41
703.139	422.26
703.472	401.84
703.804	445.25
704.137	378.86
704.47	409.5
704.802	414.6
705.135	378.86
705.467	442.69
705.8	404.39
706.132	399.28
706.464	401.84
706.797	373.75
707.129	424.82
707.461	427.37
707.793	348.22
708.125	389.07
708.457	412.05
708.789	412.05
709.121	376.3
709.453	419.71
709.785	368.64
710.117	368.64
710.449	414.6
710.781	386.52
711.112	429.93
711.444	383.96
711.775	414.6
712.107	427.37
712.438	396.73
712.77	383.96
713.101	386.52
713.433	396.73
713.764	355.88
714.095	437.59
714.426	432.48
714.757	371.2
715.089	401.84
715.42	452.91
715.751	401.84
716.082	404.39
716.412	409.5
716.743	383.96
717.074	404.39
717.405	378.86
717.736	360.98
718.066	378.86
718.397	437.59
718.727	366.09
719.058	373.75
719.388	358.43
719.719	353.32
720.049	406.94
720.38	447.8
720.71	315.02
721.04	424.82
721.37	458.01
721.7	412.05
722.031	371.2
722.361	432.48
722.691	458.01
723.021	417.16
723.35	409.5
723.68	424.82
724.01	409.5
724.34	427.37
724.67	417.16
724.999	491.21
725.329	360.98
725.658	378.86
725.988	493.76
726.317	391.62
726.647	419.71
726.976	394.18
727.306	363.54
727.635	419.71
727.964	414.6
728.293	322.68
728.622	376.3
728.952	422.26
729.281	378.86
729.61	463.12
729.939	381.41
730.267	381.41
730.596	435.03
730.925	343.11
731.254	368.64
731.583	358.43
731.911	404.39
732.24	427.37
732.568	412.05
732.897	409.5
733.225	445.25
733.554	417.16
733.882	406.94
734.21	419.71
734.539	429.93
734.867	396.73
735.195	437.59
735.523	427.37
735.851	429.93
736.179	348.22
736.507	371.2
736.835	442.69
737.163	468.23
737.491	404.39
737.819	389.07
738.147	399.28
738.474	414.6
738.802	381.41
739.13	447.8
739.457	399.28
739.785	394.18
740.112	412.05
740.44	373.75
740.767	412.05
741.094	389.07
741.422	422.26
741.749	470.78
742.076	366.09
742.403	409.5
742.73	419.71
743.057	419.71
743.384	389.07
743.711	381.41
744.038	394.18
744.365	419.71
744.692	368.64
745.018	394.18
745.345	378.86
745.672	406.94
745.998	414.6
746.325	419.71
746.651	381.41
746.978	399.28
747.304	422.26
747.631	340.56
747.957	399.28
748.283	363.54
748.61	368.64
748.936	404.39
749.262	419.71
749.588	383.96
749.914	396.73
750.24	450.35
750.566	417.16
750.892	496.31
751.218	442.69
751.543	376.3
751.869	414.6
752.195	417.16
752.521	386.52
752.846	338
753.172	437.59
753.497	458.01
753.823	432.48
754.148	350.77
754.473	404.39
754.799	386.52
755.124	355.88
755.449	440.14
755.774	414.6
756.1	350.77
756.425	442.69
756.75	422.26
757.075	353.32
757.4	621.43
757.724	455.46
758.049	363.54
758.374	394.18
758.699	468.23
759.024	406.94
759.348	463.12
759.673	396.73
759.997	442.69
760.322	406.94
760.646	417.16
760.971	383.96
761.295	442.69
761.619	445.25
761.944	452.91
762.268	463.12
762.592	503.97
762.916	506.53
763.24	555.04
763.564	588.23
763.888	623.98
764.212	552.49
764.536	534.61
764.86	572.91
765.184	549.93
765.508	537.17
765.831	629.09
766.155	874.21
766.478	766.97
766.802	846.13
767.126	1045.29
767.449	1341.48
767.772	1489.58
768.096	1686.19
768.419	1607.03
768.742	1476.81
769.066	1369.57
769.389	1346.59
769.712	1083.59
770.035	899.75
770.358	754.2
770.681	848.68
771.004	1004.44
771.327	1149.98
771.65	1573.84
771.972	2071.75
772.295	2544.12
772.618	2687.11
772.941	2904.15
773.263	2876.06
773.586	2812.23
773.908	2906.7
774.231	2523.69
774.553	2140.69
774.875	1847.05
775.198	1405.32
775.52	1275.09
775.842	1272.54
776.164	1520.22
776.487	1954.29
776.809	2536.46
777.131	3236.09
777.453	3716.12
777.775	3920.39
778.096	4591.93
778.418	4714.49
778.74	4104.24
779.062	3649.73
779.384	3322.9
779.705	3133.95
780.027	2526.25
780.348	1954.29
780.67	1548.3
780.991	1492.13
781.313	1852.16
781.634	2452.2
781.955	3141.61
782.277	4303.4
782.598	5674.56
782.919	6297.59
783.24	6930.83
783.561	7091.69
783.882	7242.34
784.203	6790.39
784.524	5876.28
784.845	4885.57
785.166	3682.93
785.487	2712.64
785.807	2122.81
786.128	1645.33
786.449	1512.56
786.769	1704.06
787.09	2500.71
787.41	3705.91
787.731	5500.93
788.051	7032.96
788.372	8291.78
788.692	10012.75
789.012	11217.95
789.332	11202.63
789.653	11054.53
789.973	10222.13
790.293	7957.28
790.613	5730.74
790.933	4323.83
791.253	3090.54
791.573	2061.53
791.893	1466.6
792.212	1456.38
792.532	1921.1
792.852	2669.24
793.171	3639.52
793.491	4507.67
793.811	5472.85
794.13	6220.99
794.45	6639.74
794.769	6695.91
795.088	6981.89
795.408	6392.06
795.727	5996.29
796.046	4954.51
796.365	3930.61
796.684	2919.47
797.004	2127.92
797.323	1522.77
797.642	1241.9
797.96	1300.63
798.279	1801.09
798.598	2687.11
798.917	3565.47
799.236	4308.51
799.554	4801.31
799.873	5638.82
800.192	6527.39
800.51	7380.22
800.829	7050.83
801.147	6522.28
