Data from 2025-12-03_xpw_interference_micrometer_634_FLMS141361__48__098.txt Node

Date: Wed Dec 03 15:48:41 MST 2025
User: james
Spectrometer: FLMS14136
Trigger mode: 0
Integration Time (sec): 1.000000E-1
Scans to average: 1
Electric dark correction enabled: true
Nonlinearity correction enabled: false
Boxcar width: 0
XAxis mode: Wavelengths
Number of Pixels in Spectrum: 2048
>>>>>Begin Spectral Data<<<<<
339.315	-24.9
339.697	-24.9
340.079	-24.9
340.461	-119.37
340.843	-73.41
341.225	-132.14
341.607	-134.69
341.989	-109.16
342.371	-73.41
342.752	-55.54
343.134	-58.09
343.516	-14.68
343.897	-68.3
344.279	-4.47
344.661	77.24
345.042	44.05
345.423	51.71
345.805	146.18
346.186	77.24
346.567	153.84
346.949	100.22
347.33	141.07
347.711	151.29
348.092	174.27
348.473	217.68
348.854	210.02
349.235	220.23
349.616	286.62
349.997	243.21
350.378	365.77
350.758	291.72
351.139	255.98
351.52	340.24
351.9	347.9
352.281	363.22
352.661	353
353.042	360.66
353.422	360.66
353.803	386.2
354.183	414.29
354.563	373.43
354.943	350.45
355.324	406.63
355.704	378.54
356.084	383.65
356.464	322.36
356.844	335.13
357.224	429.61
357.603	396.41
357.983	409.18
358.363	439.82
358.743	398.97
359.122	396.41
359.502	424.5
359.882	365.77
360.261	375.98
360.641	406.63
361.02	353
361.399	296.83
361.779	404.07
362.158	337.68
362.537	363.22
362.916	312.15
363.296	233
363.675	337.68
364.054	294.28
364.433	342.79
364.812	327.47
365.19	332.58
365.569	324.92
365.948	327.47
366.327	271.3
366.705	299.38
367.084	322.36
367.463	342.79
367.841	345.34
368.22	373.43
368.598	330.02
368.977	276.4
369.355	378.54
369.733	342.79
370.111	388.75
370.49	294.28
370.868	324.92
371.246	330.02
371.624	353
372.002	355.56
372.38	307.04
372.758	388.75
373.136	299.38
373.513	327.47
373.891	296.83
374.269	381.09
374.646	370.88
375.024	304.49
375.402	365.77
375.779	370.88
376.157	396.41
376.534	360.66
376.911	373.43
377.289	322.36
377.666	324.92
378.043	353
378.42	319.81
378.797	363.22
379.175	327.47
379.552	358.11
379.929	307.04
380.305	340.24
380.682	378.54
381.059	345.34
381.436	406.63
381.813	411.73
382.189	370.88
382.566	350.45
382.943	409.18
383.319	353
383.696	386.2
384.072	360.66
384.448	340.24
384.825	386.2
385.201	393.86
385.577	327.47
385.953	314.7
386.329	299.38
386.706	322.36
387.082	398.97
387.458	375.98
387.834	368.32
388.209	355.56
388.585	337.68
388.961	360.66
389.337	322.36
389.713	375.98
390.088	368.32
390.464	345.34
390.839	335.13
391.215	398.97
391.59	373.43
391.966	386.2
392.341	398.97
392.716	322.36
393.092	381.09
393.467	353
393.842	347.9
394.217	401.52
394.592	342.79
394.967	345.34
395.342	322.36
395.717	406.63
396.092	345.34
396.467	373.43
396.841	332.58
397.216	358.11
397.591	398.97
397.965	393.86
398.34	388.75
398.714	398.97
399.089	360.66
399.463	350.45
399.838	450.03
400.212	401.52
400.586	411.73
400.961	401.52
401.335	314.7
401.709	386.2
402.083	324.92
402.457	370.88
402.831	360.66
403.205	414.29
403.579	342.79
403.953	378.54
404.326	360.66
404.7	360.66
405.074	368.32
405.447	353
405.821	345.34
406.195	381.09
406.568	381.09
406.942	391.31
407.315	332.58
407.688	358.11
408.062	299.38
408.435	340.24
408.808	391.31
409.181	429.61
409.554	416.84
409.927	335.13
410.3	416.84
410.673	386.2
411.046	324.92
411.419	327.47
411.792	383.65
412.165	398.97
412.537	342.79
412.91	393.86
413.283	370.88
413.655	373.43
414.028	365.77
414.4	398.97
414.773	393.86
415.145	365.77
415.517	475.57
415.889	358.11
416.262	391.31
416.634	404.07
417.006	368.32
417.378	378.54
417.75	345.34
418.122	427.05
418.494	353
418.866	340.24
419.238	381.09
419.609	383.65
419.981	388.75
420.353	404.07
420.725	314.7
421.096	401.52
421.468	409.18
421.839	401.52
422.211	347.9
422.582	419.39
422.953	381.09
423.325	462.8
423.696	427.05
424.067	375.98
424.438	416.84
424.809	381.09
425.18	432.16
425.551	358.11
425.922	388.75
426.293	373.43
426.664	365.77
427.035	416.84
427.406	406.63
427.776	381.09
428.147	409.18
428.518	312.15
428.888	388.75
429.259	398.97
429.629	396.41
429.999	447.48
430.37	429.61
430.74	381.09
431.11	350.45
431.481	368.32
431.851	353
432.221	355.56
432.591	375.98
432.961	355.56
433.331	437.27
433.701	373.43
434.071	398.97
434.441	404.07
434.81	393.86
435.18	383.65
435.55	378.54
435.919	375.98
436.289	434.71
436.658	419.39
437.028	398.97
437.397	442.37
437.767	347.9
438.136	373.43
438.505	401.52
438.875	365.77
439.244	447.48
439.613	401.52
439.982	444.93
440.351	304.49
440.72	342.79
441.089	307.04
441.458	411.73
441.827	429.61
442.196	424.5
442.564	480.67
442.933	391.31
443.302	345.34
443.67	345.34
444.039	368.32
444.407	319.81
444.776	401.52
445.144	414.29
445.513	414.29
445.881	442.37
446.249	447.48
446.617	370.88
446.986	383.65
447.354	409.18
447.722	360.66
448.09	368.32
448.458	401.52
448.826	444.93
449.194	427.05
449.561	467.91
449.929	467.91
450.297	386.2
450.665	358.11
451.032	419.39
451.4	409.18
451.767	353
452.135	347.9
452.502	386.2
452.87	314.7
453.237	375.98
453.604	363.22
453.971	421.95
454.339	368.32
454.706	373.43
455.073	393.86
455.44	393.86
455.807	381.09
456.174	375.98
456.541	368.32
456.908	383.65
457.274	434.71
457.641	396.41
458.008	378.54
458.374	401.52
458.741	444.93
459.108	393.86
459.474	363.22
459.841	427.05
460.207	411.73
460.573	393.86
460.94	409.18
461.306	353
461.672	398.97
462.038	406.63
462.404	373.43
462.771	391.31
463.137	393.86
463.503	437.27
463.868	404.07
464.234	450.03
464.6	467.91
464.966	353
465.332	439.82
465.697	383.65
466.063	396.41
466.429	393.86
466.794	358.11
467.16	365.77
467.525	363.22
467.89	398.97
468.256	424.5
468.621	483.23
468.986	373.43
469.351	383.65
469.717	396.41
470.082	424.5
470.447	340.24
470.812	409.18
471.177	317.26
471.542	429.61
471.906	465.35
472.271	427.05
472.636	432.16
473.001	350.45
473.365	360.66
473.73	398.97
474.094	429.61
474.459	386.2
474.823	375.98
475.188	391.31
475.552	381.09
475.917	381.09
476.281	429.61
476.645	332.58
477.009	406.63
477.373	401.52
477.737	396.41
478.101	452.59
478.465	444.93
478.829	393.86
479.193	416.84
479.557	368.32
479.921	437.27
480.284	393.86
480.648	337.68
481.012	393.86
481.375	457.69
481.739	419.39
482.102	388.75
482.466	406.63
482.829	434.71
483.193	398.97
483.556	375.98
483.919	386.2
484.282	490.89
484.645	373.43
485.009	314.7
485.372	439.82
485.735	368.32
486.098	365.77
486.46	455.14
486.823	378.54
487.186	396.41
487.549	386.2
487.912	409.18
488.274	388.75
488.637	381.09
488.999	378.54
489.362	368.32
489.724	381.09
490.087	416.84
490.449	421.95
490.811	427.05
491.174	421.95
491.536	432.16
491.898	337.68
492.26	360.66
492.622	429.61
492.984	381.09
493.346	381.09
493.708	427.05
494.07	391.31
494.432	375.98
494.794	391.31
495.155	421.95
495.517	439.82
495.879	493.44
496.24	404.07
496.602	427.05
496.963	401.52
497.325	442.37
497.686	381.09
498.048	424.5
498.409	460.25
498.77	427.05
499.131	406.63
499.492	381.09
499.854	404.07
500.215	381.09
500.576	419.39
500.937	378.54
501.298	442.37
501.658	383.65
502.019	432.16
502.38	406.63
502.741	365.77
503.101	381.09
503.462	383.65
503.823	350.45
504.183	414.29
504.543	434.71
504.904	442.37
505.264	414.29
505.625	478.12
505.985	404.07
506.345	460.25
506.705	375.98
507.065	358.11
507.426	378.54
507.786	378.54
508.146	375.98
508.505	337.68
508.865	365.77
509.225	432.16
509.585	467.91
509.945	388.75
510.304	416.84
510.664	409.18
511.024	401.52
511.383	429.61
511.743	386.2
512.102	424.5
512.462	411.73
512.821	432.16
513.18	350.45
513.539	388.75
513.899	393.86
514.258	406.63
514.617	370.88
514.976	437.27
515.335	411.73
515.694	393.86
516.053	383.65
516.412	370.88
516.771	404.07
517.129	396.41
517.488	363.22
517.847	353
518.205	406.63
518.564	414.29
518.922	409.18
519.281	363.22
519.639	332.58
519.998	363.22
520.356	358.11
520.714	355.56
521.073	455.14
521.431	429.61
521.789	383.65
522.147	447.48
522.505	409.18
522.863	388.75
523.221	406.63
523.579	373.43
523.937	450.03
524.295	360.66
524.652	421.95
525.01	419.39
525.368	383.65
525.725	442.37
526.083	370.88
526.44	381.09
526.798	427.05
527.155	419.39
527.513	473.01
527.87	406.63
528.227	386.2
528.584	439.82
528.942	432.16
529.299	370.88
529.656	358.11
530.013	347.9
530.37	411.73
530.727	437.27
531.083	421.95
531.44	457.69
531.797	462.8
532.154	386.2
532.511	414.29
532.867	340.24
533.224	322.36
533.58	360.66
533.937	378.54
534.293	424.5
534.65	416.84
535.006	501.1
535.362	473.01
535.718	360.66
536.075	444.93
536.431	419.39
536.787	427.05
537.143	406.63
537.499	360.66
537.855	450.03
538.211	360.66
538.567	434.71
538.923	409.18
539.278	396.41
539.634	437.27
539.99	427.05
540.345	378.54
540.701	401.52
541.056	450.03
541.412	414.29
541.767	398.97
542.123	340.24
542.478	304.49
542.833	401.52
543.188	414.29
543.544	416.84
543.899	467.91
544.254	388.75
544.609	396.41
544.964	368.32
545.319	398.97
545.674	434.71
546.029	386.2
546.383	393.86
546.738	370.88
547.093	406.63
547.447	490.89
547.802	434.71
548.157	353
548.511	406.63
548.866	373.43
549.22	375.98
549.574	398.97
549.929	398.97
550.283	378.54
550.637	388.75
550.991	414.29
551.345	360.66
551.699	386.2
552.053	365.77
552.407	370.88
552.761	373.43
553.115	391.31
553.469	480.67
553.823	465.35
554.176	375.98
554.53	424.5
554.884	370.88
555.237	610.9
555.591	434.71
555.944	409.18
556.298	393.86
556.651	381.09
557.005	398.97
557.358	353
557.711	406.63
558.064	455.14
558.417	411.73
558.771	467.91
559.124	419.39
559.477	393.86
559.83	419.39
560.182	350.45
560.535	470.46
560.888	447.48
561.241	460.25
561.594	432.16
561.946	406.63
562.299	406.63
562.651	393.86
563.004	411.73
563.356	421.95
563.709	470.46
564.061	398.97
564.413	393.86
564.766	401.52
565.118	513.87
565.47	427.05
565.822	406.63
566.174	414.29
566.526	350.45
566.878	427.05
567.23	404.07
567.582	332.58
567.934	490.89
568.286	488.33
568.638	424.5
568.989	409.18
569.341	419.39
569.693	452.59
570.044	424.5
570.396	434.71
570.747	396.41
571.098	375.98
571.45	386.2
571.801	429.61
572.152	383.65
572.504	439.82
572.855	450.03
573.206	429.61
573.557	396.41
573.908	383.65
574.259	427.05
574.61	360.66
574.961	340.24
575.311	455.14
575.662	373.43
576.013	398.97
576.364	432.16
576.714	421.95
577.065	383.65
577.415	404.07
577.766	335.13
578.116	416.84
578.467	375.98
578.817	347.9
579.167	398.97
579.518	414.29
579.868	450.03
580.218	424.5
580.568	391.31
580.918	355.56
581.268	414.29
581.618	365.77
581.968	393.86
582.318	416.84
582.668	414.29
583.017	409.18
583.367	444.93
583.717	398.97
584.066	424.5
584.416	383.65
584.765	416.84
585.115	424.5
585.464	416.84
585.814	327.47
586.163	388.75
586.512	353
586.862	444.93
587.211	398.97
587.56	411.73
587.909	437.27
588.258	393.86
588.607	383.65
588.956	370.88
589.305	457.69
589.654	398.97
590.002	450.03
590.351	419.39
590.7	406.63
591.048	388.75
591.397	365.77
591.746	416.84
592.094	391.31
592.443	404.07
592.791	391.31
593.139	419.39
593.488	383.65
593.836	406.63
594.184	398.97
594.532	427.05
594.88	483.23
595.228	383.65
595.576	419.39
595.924	406.63
596.272	363.22
596.62	488.33
596.968	337.68
597.316	416.84
597.664	409.18
598.011	332.58
598.359	383.65
598.706	452.59
599.054	373.43
599.402	381.09
599.749	388.75
600.096	347.9
600.444	355.56
600.791	470.46
601.138	381.09
601.485	314.7
601.833	370.88
602.18	347.9
602.527	396.41
602.874	365.77
603.221	444.93
603.568	416.84
603.914	432.16
604.261	373.43
604.608	404.07
604.955	327.47
605.301	424.5
605.648	386.2
605.995	409.18
606.341	378.54
606.688	370.88
607.034	383.65
607.38	398.97
607.727	416.84
608.073	406.63
608.419	411.73
608.765	398.97
609.112	432.16
609.458	398.97
609.804	460.25
610.15	401.52
610.496	416.84
610.842	416.84
611.187	391.31
611.533	427.05
611.879	401.52
612.225	398.97
612.57	398.97
612.916	421.95
613.261	368.32
613.607	330.02
613.952	427.05
614.298	365.77
614.643	335.13
614.989	411.73
615.334	365.77
615.679	368.32
616.024	398.97
616.369	373.43
616.714	375.98
617.059	307.04
617.404	381.09
617.749	452.59
618.094	363.22
618.439	383.65
618.784	421.95
619.129	411.73
619.473	375.98
619.818	378.54
620.163	383.65
620.507	411.73
620.852	411.73
621.196	388.75
621.54	386.2
621.885	404.07
622.229	386.2
622.573	396.41
622.918	381.09
623.262	393.86
623.606	368.32
623.95	337.68
624.294	414.29
624.638	370.88
624.982	393.86
625.326	396.41
625.67	345.34
626.013	404.07
626.357	330.02
626.701	414.29
627.044	368.32
627.388	419.39
627.731	363.22
628.075	457.69
628.418	388.75
628.762	386.2
629.105	416.84
629.448	393.86
629.792	353
630.135	381.09
630.478	383.65
630.821	358.11
631.164	383.65
631.507	327.47
631.85	381.09
632.193	398.97
632.536	406.63
632.879	347.9
633.221	427.05
633.564	391.31
633.907	375.98
634.249	378.54
634.592	406.63
634.935	419.39
635.277	360.66
635.619	414.29
635.962	452.59
636.304	429.61
636.646	411.73
636.989	335.13
637.331	368.32
637.673	447.48
638.015	391.31
638.357	457.69
638.699	414.29
639.041	396.41
639.383	378.54
639.725	335.13
640.067	342.79
640.408	398.97
640.75	404.07
641.092	324.92
641.433	332.58
641.775	434.71
642.116	457.69
642.458	455.14
642.799	409.18
643.141	409.18
643.482	368.32
643.823	347.9
644.164	383.65
644.506	437.27
644.847	381.09
645.188	386.2
645.529	457.69
645.87	414.29
646.211	358.11
646.552	427.05
646.893	393.86
647.233	358.11
647.574	398.97
647.915	401.52
648.255	358.11
648.596	347.9
648.937	345.34
649.277	370.88
649.618	340.24
649.958	411.73
650.298	396.41
650.639	455.14
650.979	375.98
651.319	381.09
651.659	355.56
651.999	363.22
652.339	388.75
652.679	378.54
653.019	401.52
653.359	404.07
653.699	332.58
654.039	350.45
654.379	381.09
654.719	360.66
655.058	393.86
655.398	342.79
655.737	483.23
656.077	360.66
656.416	365.77
656.756	398.97
657.095	378.54
657.435	427.05
657.774	375.98
658.113	363.22
658.452	355.56
658.792	406.63
659.131	388.75
659.47	378.54
659.809	398.97
660.148	414.29
660.487	383.65
660.826	365.77
661.164	355.56
661.503	350.45
661.842	434.71
662.181	383.65
662.519	455.14
662.858	434.71
663.196	370.88
663.535	383.65
663.873	347.9
664.212	409.18
664.55	368.32
664.888	401.52
665.226	495.99
665.565	345.34
665.903	503.65
666.241	432.16
666.579	437.27
666.917	404.07
667.255	363.22
667.593	375.98
667.931	345.34
668.268	363.22
668.606	368.32
668.944	434.71
669.282	358.11
669.619	368.32
669.957	363.22
670.294	319.81
670.632	455.14
670.969	452.59
671.307	365.77
671.644	368.32
671.981	406.63
672.318	327.47
672.656	324.92
672.993	404.07
673.33	421.95
673.667	322.36
674.004	381.09
674.341	424.5
674.678	312.15
675.015	370.88
675.351	419.39
675.688	411.73
676.025	465.35
676.362	388.75
676.698	406.63
677.035	360.66
677.371	350.45
677.708	286.62
678.044	365.77
678.38	393.86
678.717	345.34
679.053	427.05
679.389	396.41
679.725	322.36
680.062	475.57
680.398	419.39
680.734	429.61
681.07	378.54
681.406	383.65
681.742	373.43
682.077	350.45
682.413	319.81
682.749	427.05
683.085	322.36
683.42	363.22
683.756	442.37
684.091	437.27
684.427	363.22
684.762	388.75
685.098	373.43
685.433	447.48
685.768	383.65
686.104	404.07
686.439	411.73
686.774	368.32
687.109	378.54
687.444	378.54
687.779	424.5
688.114	396.41
688.449	386.2
688.784	427.05
689.119	427.05
689.454	460.25
689.789	393.86
690.123	388.75
690.458	342.79
690.792	312.15
691.127	355.56
691.461	398.97
691.796	442.37
692.13	470.46
692.465	409.18
692.799	378.54
693.133	386.2
693.467	391.31
693.802	375.98
694.136	437.27
694.47	416.84
694.804	347.9
695.138	375.98
695.472	363.22
695.806	383.65
696.139	398.97
696.473	340.24
696.807	444.93
697.141	378.54
697.474	383.65
697.808	365.77
698.141	421.95
698.475	393.86
698.808	416.84
699.142	383.65
699.475	404.07
699.808	411.73
700.142	378.54
700.475	434.71
700.808	368.32
701.141	393.86
701.474	391.31
701.807	365.77
702.14	404.07
702.473	350.45
702.806	378.54
703.139	355.56
703.472	373.43
703.804	342.79
704.137	350.45
704.47	401.52
704.802	353
705.135	409.18
705.467	460.25
705.8	370.88
706.132	350.45
706.464	342.79
706.797	381.09
707.129	345.34
707.461	375.98
707.793	360.66
708.125	368.32
708.457	375.98
708.789	301.94
709.121	424.5
709.453	381.09
709.785	391.31
710.117	393.86
710.449	378.54
710.781	424.5
711.112	427.05
711.444	396.41
711.775	404.07
712.107	360.66
712.438	358.11
712.77	347.9
713.101	434.71
713.433	419.39
713.764	416.84
714.095	330.02
714.426	304.49
714.757	358.11
715.089	350.45
715.42	434.71
715.751	391.31
716.082	404.07
716.412	406.63
716.743	375.98
717.074	373.43
717.405	340.24
717.736	368.32
718.066	393.86
718.397	368.32
718.727	404.07
719.058	319.81
719.388	365.77
719.719	475.57
720.049	375.98
720.38	393.86
720.71	370.88
721.04	383.65
721.37	424.5
721.7	414.29
722.031	393.86
722.361	401.52
722.691	429.61
723.021	388.75
723.35	373.43
723.68	347.9
724.01	437.27
724.34	421.95
724.67	335.13
724.999	393.86
725.329	370.88
725.658	419.39
725.988	396.41
726.317	393.86
726.647	353
726.976	401.52
727.306	386.2
727.635	388.75
727.964	393.86
728.293	388.75
728.622	381.09
728.952	322.36
729.281	391.31
729.61	322.36
729.939	386.2
730.267	355.56
730.596	393.86
730.925	401.52
731.254	373.43
731.583	373.43
731.911	444.93
732.24	347.9
732.568	360.66
732.897	363.22
733.225	296.83
733.554	404.07
733.882	345.34
734.21	396.41
734.539	337.68
734.867	375.98
735.195	322.36
735.523	434.71
735.851	368.32
736.179	299.38
736.507	347.9
736.835	353
737.163	337.68
737.491	406.63
737.819	381.09
738.147	396.41
738.474	388.75
738.802	401.52
739.13	434.71
739.457	427.05
739.785	393.86
740.112	401.52
740.44	452.59
740.767	414.29
741.094	398.97
741.422	363.22
741.749	437.27
742.076	391.31
742.403	429.61
742.73	406.63
743.057	363.22
743.384	301.94
743.711	396.41
744.038	365.77
744.365	419.39
744.692	373.43
745.018	383.65
745.345	363.22
745.672	455.14
745.998	442.37
746.325	368.32
746.651	363.22
746.978	322.36
747.304	393.86
747.631	386.2
747.957	360.66
748.283	450.03
748.61	404.07
748.936	398.97
749.262	388.75
749.588	365.77
749.914	411.73
750.24	455.14
750.566	406.63
750.892	401.52
751.218	358.11
751.543	396.41
751.869	429.61
752.195	337.68
752.521	345.34
752.846	452.59
753.172	353
753.497	355.56
753.823	309.6
754.148	363.22
754.473	386.2
754.799	460.25
755.124	363.22
755.449	345.34
755.774	388.75
756.1	368.32
756.425	360.66
756.75	409.18
757.075	398.97
757.4	539.4
757.724	381.09
758.049	370.88
758.374	467.91
758.699	370.88
759.024	450.03
759.348	411.73
759.673	350.45
759.997	368.32
760.322	416.84
760.646	401.52
760.971	319.81
761.295	401.52
761.619	411.73
761.944	398.97
762.268	483.23
762.592	452.59
762.916	452.59
763.24	529.19
763.564	559.83
763.888	524.08
764.212	605.79
764.536	539.4
764.86	490.89
765.184	470.46
765.508	513.87
765.831	616
766.155	930.07
766.478	784.53
766.802	891.77
767.126	1004.12
767.449	1284.99
767.772	1473.94
768.096	1542.88
768.419	1468.83
768.742	1443.3
769.066	1277.33
769.389	1147.11
769.712	1034.76
770.035	807.51
770.358	753.88
770.681	835.59
771.004	1034.76
771.327	1233.92
771.65	1637.35
771.972	2206.76
772.295	2492.74
772.618	2684.24
772.941	2891.06
773.263	2893.62
773.586	2765.95
773.908	2689.35
774.231	2533.59
774.553	2107.18
774.875	1790.56
775.198	1379.46
775.52	1228.81
775.842	1310.52
776.164	1535.22
776.487	2091.85
776.809	2617.85
777.131	3189.81
777.453	3593.24
777.775	3960.93
778.096	4566.08
778.418	4537.99
778.74	4032.42
779.062	3606.01
779.384	3192.36
779.705	2898.72
780.027	2628.06
780.348	2022.91
780.67	1657.78
780.991	1593.95
781.313	1859.5
781.634	2520.82
781.955	3271.52
782.277	4333.72
782.598	5722.76
782.919	6376.42
783.24	6833.48
783.561	7096.48
783.882	7275.21
784.203	6958.59
784.524	5937.24
784.845	4798.44
785.166	3442.59
785.487	2663.81
785.807	2025.47
786.128	1637.35
786.449	1486.7
786.769	1770.13
787.09	2502.95
787.41	3787.3
787.731	5503.17
788.051	7129.67
788.372	8276.14
788.692	10201.38
789.012	11133.37
789.332	11164.01
789.653	11018.46
789.973	10073.71
790.293	7824.19
790.613	5768.72
790.933	4149.88
791.253	2972.77
791.573	1999.93
791.893	1519.9
792.212	1583.73
792.532	1846.73
792.852	2694.45
793.171	3697.93
793.491	4596.72
793.811	5406.14
794.13	6200.24
794.45	6751.77
794.769	6728.79
795.088	7234.36
795.408	6493.88
795.727	6049.59
796.046	4895.46
796.365	3851.13
796.684	2873.19
797.004	2033.13
797.323	1596.5
797.642	1310.52
797.96	1361.59
798.279	1984.61
798.598	2617.85
798.917	3623.88
799.236	4486.92
799.554	5069.09
799.873	5610.41
800.192	6693.04
800.51	7247.13
