Data from 2025-12-03_xpw_interference_micrometer_634_FLMS141361__89__139.txt Node

Date: Wed Dec 03 15:48:45 MST 2025
User: james
Spectrometer: FLMS14136
Trigger mode: 0
Integration Time (sec): 1.000000E-1
Scans to average: 1
Electric dark correction enabled: true
Nonlinearity correction enabled: false
Boxcar width: 0
XAxis mode: Wavelengths
Number of Pixels in Spectrum: 2048
>>>>>Begin Spectral Data<<<<<
339.315	-105.65
339.697	-105.65
340.079	-105.65
340.461	-151.61
340.843	-64.79
341.225	-87.77
341.607	-143.95
341.989	-103.09
342.371	-100.54
342.752	-62.24
343.134	-29.04
343.516	-36.7
343.897	9.26
344.279	-54.58
344.661	45
345.042	47.56
345.423	32.24
345.805	111.39
346.186	65.43
346.567	124.16
346.949	182.89
347.33	195.65
347.711	198.21
348.092	154.8
348.473	175.23
348.854	218.63
349.235	262.04
349.616	256.93
349.997	246.72
350.378	313.11
350.758	333.54
351.139	295.23
351.52	308
351.9	313.11
352.281	336.09
352.661	361.62
353.042	387.16
353.422	353.96
353.803	351.41
354.183	330.98
354.563	348.86
354.943	366.73
355.324	407.58
355.704	323.32
356.084	384.6
356.464	369.28
356.844	366.73
357.224	397.37
357.603	392.26
357.983	428.01
358.363	425.46
358.743	397.37
359.122	361.62
359.502	328.43
359.882	371.84
360.261	356.52
360.641	366.73
361.02	384.6
361.399	292.68
361.779	405.03
362.158	376.94
362.537	310.55
362.916	310.55
363.296	351.41
363.675	300.34
364.054	392.26
364.433	394.82
364.812	318.21
365.19	251.83
365.569	343.75
365.948	302.89
366.327	356.52
366.705	313.11
367.084	361.62
367.463	320.77
367.841	341.2
368.22	371.84
368.598	382.05
368.977	328.43
369.355	318.21
369.733	313.11
370.111	292.68
370.49	323.32
370.868	348.86
371.246	338.64
371.624	310.55
372.002	325.87
372.38	315.66
372.758	308
373.136	374.39
373.513	359.07
373.891	428.01
374.269	351.41
374.646	364.18
375.024	397.37
375.402	318.21
375.779	371.84
376.157	348.86
376.534	315.66
376.911	407.58
377.289	313.11
377.666	353.96
378.043	410.14
378.42	433.12
378.797	392.26
379.175	371.84
379.552	330.98
379.929	308
380.305	328.43
380.682	399.92
381.059	374.39
381.436	445.88
381.813	369.28
382.189	348.86
382.566	318.21
382.943	371.84
383.319	428.01
383.696	374.39
384.072	359.07
384.448	348.86
384.825	308
385.201	320.77
385.577	330.98
385.953	323.32
386.329	318.21
386.706	410.14
387.082	369.28
387.458	343.75
387.834	336.09
388.209	343.75
388.585	333.54
388.961	343.75
389.337	402.48
389.713	392.26
390.088	336.09
390.464	361.62
390.839	361.62
391.215	282.47
391.59	399.92
391.966	433.12
392.341	384.6
392.716	420.35
393.092	371.84
393.467	394.82
393.842	353.96
394.217	422.9
394.592	364.18
394.967	384.6
395.342	443.33
395.717	382.05
396.092	369.28
396.467	453.54
396.841	366.73
397.216	313.11
397.591	379.5
397.965	410.14
398.34	384.6
398.714	387.16
399.089	315.66
399.463	394.82
399.838	323.32
400.212	325.87
400.586	356.52
400.961	376.94
401.335	325.87
401.709	356.52
402.083	412.69
402.457	346.3
402.831	325.87
403.205	376.94
403.579	397.37
403.953	348.86
404.326	371.84
404.7	366.73
405.074	330.98
405.447	341.2
405.821	333.54
406.195	359.07
406.568	417.8
406.942	379.5
407.315	410.14
407.688	356.52
408.062	343.75
408.435	346.3
408.808	343.75
409.181	353.96
409.554	387.16
409.927	397.37
410.3	402.48
410.673	346.3
411.046	366.73
411.419	341.2
411.792	336.09
412.165	410.14
412.537	422.9
412.91	407.58
413.283	435.67
413.655	366.73
414.028	353.96
414.4	292.68
414.773	433.12
415.145	330.98
415.517	305.45
415.889	356.52
416.262	371.84
416.634	338.64
417.006	364.18
417.378	376.94
417.75	346.3
418.122	282.47
418.494	348.86
418.866	387.16
419.238	428.01
419.609	387.16
419.981	417.8
420.353	410.14
420.725	387.16
421.096	356.52
421.468	392.26
421.839	422.9
422.211	323.32
422.582	356.52
422.953	300.34
423.325	389.71
423.696	343.75
424.067	341.2
424.438	325.87
424.809	308
425.18	343.75
425.551	382.05
425.922	410.14
426.293	315.66
426.664	328.43
427.035	407.58
427.406	364.18
427.776	389.71
428.147	346.3
428.518	379.5
428.888	407.58
429.259	428.01
429.629	394.82
429.999	453.54
430.37	353.96
430.74	351.41
431.11	376.94
431.481	351.41
431.851	384.6
432.221	428.01
432.591	450.99
432.961	371.84
433.331	359.07
433.701	371.84
434.071	366.73
434.441	405.03
434.81	364.18
435.18	410.14
435.55	405.03
435.919	438.22
436.289	376.94
436.658	351.41
437.028	379.5
437.397	346.3
437.767	361.62
438.136	392.26
438.505	405.03
438.875	471.42
439.244	443.33
439.613	399.92
439.982	369.28
440.351	387.16
440.72	384.6
441.089	430.56
441.458	430.56
441.827	374.39
442.196	392.26
442.564	484.18
442.933	399.92
443.302	389.71
443.67	407.58
444.039	364.18
444.407	348.86
444.776	287.57
445.144	297.79
445.513	376.94
445.881	438.22
446.249	384.6
446.617	435.67
446.986	394.82
447.354	376.94
447.722	382.05
448.09	397.37
448.458	422.9
448.826	402.48
449.194	346.3
449.561	379.5
449.929	325.87
450.297	415.24
450.665	374.39
451.032	463.76
451.4	394.82
451.767	422.9
452.135	422.9
452.502	376.94
452.87	318.21
453.237	382.05
453.604	399.92
453.971	430.56
454.339	433.12
454.706	364.18
455.073	445.88
455.44	405.03
455.807	399.92
456.174	313.11
456.541	392.26
456.908	428.01
457.274	397.37
457.641	364.18
458.008	412.69
458.374	415.24
458.741	412.69
459.108	341.2
459.474	356.52
459.841	369.28
460.207	366.73
460.573	353.96
460.94	394.82
461.306	356.52
461.672	450.99
462.038	458.65
462.404	356.52
462.771	402.48
463.137	330.98
463.503	379.5
463.868	402.48
464.234	376.94
464.6	359.07
464.966	389.71
465.332	343.75
465.697	440.78
466.063	371.84
466.429	364.18
466.794	359.07
467.16	438.22
467.525	445.88
467.89	394.82
468.256	361.62
468.621	456.1
468.986	392.26
469.351	356.52
469.717	351.41
470.082	384.6
470.447	376.94
470.812	445.88
471.177	433.12
471.542	430.56
471.906	397.37
472.271	412.69
472.636	397.37
473.001	384.6
473.365	415.24
473.73	407.58
474.094	415.24
474.459	428.01
474.823	366.73
475.188	463.76
475.552	397.37
475.917	463.76
476.281	371.84
476.645	438.22
477.009	389.71
477.373	341.2
477.737	420.35
478.101	430.56
478.465	458.65
478.829	450.99
479.193	410.14
479.557	369.28
479.921	405.03
480.284	366.73
480.648	369.28
481.012	415.24
481.375	430.56
481.739	438.22
482.102	438.22
482.466	425.46
482.829	458.65
483.193	348.86
483.556	366.73
483.919	484.18
484.282	407.58
484.645	356.52
485.009	486.74
485.372	407.58
485.735	369.28
486.098	366.73
486.46	473.97
486.823	366.73
487.186	407.58
487.549	379.5
487.912	443.33
488.274	420.35
488.637	438.22
488.999	458.65
489.362	471.42
489.724	430.56
490.087	384.6
490.449	382.05
490.811	376.94
491.174	430.56
491.536	353.96
491.898	361.62
492.26	389.71
492.622	366.73
492.984	359.07
493.346	407.58
493.708	450.99
494.07	343.75
494.432	341.2
494.794	389.71
495.155	387.16
495.517	394.82
495.879	433.12
496.24	379.5
496.602	450.99
496.963	382.05
497.325	376.94
497.686	379.5
498.048	425.46
498.409	435.67
498.77	430.56
499.131	453.54
499.492	450.99
499.854	412.69
500.215	428.01
500.576	405.03
500.937	405.03
501.298	450.99
501.658	348.86
502.019	422.9
502.38	473.97
502.741	438.22
503.101	394.82
503.462	491.84
503.823	425.46
504.183	450.99
504.543	433.12
504.904	417.8
505.264	440.78
505.625	417.8
505.985	379.5
506.345	374.39
506.705	407.58
507.065	359.07
507.426	351.41
507.786	323.32
508.146	371.84
508.505	392.26
508.865	430.56
509.225	481.63
509.585	586.32
509.945	420.35
510.304	415.24
510.664	389.71
511.024	410.14
511.383	425.46
511.743	384.6
512.102	361.62
512.462	405.03
512.821	364.18
513.18	336.09
513.539	453.54
513.899	471.42
514.258	382.05
514.617	479.08
514.976	397.37
515.335	389.71
515.694	384.6
516.053	415.24
516.412	397.37
516.771	402.48
517.129	343.75
517.488	407.58
517.847	438.22
518.205	422.9
518.564	425.46
518.922	376.94
519.281	366.73
519.639	412.69
519.998	374.39
520.356	448.44
520.714	458.65
521.073	433.12
521.431	399.92
521.789	412.69
522.147	382.05
522.505	443.33
522.863	430.56
523.221	353.96
523.579	425.46
523.937	394.82
524.295	348.86
524.652	399.92
525.01	315.66
525.368	356.52
525.725	371.84
526.083	369.28
526.44	353.96
526.798	325.87
527.155	341.2
527.513	348.86
527.87	405.03
528.227	387.16
528.584	392.26
528.942	359.07
529.299	430.56
529.656	443.33
530.013	407.58
530.37	405.03
530.727	374.39
531.083	359.07
531.44	399.92
531.797	392.26
532.154	382.05
532.511	382.05
532.867	384.6
533.224	379.5
533.58	415.24
533.937	481.63
534.293	374.39
534.65	392.26
535.006	496.95
535.362	361.62
535.718	394.82
536.075	422.9
536.431	405.03
536.787	433.12
537.143	399.92
537.499	376.94
537.855	440.78
538.211	443.33
538.567	430.56
538.923	410.14
539.278	412.69
539.634	359.07
539.99	364.18
540.345	415.24
540.701	399.92
541.056	333.54
541.412	318.21
541.767	382.05
542.123	422.9
542.478	399.92
542.833	382.05
543.188	440.78
543.544	450.99
543.899	450.99
544.254	410.14
544.609	369.28
544.964	445.88
545.319	364.18
545.674	394.82
546.029	405.03
546.383	410.14
546.738	387.16
547.093	407.58
547.447	336.09
547.802	382.05
548.157	420.35
548.511	366.73
548.866	417.8
549.22	382.05
549.574	425.46
549.929	471.42
550.283	356.52
550.637	407.58
550.991	445.88
551.345	407.58
551.699	353.96
552.053	376.94
552.407	305.45
552.761	341.2
553.115	341.2
553.469	382.05
553.823	407.58
554.176	422.9
554.53	384.6
554.884	384.6
555.237	604.19
555.591	473.97
555.944	512.27
556.298	428.01
556.651	422.9
557.005	394.82
557.358	394.82
557.711	338.64
558.064	422.9
558.417	415.24
558.771	504.61
559.124	458.65
559.477	364.18
559.83	476.52
560.182	315.66
560.535	471.42
560.888	443.33
561.241	392.26
561.594	402.48
561.946	448.44
562.299	348.86
562.651	425.46
563.004	394.82
563.356	389.71
563.709	382.05
564.061	389.71
564.413	356.52
564.766	443.33
565.118	415.24
565.47	394.82
565.822	379.5
566.174	417.8
566.526	405.03
566.878	473.97
567.23	417.8
567.582	461.2
567.934	356.52
568.286	361.62
568.638	430.56
568.989	361.62
569.341	466.31
569.693	392.26
570.044	364.18
570.396	410.14
570.747	384.6
571.098	366.73
571.45	410.14
571.801	361.62
572.152	389.71
572.504	387.16
572.855	382.05
573.206	374.39
573.557	343.75
573.908	313.11
574.259	387.16
574.61	405.03
574.961	397.37
575.311	422.9
575.662	371.84
576.013	341.2
576.364	417.8
576.714	453.54
577.065	430.56
577.415	394.82
577.766	369.28
578.116	371.84
578.467	369.28
578.817	435.67
579.167	448.44
579.518	450.99
579.868	461.2
580.218	389.71
580.568	428.01
580.918	300.34
581.268	374.39
581.618	389.71
581.968	425.46
582.318	346.3
582.668	394.82
583.017	412.69
583.367	379.5
583.717	453.54
584.066	392.26
584.416	387.16
584.765	445.88
585.115	415.24
585.464	405.03
585.814	425.46
586.163	392.26
586.512	382.05
586.862	443.33
587.211	397.37
587.56	392.26
587.909	440.78
588.258	410.14
588.607	415.24
588.956	433.12
589.305	399.92
589.654	379.5
590.002	343.75
590.351	463.76
590.7	328.43
591.048	359.07
591.397	450.99
591.746	428.01
592.094	369.28
592.443	328.43
592.791	348.86
593.139	353.96
593.488	356.52
593.836	348.86
594.184	430.56
594.532	461.2
594.88	422.9
595.228	397.37
595.576	415.24
595.924	399.92
596.272	410.14
596.62	405.03
596.968	417.8
597.316	371.84
597.664	410.14
598.011	374.39
598.359	468.86
598.706	412.69
599.054	394.82
599.402	379.5
599.749	376.94
600.096	397.37
600.444	410.14
600.791	392.26
601.138	379.5
601.485	387.16
601.833	422.9
602.18	379.5
602.527	425.46
602.874	379.5
603.221	422.9
603.568	405.03
603.914	420.35
604.261	438.22
604.608	410.14
604.955	456.1
605.301	433.12
605.648	425.46
605.995	453.54
606.341	456.1
606.688	387.16
607.034	267.15
607.38	300.34
607.727	343.75
608.073	407.58
608.419	453.54
608.765	450.99
609.112	410.14
609.458	458.65
609.804	407.58
610.15	405.03
610.496	415.24
610.842	425.46
611.187	336.09
611.533	376.94
611.879	371.84
612.225	351.41
612.57	320.77
612.916	422.9
613.261	382.05
613.607	359.07
613.952	420.35
614.298	384.6
614.643	364.18
614.989	440.78
615.334	415.24
615.679	379.5
616.024	387.16
616.369	351.41
616.714	379.5
617.059	443.33
617.404	379.5
617.749	351.41
618.094	405.03
618.439	394.82
618.784	364.18
619.129	394.82
619.473	389.71
619.818	310.55
620.163	351.41
620.507	407.58
620.852	438.22
621.196	384.6
621.54	415.24
621.885	399.92
622.229	371.84
622.573	336.09
622.918	387.16
623.262	453.54
623.606	399.92
623.95	450.99
624.294	376.94
624.638	392.26
624.982	405.03
625.326	435.67
625.67	369.28
626.013	351.41
626.357	389.71
626.701	315.66
627.044	402.48
627.388	389.71
627.731	379.5
628.075	389.71
628.418	463.76
628.762	420.35
629.105	384.6
629.448	369.28
629.792	359.07
630.135	405.03
630.478	450.99
630.821	376.94
631.164	440.78
631.507	461.2
631.85	402.48
632.193	343.75
632.536	412.69
632.879	353.96
633.221	394.82
633.564	430.56
633.907	412.69
634.249	450.99
634.592	376.94
634.935	366.73
635.277	471.42
635.619	333.54
635.962	364.18
636.304	397.37
636.646	412.69
636.989	364.18
637.331	407.58
637.673	325.87
638.015	407.58
638.357	379.5
638.699	422.9
639.041	366.73
639.383	443.33
639.725	392.26
640.067	364.18
640.408	338.64
640.75	448.44
641.092	384.6
641.433	369.28
641.775	351.41
642.116	461.2
642.458	402.48
642.799	366.73
643.141	374.39
643.482	353.96
643.823	379.5
644.164	399.92
644.506	540.36
644.847	468.86
645.188	422.9
645.529	333.54
645.87	348.86
646.211	402.48
646.552	438.22
646.893	415.24
647.233	407.58
647.574	384.6
647.915	343.75
648.255	371.84
648.596	448.44
648.937	417.8
649.277	392.26
649.618	422.9
649.958	405.03
650.298	382.05
650.639	361.62
650.979	369.28
651.319	430.56
651.659	371.84
651.999	445.88
652.339	420.35
652.679	364.18
653.019	415.24
653.359	369.28
653.699	397.37
654.039	343.75
654.379	392.26
654.719	351.41
655.058	313.11
655.398	376.94
655.737	392.26
656.077	384.6
656.416	343.75
656.756	356.52
657.095	392.26
657.435	425.46
657.774	376.94
658.113	428.01
658.452	341.2
658.792	435.67
659.131	387.16
659.47	361.62
659.809	376.94
660.148	410.14
660.487	407.58
660.826	356.52
661.164	384.6
661.503	376.94
661.842	384.6
662.181	351.41
662.519	387.16
662.858	463.76
663.196	458.65
663.535	448.44
663.873	435.67
664.212	443.33
664.55	450.99
664.888	387.16
665.226	407.58
665.565	422.9
665.903	583.77
666.241	415.24
666.579	417.8
666.917	428.01
667.255	384.6
667.593	450.99
667.931	433.12
668.268	366.73
668.606	402.48
668.944	376.94
669.282	405.03
669.619	389.71
669.957	376.94
670.294	359.07
670.632	341.2
670.969	325.87
671.307	369.28
671.644	351.41
671.981	430.56
672.318	415.24
672.656	320.77
672.993	364.18
673.33	450.99
673.667	405.03
674.004	341.2
674.341	389.71
674.678	387.16
675.015	379.5
675.351	443.33
675.688	405.03
676.025	353.96
676.362	330.98
676.698	435.67
677.035	425.46
677.371	428.01
677.708	371.84
678.044	384.6
678.38	387.16
678.717	376.94
679.053	417.8
679.389	410.14
679.725	412.69
680.062	417.8
680.398	320.77
680.734	422.9
681.07	420.35
681.406	410.14
681.742	397.37
682.077	425.46
682.413	384.6
682.749	394.82
683.085	435.67
683.42	422.9
683.756	376.94
684.091	438.22
684.427	387.16
684.762	402.48
685.098	420.35
685.433	407.58
685.768	428.01
686.104	402.48
686.439	343.75
686.774	450.99
687.109	402.48
687.444	376.94
687.779	394.82
688.114	397.37
688.449	440.78
688.784	384.6
689.119	371.84
689.454	443.33
689.789	371.84
690.123	394.82
690.458	458.65
690.792	420.35
691.127	405.03
691.461	333.54
691.796	382.05
692.13	412.69
692.465	379.5
692.799	407.58
693.133	351.41
693.467	343.75
693.802	374.39
694.136	399.92
694.47	366.73
694.804	353.96
695.138	392.26
695.472	382.05
695.806	348.86
696.139	346.3
696.473	402.48
696.807	374.39
697.141	369.28
697.474	359.07
697.808	412.69
698.141	405.03
698.475	305.45
698.808	405.03
699.142	425.46
699.475	369.28
699.808	392.26
700.142	392.26
700.475	356.52
700.808	453.54
701.141	394.82
701.474	374.39
701.807	435.67
702.14	376.94
702.473	415.24
702.806	330.98
703.139	341.2
703.472	463.76
703.804	407.58
704.137	412.69
704.47	389.71
704.802	374.39
705.135	420.35
705.467	422.9
705.8	399.92
706.132	440.78
706.464	325.87
706.797	328.43
707.129	420.35
707.461	430.56
707.793	328.43
708.125	397.37
708.457	450.99
708.789	384.6
709.121	430.56
709.453	405.03
709.785	428.01
710.117	389.71
710.449	392.26
710.781	348.86
711.112	361.62
711.444	397.37
711.775	384.6
712.107	456.1
712.438	333.54
712.77	374.39
713.101	341.2
713.433	428.01
713.764	412.69
714.095	336.09
714.426	397.37
714.757	359.07
715.089	336.09
715.42	359.07
715.751	448.44
716.082	422.9
716.412	420.35
716.743	382.05
717.074	302.89
717.405	397.37
717.736	389.71
718.066	389.71
718.397	394.82
718.727	361.62
719.058	361.62
719.388	410.14
719.719	445.88
720.049	448.44
720.38	450.99
720.71	394.82
721.04	481.63
721.37	341.2
721.7	325.87
722.031	374.39
722.361	346.3
722.691	338.64
723.021	410.14
723.35	433.12
723.68	387.16
724.01	443.33
724.34	379.5
724.67	389.71
724.999	405.03
725.329	463.76
725.658	374.39
725.988	313.11
726.317	353.96
726.647	412.69
726.976	359.07
727.306	412.69
727.635	366.73
727.964	356.52
728.293	399.92
728.622	384.6
728.952	364.18
729.281	402.48
729.61	453.54
729.939	389.71
730.267	453.54
730.596	422.9
730.925	328.43
731.254	394.82
731.583	435.67
731.911	379.5
732.24	369.28
732.568	333.54
732.897	371.84
733.225	346.3
733.554	359.07
733.882	369.28
734.21	361.62
734.539	399.92
734.867	320.77
735.195	471.42
735.523	353.96
735.851	415.24
736.179	374.39
736.507	374.39
736.835	369.28
737.163	361.62
737.491	346.3
737.819	376.94
738.147	376.94
738.474	440.78
738.802	399.92
739.13	417.8
739.457	351.41
739.785	325.87
740.112	445.88
740.44	410.14
740.767	361.62
741.094	364.18
741.422	422.9
741.749	366.73
742.076	425.46
742.403	343.75
742.73	402.48
743.057	410.14
743.384	371.84
743.711	387.16
744.038	382.05
744.365	389.71
744.692	405.03
745.018	410.14
745.345	371.84
745.672	471.42
745.998	369.28
746.325	407.58
746.651	353.96
746.978	430.56
747.304	394.82
747.631	405.03
747.957	433.12
748.283	387.16
748.61	343.75
748.936	320.77
749.262	336.09
749.588	450.99
749.914	392.26
750.24	382.05
750.566	420.35
750.892	341.2
751.218	384.6
751.543	405.03
751.869	394.82
752.195	435.67
752.521	425.46
752.846	422.9
753.172	479.08
753.497	371.84
753.823	382.05
754.148	376.94
754.473	364.18
754.799	376.94
755.124	384.6
755.449	415.24
755.774	468.86
756.1	458.65
756.425	376.94
756.75	453.54
757.075	417.8
757.4	606.75
757.724	428.01
758.049	387.16
758.374	348.86
758.699	371.84
759.024	440.78
759.348	417.8
759.673	376.94
759.997	440.78
760.322	415.24
760.646	369.28
760.971	387.16
761.295	407.58
761.619	440.78
761.944	463.76
762.268	456.1
762.592	509.72
762.916	479.08
763.24	568.45
763.564	568.45
763.888	647.6
764.212	560.79
764.536	514.82
764.86	494.4
765.184	458.65
765.508	568.45
765.831	586.32
766.155	931.03
766.478	910.6
766.802	943.79
767.126	1122.53
767.449	1365.1
767.772	1472.34
768.096	1584.69
768.419	1416.17
768.742	1367.65
769.066	1260.41
769.389	1119.98
769.712	1012.73
770.035	780.38
770.358	754.84
770.681	885.06
771.004	1168.49
771.327	1375.31
771.65	1778.75
771.972	2246.02
772.295	2695.41
772.618	2820.53
772.941	3073.31
773.263	2932.87
773.586	2812.87
773.908	2644.34
774.231	2320.06
774.553	1954.93
774.875	1620.44
775.198	1329.35
775.52	1153.17
775.842	1329.35
776.164	1794.07
776.487	2450.29
776.809	2953.3
777.131	3594.2
777.453	4051.25
777.775	4344.89
778.096	4625.76
778.418	4541.5
778.74	3834.22
779.062	3395.04
779.384	3040.12
779.705	2644.34
780.027	2276.66
780.348	1799.17
780.67	1477.45
780.991	1674.06
781.313	2092.81
781.634	2909.89
781.955	3836.77
782.277	4758.54
782.598	6152.68
782.919	6734.85
783.24	7357.88
783.561	7383.41
783.882	7128.07
784.203	6625.06
784.524	5603.71
784.845	4245.31
785.166	3267.37
785.487	2378.79
785.807	1776.19
786.128	1515.75
786.449	1500.43
786.769	2057.07
787.09	3057.99
787.41	4447.03
787.731	6328.87
788.051	7914.51
788.372	8958.85
788.692	10669.61
789.012	11466.26
789.332	11131.77
789.653	10370.86
789.973	9224.4
790.293	7255.74
790.613	5090.48
790.933	3660.59
791.253	2554.97
791.573	1865.56
791.893	1548.94
792.212	1753.21
792.532	2090.26
792.852	3101.4
793.171	4324.46
793.491	5279.43
793.811	6173.11
794.13	6831.88
794.45	7010.62
794.769	6681.23
795.088	6755.28
795.408	6114.38
795.727	5555.19
796.046	4470.01
796.365	3443.55
796.684	2442.63
797.004	1689.38
797.323	1413.61
797.642	1347.23
797.96	1712.36
798.279	2284.32
798.598	3280.13
798.917	4321.91
799.236	5080.26
799.554	5647.11
799.873	6055.66
800.192	6926.36
800.51	7554.49
800.829	7202.12
