Data from 2025-12-03_xpw_interference_micrometer_634_FLMS141361__85__135.txt Node

Date: Wed Dec 03 15:48:45 MST 2025
User: james
Spectrometer: FLMS14136
Trigger mode: 0
Integration Time (sec): 1.000000E-1
Scans to average: 1
Electric dark correction enabled: true
Nonlinearity correction enabled: false
Boxcar width: 0
XAxis mode: Wavelengths
Number of Pixels in Spectrum: 2048
>>>>>Begin Spectral Data<<<<<
339.315	-11.97
339.697	-11.97
340.079	-11.97
340.461	-65.59
340.843	-52.82
341.225	3.35
341.607	-83.46
341.989	-137.08
342.371	-47.72
342.752	-63.04
343.134	-75.8
343.516	-37.5
343.897	-47.72
344.279	-29.84
344.661	8.46
345.042	44.21
345.423	-4.31
345.805	82.51
346.186	138.68
346.567	64.63
346.949	184.64
347.33	222.94
347.711	205.07
348.092	217.84
348.473	205.07
348.854	210.17
349.235	263.8
349.616	281.67
349.997	302.1
350.378	261.24
350.758	274.01
351.139	314.86
351.52	355.72
351.9	355.72
352.281	360.82
352.661	340.4
353.042	340.4
353.422	417
353.803	360.82
354.183	399.12
354.563	368.48
354.943	368.48
355.324	406.79
355.704	424.66
356.084	373.59
356.464	404.23
356.844	429.77
357.224	371.04
357.603	391.46
357.983	330.18
358.363	355.72
358.743	394.02
359.122	332.74
359.502	404.23
359.882	394.02
360.261	427.21
360.641	391.46
361.02	411.89
361.399	319.97
361.779	391.46
362.158	417
362.537	383.8
362.916	378.7
363.296	322.52
363.675	296.99
364.054	309.76
364.433	330.18
364.812	353.16
365.19	360.82
365.569	307.2
365.948	409.34
366.327	394.02
366.705	371.04
367.084	307.2
367.463	348.06
367.841	342.95
368.22	314.86
368.598	322.52
368.977	307.2
369.355	337.84
369.733	401.68
370.111	345.5
370.49	381.25
370.868	368.48
371.246	342.95
371.624	312.31
372.002	401.68
372.38	404.23
372.758	409.34
373.136	360.82
373.513	294.44
373.891	404.23
374.269	350.61
374.646	317.42
375.024	383.8
375.402	345.5
375.779	391.46
376.157	327.63
376.534	327.63
376.911	299.54
377.289	319.97
377.666	327.63
378.043	419.55
378.42	307.2
378.797	322.52
379.175	363.38
379.552	394.02
379.929	368.48
380.305	342.95
380.682	396.57
381.059	350.61
381.436	335.29
381.813	404.23
382.189	381.25
382.566	325.08
382.943	348.06
383.319	355.72
383.696	401.68
384.072	394.02
384.448	371.04
384.825	378.7
385.201	386.36
385.577	414.45
385.953	365.93
386.329	404.23
386.706	302.1
387.082	381.25
387.458	350.61
387.834	330.18
388.209	422.11
388.585	325.08
388.961	342.95
389.337	363.38
389.713	322.52
390.088	363.38
390.464	325.08
390.839	386.36
391.215	483.39
391.59	411.89
391.966	422.11
392.341	381.25
392.716	340.4
393.092	414.45
393.467	373.59
393.842	368.48
394.217	419.55
394.592	363.38
394.967	406.79
395.342	401.68
395.717	429.77
396.092	378.7
396.467	396.57
396.841	452.75
397.216	388.91
397.591	378.7
397.965	424.66
398.34	417
398.714	445.09
399.089	373.59
399.463	368.48
399.838	411.89
400.212	340.4
400.586	294.44
400.961	386.36
401.335	419.55
401.709	399.12
402.083	404.23
402.457	422.11
402.831	376.14
403.205	419.55
403.579	353.16
403.953	401.68
404.326	439.98
404.7	422.11
405.074	353.16
405.447	396.57
405.821	429.77
406.195	378.7
406.568	286.78
406.942	350.61
407.315	396.57
407.688	388.91
408.062	439.98
408.435	348.06
408.808	368.48
409.181	401.68
409.554	383.8
409.927	358.27
410.3	394.02
410.673	383.8
411.046	368.48
411.419	462.96
411.792	399.12
412.165	411.89
412.537	396.57
412.91	429.77
413.283	327.63
413.655	388.91
414.028	363.38
414.4	309.76
414.773	348.06
415.145	394.02
415.517	327.63
415.889	314.86
416.262	363.38
416.634	378.7
417.006	396.57
417.378	404.23
417.75	401.68
418.122	294.44
418.494	399.12
418.866	396.57
419.238	376.14
419.609	378.7
419.981	442.53
420.353	373.59
420.725	381.25
421.096	417
421.468	404.23
421.839	511.47
422.211	442.53
422.582	394.02
422.953	376.14
423.325	355.72
423.696	302.1
424.067	378.7
424.438	345.5
424.809	396.57
425.18	365.93
425.551	345.5
425.922	383.8
426.293	386.36
426.664	401.68
427.035	442.53
427.406	355.72
427.776	376.14
428.147	401.68
428.518	394.02
428.888	383.8
429.259	401.68
429.629	427.21
429.999	404.23
430.37	340.4
430.74	427.21
431.11	450.19
431.481	381.25
431.851	365.93
432.221	399.12
432.591	427.21
432.961	373.59
433.331	409.34
433.701	396.57
434.071	363.38
434.441	365.93
434.81	411.89
435.18	378.7
435.55	376.14
435.919	391.46
436.289	417
436.658	342.95
437.028	353.16
437.397	417
437.767	363.38
438.136	376.14
438.505	427.21
438.875	427.21
439.244	391.46
439.613	345.5
439.982	386.36
440.351	406.79
440.72	381.25
441.089	353.16
441.458	325.08
441.827	386.36
442.196	396.57
442.564	460.41
442.933	401.68
443.302	462.96
443.67	447.64
444.039	386.36
444.407	399.12
444.776	353.16
445.144	409.34
445.513	376.14
445.881	396.57
446.249	434.87
446.617	386.36
446.986	404.23
447.354	452.75
447.722	437.43
448.09	396.57
448.458	452.75
448.826	452.75
449.194	455.3
449.561	417
449.929	401.68
450.297	424.66
450.665	348.06
451.032	411.89
451.4	452.75
451.767	429.77
452.135	462.96
452.502	394.02
452.87	465.51
453.237	450.19
453.604	388.91
453.971	445.09
454.339	411.89
454.706	427.21
455.073	353.16
455.44	470.62
455.807	396.57
456.174	404.23
456.541	406.79
456.908	371.04
457.274	394.02
457.641	473.17
458.008	417
458.374	508.92
458.741	419.55
459.108	396.57
459.474	439.98
459.841	437.43
460.207	488.49
460.573	388.91
460.94	401.68
461.306	414.45
461.672	442.53
462.038	427.21
462.404	434.87
462.771	419.55
463.137	386.36
463.503	383.8
463.868	376.14
464.234	376.14
464.6	368.48
464.966	401.68
465.332	437.43
465.697	442.53
466.063	432.32
466.429	496.15
466.794	424.66
467.16	478.28
467.525	378.7
467.89	378.7
468.256	365.93
468.621	417
468.986	462.96
469.351	455.3
469.717	394.02
470.082	391.46
470.447	457.85
470.812	445.09
471.177	427.21
471.542	406.79
471.906	409.34
472.271	417
472.636	411.89
473.001	401.68
473.365	335.29
473.73	383.8
474.094	468.07
474.459	445.09
474.823	409.34
475.188	381.25
475.552	401.68
475.917	432.32
476.281	355.72
476.645	348.06
477.009	404.23
477.373	394.02
477.737	445.09
478.101	468.07
478.465	434.87
478.829	365.93
479.193	432.32
479.557	376.14
479.921	371.04
480.284	427.21
480.648	401.68
481.012	414.45
481.375	396.57
481.739	419.55
482.102	381.25
482.466	485.94
482.829	483.39
483.193	432.32
483.556	450.19
483.919	414.45
484.282	401.68
484.645	414.45
485.009	388.91
485.372	434.87
485.735	452.75
486.098	424.66
486.46	406.79
486.823	373.59
487.186	411.89
487.549	383.8
487.912	452.75
488.274	442.53
488.637	462.96
488.999	388.91
489.362	396.57
489.724	394.02
490.087	450.19
490.449	424.66
490.811	445.09
491.174	345.5
491.536	401.68
491.898	337.84
492.26	427.21
492.622	360.82
492.984	422.11
493.346	378.7
493.708	358.27
494.07	381.25
494.432	404.23
494.794	378.7
495.155	419.55
495.517	404.23
495.879	450.19
496.24	396.57
496.602	388.91
496.963	424.66
497.325	371.04
497.686	419.55
498.048	478.28
498.409	485.94
498.77	468.07
499.131	388.91
499.492	348.06
499.854	381.25
500.215	365.93
500.576	365.93
500.937	445.09
501.298	419.55
501.658	455.3
502.019	396.57
502.38	432.32
502.741	406.79
503.101	363.38
503.462	345.5
503.823	396.57
504.183	409.34
504.543	493.6
504.904	381.25
505.264	422.11
505.625	427.21
505.985	445.09
506.345	388.91
506.705	439.98
507.065	358.27
507.426	401.68
507.786	381.25
508.146	450.19
508.505	409.34
508.865	439.98
509.225	368.48
509.585	475.73
509.945	424.66
510.304	465.51
510.664	404.23
511.024	434.87
511.383	432.32
511.743	427.21
512.102	452.75
512.462	432.32
512.821	381.25
513.18	414.45
513.539	432.32
513.899	501.26
514.258	404.23
514.617	419.55
514.976	452.75
515.335	424.66
515.694	404.23
516.053	406.79
516.412	404.23
516.771	363.38
517.129	406.79
517.488	452.75
517.847	350.61
518.205	381.25
518.564	376.14
518.922	386.36
519.281	358.27
519.639	445.09
519.998	388.91
520.356	396.57
520.714	473.17
521.073	348.06
521.431	427.21
521.789	424.66
522.147	437.43
522.505	414.45
522.863	383.8
523.221	396.57
523.579	411.89
523.937	432.32
524.295	417
524.652	457.85
525.01	437.43
525.368	388.91
525.725	450.19
526.083	422.11
526.44	432.32
526.798	422.11
527.155	434.87
527.513	434.87
527.87	378.7
528.227	419.55
528.584	429.77
528.942	508.92
529.299	457.85
529.656	470.62
530.013	419.55
530.37	445.09
530.727	427.21
531.083	488.49
531.44	419.55
531.797	450.19
532.154	396.57
532.511	422.11
532.867	371.04
533.224	358.27
533.58	439.98
533.937	442.53
534.293	394.02
534.65	434.87
535.006	348.06
535.362	368.48
535.718	394.02
536.075	432.32
536.431	432.32
536.787	399.12
537.143	429.77
537.499	417
537.855	450.19
538.211	394.02
538.567	368.48
538.923	419.55
539.278	411.89
539.634	348.06
539.99	447.64
540.345	455.3
540.701	424.66
541.056	348.06
541.412	363.38
541.767	386.36
542.123	483.39
542.478	340.4
542.833	455.3
543.188	319.97
543.544	325.08
543.899	424.66
544.254	414.45
544.609	462.96
544.964	424.66
545.319	391.46
545.674	406.79
546.029	381.25
546.383	409.34
546.738	447.64
547.093	368.48
547.447	386.36
547.802	399.12
548.157	368.48
548.511	411.89
548.866	348.06
549.22	417
549.574	475.73
549.929	434.87
550.283	399.12
550.637	363.38
550.991	376.14
551.345	401.68
551.699	406.79
552.053	399.12
552.407	350.61
552.761	396.57
553.115	399.12
553.469	462.96
553.823	358.27
554.176	383.8
554.53	417
554.884	414.45
555.237	634.04
555.591	480.83
555.944	427.21
556.298	411.89
556.651	457.85
557.005	419.55
557.358	419.55
557.711	391.46
558.064	409.34
558.417	437.43
558.771	475.73
559.124	465.51
559.477	363.38
559.83	419.55
560.182	355.72
560.535	488.49
560.888	376.14
561.241	437.43
561.594	429.77
561.946	360.82
562.299	432.32
562.651	371.04
563.004	442.53
563.356	429.77
563.709	363.38
564.061	383.8
564.413	358.27
564.766	419.55
565.118	434.87
565.47	401.68
565.822	406.79
566.174	429.77
566.526	439.98
566.878	411.89
567.23	424.66
567.582	391.46
567.934	455.3
568.286	414.45
568.638	337.84
568.989	406.79
569.341	419.55
569.693	411.89
570.044	462.96
570.396	394.02
570.747	376.14
571.098	404.23
571.45	409.34
571.801	378.7
572.152	406.79
572.504	381.25
572.855	437.43
573.206	394.02
573.557	419.55
573.908	422.11
574.259	383.8
574.61	381.25
574.961	473.17
575.311	424.66
575.662	409.34
576.013	498.71
576.364	383.8
576.714	383.8
577.065	432.32
577.415	424.66
577.766	360.82
578.116	432.32
578.467	432.32
578.817	419.55
579.167	442.53
579.518	439.98
579.868	404.23
580.218	424.66
580.568	429.77
580.918	424.66
581.268	404.23
581.618	411.89
581.968	468.07
582.318	434.87
582.668	468.07
583.017	447.64
583.367	434.87
583.717	381.25
584.066	406.79
584.416	473.17
584.765	401.68
585.115	345.5
585.464	399.12
585.814	386.36
586.163	419.55
586.512	383.8
586.862	437.43
587.211	424.66
587.56	401.68
587.909	460.41
588.258	427.21
588.607	417
588.956	457.85
589.305	394.02
589.654	434.87
590.002	437.43
590.351	371.04
590.7	376.14
591.048	376.14
591.397	391.46
591.746	386.36
592.094	450.19
592.443	406.79
592.791	417
593.139	373.59
593.488	401.68
593.836	388.91
594.184	360.82
594.532	447.64
594.88	462.96
595.228	460.41
595.576	409.34
595.924	342.95
596.272	411.89
596.62	409.34
596.968	404.23
597.316	394.02
597.664	386.36
598.011	388.91
598.359	394.02
598.706	468.07
599.054	365.93
599.402	355.72
599.749	358.27
600.096	411.89
600.444	355.72
600.791	462.96
601.138	381.25
601.485	470.62
601.833	358.27
602.18	473.17
602.527	434.87
602.874	455.3
603.221	439.98
603.568	419.55
603.914	414.45
604.261	365.93
604.608	406.79
604.955	419.55
605.301	460.41
605.648	411.89
605.995	447.64
606.341	447.64
606.688	378.7
607.034	394.02
607.38	439.98
607.727	442.53
608.073	417
608.419	455.3
608.765	417
609.112	399.12
609.458	394.02
609.804	406.79
610.15	350.61
610.496	391.46
610.842	434.87
611.187	360.82
611.533	427.21
611.879	439.98
612.225	388.91
612.57	442.53
612.916	409.34
613.261	401.68
613.607	439.98
613.952	358.27
614.298	404.23
614.643	424.66
614.989	348.06
615.334	475.73
615.679	496.15
616.024	422.11
616.369	401.68
616.714	388.91
617.059	406.79
617.404	406.79
617.749	475.73
618.094	429.77
618.439	404.23
618.784	396.57
619.129	391.46
619.473	411.89
619.818	373.59
620.163	360.82
620.507	355.72
620.852	434.87
621.196	455.3
621.54	396.57
621.885	358.27
622.229	391.46
622.573	335.29
622.918	376.14
623.262	396.57
623.606	394.02
623.95	388.91
624.294	462.96
624.638	411.89
624.982	340.4
625.326	360.82
625.67	368.48
626.013	394.02
626.357	383.8
626.701	383.8
627.044	368.48
627.388	414.45
627.731	437.43
628.075	381.25
628.418	406.79
628.762	429.77
629.105	417
629.448	391.46
629.792	348.06
630.135	447.64
630.478	388.91
630.821	422.11
631.164	394.02
631.507	399.12
631.85	350.61
632.193	337.84
632.536	424.66
632.879	376.14
633.221	394.02
633.564	419.55
633.907	399.12
634.249	462.96
634.592	401.68
634.935	417
635.277	373.59
635.619	414.45
635.962	404.23
636.304	419.55
636.646	411.89
636.989	371.04
637.331	437.43
637.673	468.07
638.015	465.51
638.357	302.1
638.699	363.38
639.041	417
639.383	376.14
639.725	473.17
640.067	432.32
640.408	422.11
640.75	340.4
641.092	401.68
641.433	378.7
641.775	399.12
642.116	434.87
642.458	388.91
642.799	388.91
643.141	419.55
643.482	404.23
643.823	381.25
644.164	450.19
644.506	470.62
644.847	409.34
645.188	432.32
645.529	378.7
645.87	404.23
646.211	373.59
646.552	383.8
646.893	414.45
647.233	388.91
647.574	371.04
647.915	401.68
648.255	376.14
648.596	427.21
648.937	475.73
649.277	373.59
649.618	399.12
649.958	417
650.298	427.21
650.639	452.75
650.979	391.46
651.319	445.09
651.659	437.43
651.999	401.68
652.339	394.02
652.679	424.66
653.019	417
653.359	401.68
653.699	307.2
654.039	391.46
654.379	427.21
654.719	422.11
655.058	439.98
655.398	419.55
655.737	419.55
656.077	452.75
656.416	388.91
656.756	383.8
657.095	409.34
657.435	424.66
657.774	434.87
658.113	434.87
658.452	371.04
658.792	445.09
659.131	483.39
659.47	417
659.809	386.36
660.148	414.45
660.487	391.46
660.826	368.48
661.164	422.11
661.503	422.11
661.842	360.82
662.181	445.09
662.519	414.45
662.858	419.55
663.196	414.45
663.535	537.01
663.873	417
664.212	432.32
664.55	445.09
664.888	411.89
665.226	406.79
665.565	371.04
665.903	552.33
666.241	355.72
666.579	419.55
666.917	411.89
667.255	445.09
667.593	399.12
667.931	411.89
668.268	388.91
668.606	409.34
668.944	355.72
669.282	353.16
669.619	470.62
669.957	388.91
670.294	434.87
670.632	447.64
670.969	406.79
671.307	399.12
671.644	450.19
671.981	386.36
672.318	340.4
672.656	401.68
672.993	399.12
673.33	394.02
673.667	427.21
674.004	424.66
674.341	342.95
674.678	373.59
675.015	406.79
675.351	406.79
675.688	483.39
676.025	437.43
676.362	381.25
676.698	371.04
677.035	355.72
677.371	439.98
677.708	335.29
678.044	348.06
678.38	419.55
678.717	391.46
679.053	388.91
679.389	457.85
679.725	434.87
680.062	404.23
680.398	460.41
680.734	368.48
681.07	319.97
681.406	381.25
681.742	437.43
682.077	445.09
682.413	394.02
682.749	445.09
683.085	388.91
683.42	406.79
683.756	360.82
684.091	396.57
684.427	365.93
684.762	485.94
685.098	422.11
685.433	439.98
685.768	376.14
686.104	411.89
686.439	478.28
686.774	327.63
687.109	409.34
687.444	371.04
687.779	378.7
688.114	411.89
688.449	378.7
688.784	424.66
689.119	378.7
689.454	358.27
689.789	388.91
690.123	383.8
690.458	360.82
690.792	363.38
691.127	378.7
691.461	388.91
691.796	376.14
692.13	409.34
692.465	432.32
692.799	429.77
693.133	475.73
693.467	365.93
693.802	399.12
694.136	358.27
694.47	373.59
694.804	483.39
695.138	417
695.472	383.8
695.806	373.59
696.139	309.76
696.473	455.3
696.807	325.08
697.141	391.46
697.474	360.82
697.808	383.8
698.141	401.68
698.475	340.4
698.808	394.02
699.142	383.8
699.475	386.36
699.808	404.23
700.142	429.77
700.475	360.82
700.808	299.54
701.141	457.85
701.474	391.46
701.807	414.45
702.14	394.02
702.473	460.41
702.806	447.64
703.139	378.7
703.472	452.75
703.804	437.43
704.137	424.66
704.47	427.21
704.802	439.98
705.135	342.95
705.467	376.14
705.8	417
706.132	396.57
706.464	388.91
706.797	411.89
707.129	417
707.461	401.68
707.793	391.46
708.125	409.34
708.457	358.27
708.789	345.5
709.121	368.48
709.453	322.52
709.785	353.16
710.117	394.02
710.449	391.46
710.781	404.23
711.112	468.07
711.444	432.32
711.775	360.82
712.107	358.27
712.438	396.57
712.77	345.5
713.101	368.48
713.433	394.02
713.764	439.98
714.095	442.53
714.426	396.57
714.757	404.23
715.089	417
715.42	378.7
715.751	455.3
716.082	483.39
716.412	406.79
716.743	432.32
717.074	404.23
717.405	319.97
717.736	358.27
718.066	417
718.397	353.16
718.727	355.72
719.058	358.27
719.388	429.77
719.719	350.61
720.049	381.25
720.38	386.36
720.71	404.23
721.04	348.06
721.37	363.38
721.7	353.16
722.031	432.32
722.361	422.11
722.691	388.91
723.021	365.93
723.35	371.04
723.68	296.99
724.01	368.48
724.34	337.84
724.67	309.76
724.999	434.87
725.329	434.87
725.658	429.77
725.988	419.55
726.317	429.77
726.647	381.25
726.976	411.89
727.306	394.02
727.635	378.7
727.964	368.48
728.293	414.45
728.622	373.59
728.952	365.93
729.281	383.8
729.61	450.19
729.939	432.32
730.267	401.68
730.596	447.64
730.925	406.79
731.254	399.12
731.583	475.73
731.911	363.38
732.24	493.6
732.568	442.53
732.897	434.87
733.225	432.32
733.554	350.61
733.882	383.8
734.21	394.02
734.539	432.32
734.867	445.09
735.195	404.23
735.523	365.93
735.851	391.46
736.179	460.41
736.507	427.21
736.835	473.17
737.163	432.32
737.491	358.27
737.819	296.99
738.147	350.61
738.474	363.38
738.802	455.3
739.13	404.23
739.457	434.87
739.785	388.91
740.112	396.57
740.44	437.43
740.767	417
741.094	345.5
741.422	378.7
741.749	396.57
742.076	406.79
742.403	365.93
742.73	391.46
743.057	419.55
743.384	411.89
743.711	406.79
744.038	386.36
744.365	465.51
744.692	429.77
745.018	373.59
745.345	335.29
745.672	330.18
745.998	442.53
746.325	491.05
746.651	406.79
746.978	391.46
747.304	414.45
747.631	353.16
747.957	419.55
748.283	396.57
748.61	419.55
748.936	447.64
749.262	355.72
749.588	450.19
749.914	350.61
750.24	409.34
750.566	340.4
750.892	401.68
751.218	470.62
751.543	429.77
751.869	491.05
752.195	383.8
752.521	383.8
752.846	383.8
753.172	409.34
753.497	368.48
753.823	401.68
754.148	365.93
754.473	350.61
754.799	394.02
755.124	414.45
755.449	414.45
755.774	442.53
756.1	378.7
756.425	427.21
756.75	406.79
757.075	452.75
757.4	552.33
757.724	445.09
758.049	386.36
758.374	406.79
758.699	485.94
759.024	342.95
759.348	411.89
759.673	452.75
759.997	462.96
760.322	411.89
760.646	411.89
760.971	439.98
761.295	409.34
761.619	373.59
761.944	470.62
762.268	526.79
762.592	572.75
762.916	593.18
763.24	524.24
763.564	526.79
763.888	524.24
764.212	567.65
764.536	521.69
764.86	485.94
765.184	524.24
765.508	542.11
765.831	662.12
766.155	1037.47
766.478	942.99
766.802	1001.72
767.126	1195.78
767.449	1417.92
767.772	1611.98
768.096	1609.43
768.419	1609.43
768.742	1481.76
769.066	1254.51
769.389	1167.69
769.712	963.42
770.035	835.75
770.358	838.31
770.681	1014.49
771.004	1200.89
771.327	1614.53
771.65	1933.71
771.972	2329.48
772.295	2983.14
772.618	3195.07
772.941	3192.52
773.263	3115.92
773.586	2967.82
773.908	2870.79
774.231	2475.02
774.553	1984.77
774.875	1634.96
775.198	1341.32
775.52	1251.95
775.842	1481.76
776.164	2007.75
776.487	2646.1
776.809	3366.15
777.131	3961.09
777.453	4264.94
777.775	4471.76
778.096	4949.24
778.418	4870.09
778.74	4247.07
779.062	3670
779.384	3164.43
779.705	2832.49
780.027	2352.46
780.348	1877.53
780.67	1517.5
780.991	1657.94
781.313	2324.37
781.634	3442.75
781.955	4267.49
782.277	5431.83
782.598	6762.14
782.919	7433.68
783.24	7936.7
783.561	7908.61
783.882	7622.63
784.203	7022.59
784.524	5968.04
784.845	4438.57
785.166	3325.3
785.487	2344.8
785.807	1897.96
786.128	1594.11
786.449	1744.76
786.769	2311.61
787.09	3358.49
787.41	4982.44
787.731	6966.41
788.051	8935.07
788.372	10066.21
788.692	11656.97
789.012	12269.78
789.332	12129.34
789.653	11263.75
789.973	9803.22
790.293	7466.88
790.613	5245.44
790.933	3721.07
791.253	2505.66
791.573	1734.54
791.893	1706.45
792.212	1857.1
792.532	2513.32
792.852	3723.62
793.171	4936.48
793.491	5939.96
793.811	6856.62
794.13	7558.8
794.45	7678.81
794.769	7247.28
795.088	7331.55
795.408	6767.25
795.727	5827.61
796.046	4466.66
796.365	3429.98
796.684	2454.59
797.004	1831.57
797.323	1453.67
797.642	1394.94
797.96	1821.36
798.279	2794.19
798.598	3754.26
798.917	4918.6
799.236	5722.92
799.554	6302.53
799.873	6887.26
800.192	7888.18
800.51	8470.35
800.829	8049.05
801.147	6900.03
801.466	5980.81
