Data from 2025-12-03_xpw_interference_micrometer_634_FLMS141361__16__066.txt Node

Date: Wed Dec 03 15:48:38 MST 2025
User: james
Spectrometer: FLMS14136
Trigger mode: 0
Integration Time (sec): 1.000000E-1
Scans to average: 1
Electric dark correction enabled: true
Nonlinearity correction enabled: false
Boxcar width: 0
XAxis mode: Wavelengths
Number of Pixels in Spectrum: 2048
>>>>>Begin Spectral Data<<<<<
339.315	-31.12
339.697	-31.12
340.079	-31.12
340.461	-97.51
340.843	-71.97
341.225	-56.65
341.607	-89.85
341.989	-110.27
342.371	-89.85
342.752	-31.12
343.134	-89.85
343.516	-0.48
343.897	-26.01
344.279	-56.65
344.661	45.48
345.042	50.59
345.423	-26.01
345.805	109.32
346.186	88.89
346.567	145.06
346.949	137.4
347.33	145.06
347.711	206.34
348.092	145.06
348.473	214
348.854	236.99
349.235	295.71
349.616	300.82
349.997	265.07
350.378	290.61
350.758	377.42
351.139	321.25
351.52	313.59
351.9	362.1
352.281	369.76
352.661	356.99
353.042	318.69
353.422	318.69
353.803	405.51
354.183	392.74
354.563	367.21
354.943	336.57
355.324	433.6
355.704	369.76
356.084	385.08
356.464	387.63
356.844	464.24
357.224	395.29
357.603	413.17
357.983	431.04
358.363	392.74
358.743	390.19
359.122	349.33
359.502	359.55
359.882	423.38
360.261	379.97
360.641	346.78
361.02	418.28
361.399	387.63
361.779	334.01
362.158	428.49
362.537	387.63
362.916	372.31
363.296	346.78
363.675	374.87
364.054	280.39
364.433	387.63
364.812	359.55
365.19	387.63
365.569	364.65
365.948	431.04
366.327	408.06
366.705	311.03
367.084	336.57
367.463	323.8
367.841	418.28
368.22	377.42
368.598	323.8
368.977	341.67
369.355	369.76
369.733	290.61
370.111	367.21
370.49	323.8
370.868	354.44
371.246	413.17
371.624	364.65
372.002	336.57
372.38	313.59
372.758	334.01
373.136	349.33
373.513	349.33
373.891	377.42
374.269	344.23
374.646	405.51
375.024	351.89
375.402	331.46
375.779	346.78
376.157	379.97
376.534	374.87
376.911	344.23
377.289	298.27
377.666	382.53
378.043	372.31
378.42	420.83
378.797	379.97
379.175	280.39
379.552	349.33
379.929	313.59
380.305	346.78
380.682	351.89
381.059	374.87
381.436	341.67
381.813	328.91
382.189	387.63
382.566	369.76
382.943	369.76
383.319	369.76
383.696	321.25
384.072	336.57
384.448	428.49
384.825	372.31
385.201	387.63
385.577	395.29
385.953	372.31
386.329	372.31
386.706	374.87
387.082	356.99
387.458	374.87
387.834	364.65
388.209	400.4
388.585	308.48
388.961	367.21
389.337	334.01
389.713	379.97
390.088	305.93
390.464	367.21
390.839	387.63
391.215	354.44
391.59	392.74
391.966	397.85
392.341	392.74
392.716	321.25
393.092	364.65
393.467	354.44
393.842	326.35
394.217	344.23
394.592	349.33
394.967	405.51
395.342	379.97
395.717	351.89
396.092	313.59
396.467	382.53
396.841	339.12
397.216	326.35
397.591	349.33
397.965	334.01
398.34	395.29
398.714	356.99
399.089	321.25
399.463	367.21
399.838	379.97
400.212	354.44
400.586	372.31
400.961	415.72
401.335	356.99
401.709	341.67
402.083	400.4
402.457	374.87
402.831	318.69
403.205	418.28
403.579	420.83
403.953	428.49
404.326	415.72
404.7	448.92
405.074	356.99
405.447	356.99
405.821	316.14
406.195	451.47
406.568	408.06
406.942	382.53
407.315	372.31
407.688	377.42
408.062	331.46
408.435	382.53
408.808	359.55
409.181	420.83
409.554	397.85
409.927	385.08
410.3	420.83
410.673	397.85
411.046	428.49
411.419	382.53
411.792	308.48
412.165	341.67
412.537	397.85
412.91	331.46
413.283	344.23
413.655	316.14
414.028	395.29
414.4	402.95
414.773	323.8
415.145	400.4
415.517	387.63
415.889	344.23
416.262	344.23
416.634	395.29
417.006	351.89
417.378	408.06
417.75	441.26
418.122	379.97
418.494	334.01
418.866	364.65
419.238	305.93
419.609	408.06
419.981	372.31
420.353	339.12
420.725	359.55
421.096	448.92
421.468	402.95
421.839	415.72
422.211	423.38
422.582	372.31
422.953	408.06
423.325	390.19
423.696	359.55
424.067	395.29
424.438	431.04
424.809	418.28
425.18	392.74
425.551	367.21
425.922	339.12
426.293	408.06
426.664	438.7
427.035	431.04
427.406	413.17
427.776	408.06
428.147	351.89
428.518	300.82
428.888	392.74
429.259	390.19
429.629	377.42
429.999	390.19
430.37	431.04
430.74	446.36
431.11	356.99
431.481	408.06
431.851	336.57
432.221	418.28
432.591	405.51
432.961	402.95
433.331	372.31
433.701	392.74
434.071	423.38
434.441	451.47
434.81	415.72
435.18	395.29
435.55	369.76
435.919	436.15
436.289	438.7
436.658	436.15
437.028	420.83
437.397	367.21
437.767	379.97
438.136	397.85
438.505	436.15
438.875	418.28
439.244	474.45
439.613	454.02
439.982	408.06
440.351	425.94
440.72	418.28
441.089	339.12
441.458	410.62
441.827	392.74
442.196	354.44
442.564	479.56
442.933	382.53
443.302	362.1
443.67	415.72
444.039	446.36
444.407	356.99
444.776	431.04
445.144	420.83
445.513	364.65
445.881	420.83
446.249	413.17
446.617	397.85
446.986	372.31
447.354	410.62
447.722	392.74
448.09	425.94
448.458	382.53
448.826	441.26
449.194	402.95
449.561	420.83
449.929	359.55
450.297	431.04
450.665	331.46
451.032	364.65
451.4	392.74
451.767	438.7
452.135	454.02
452.502	420.83
452.87	431.04
453.237	441.26
453.604	346.78
453.971	323.8
454.339	377.42
454.706	448.92
455.073	428.49
455.44	367.21
455.807	492.32
456.174	341.67
456.541	356.99
456.908	387.63
457.274	392.74
457.641	397.85
458.008	374.87
458.374	418.28
458.741	438.7
459.108	400.4
459.474	428.49
459.841	431.04
460.207	433.6
460.573	408.06
460.94	423.38
461.306	408.06
461.672	464.24
462.038	400.4
462.404	351.89
462.771	446.36
463.137	367.21
463.503	446.36
463.868	372.31
464.234	400.4
464.6	425.94
464.966	382.53
465.332	415.72
465.697	395.29
466.063	377.42
466.429	471.9
466.794	374.87
467.16	379.97
467.525	466.79
467.89	341.67
468.256	408.06
468.621	415.72
468.986	479.56
469.351	431.04
469.717	369.76
470.082	367.21
470.447	441.26
470.812	413.17
471.177	341.67
471.542	372.31
471.906	372.31
472.271	382.53
472.636	405.51
473.001	456.58
473.365	420.83
473.73	385.08
474.094	471.9
474.459	451.47
474.823	364.65
475.188	402.95
475.552	431.04
475.917	392.74
476.281	402.95
476.645	446.36
477.009	379.97
477.373	423.38
477.737	369.76
478.101	405.51
478.465	385.08
478.829	428.49
479.193	410.62
479.557	459.13
479.921	374.87
480.284	364.65
480.648	382.53
481.012	433.6
481.375	408.06
481.739	344.23
482.102	431.04
482.466	354.44
482.829	395.29
483.193	408.06
483.556	405.51
483.919	372.31
484.282	313.59
484.645	441.26
485.009	418.28
485.372	344.23
485.735	369.76
486.098	431.04
486.46	372.31
486.823	423.38
487.186	379.97
487.549	418.28
487.912	377.42
488.274	379.97
488.637	400.4
488.999	402.95
489.362	469.34
489.724	413.17
490.087	469.34
490.449	428.49
490.811	374.87
491.174	362.1
491.536	374.87
491.898	392.74
492.26	387.63
492.622	420.83
492.984	410.62
493.346	415.72
493.708	425.94
494.07	454.02
494.432	423.38
494.794	459.13
495.155	425.94
495.517	431.04
495.879	379.97
496.24	364.65
496.602	372.31
496.963	390.19
497.325	423.38
497.686	469.34
498.048	410.62
498.409	425.94
498.77	382.53
499.131	390.19
499.492	418.28
499.854	402.95
500.215	441.26
500.576	390.19
500.937	408.06
501.298	408.06
501.658	431.04
502.019	397.85
502.38	392.74
502.741	346.78
503.101	433.6
503.462	367.21
503.823	402.95
504.183	497.43
504.543	408.06
504.904	456.58
505.264	392.74
505.625	379.97
505.985	477
506.345	423.38
506.705	461.68
507.065	446.36
507.426	418.28
507.786	425.94
508.146	395.29
508.505	402.95
508.865	400.4
509.225	392.74
509.585	385.08
509.945	446.36
510.304	502.54
510.664	443.81
511.024	359.55
511.383	400.4
511.743	441.26
512.102	362.1
512.462	334.01
512.821	413.17
513.18	423.38
513.539	484.66
513.899	446.36
514.258	364.65
514.617	446.36
514.976	415.72
515.335	441.26
515.694	379.97
516.053	385.08
516.412	359.55
516.771	369.76
517.129	351.89
517.488	413.17
517.847	461.68
518.205	469.34
518.564	433.6
518.922	410.62
519.281	415.72
519.639	448.92
519.998	397.85
520.356	390.19
520.714	438.7
521.073	456.58
521.431	372.31
521.789	413.17
522.147	372.31
522.505	423.38
522.863	446.36
523.221	410.62
523.579	369.76
523.937	354.44
524.295	456.58
524.652	466.79
525.01	413.17
525.368	346.78
525.725	385.08
526.083	441.26
526.44	415.72
526.798	374.87
527.155	397.85
527.513	441.26
527.87	362.1
528.227	369.76
528.584	385.08
528.942	418.28
529.299	418.28
529.656	379.97
530.013	341.67
530.37	354.44
530.727	413.17
531.083	408.06
531.44	448.92
531.797	497.43
532.154	369.76
532.511	441.26
532.867	423.38
533.224	438.7
533.58	364.65
533.937	397.85
534.293	377.42
534.65	456.58
535.006	392.74
535.362	328.91
535.718	402.95
536.075	392.74
536.431	461.68
536.787	410.62
537.143	454.02
537.499	390.19
537.855	410.62
538.211	438.7
538.567	397.85
538.923	451.47
539.278	367.21
539.634	362.1
539.99	362.1
540.345	443.81
540.701	392.74
541.056	413.17
541.412	369.76
541.767	400.4
542.123	405.51
542.478	466.79
542.833	451.47
543.188	402.95
543.544	402.95
543.899	344.23
544.254	385.08
544.609	448.92
544.964	436.15
545.319	446.36
545.674	497.43
546.029	461.68
546.383	413.17
546.738	395.29
547.093	425.94
547.447	349.33
547.802	367.21
548.157	431.04
548.511	436.15
548.866	374.87
549.22	387.63
549.574	377.42
549.929	372.31
550.283	410.62
550.637	446.36
550.991	372.31
551.345	464.24
551.699	410.62
552.053	382.53
552.407	359.55
552.761	425.94
553.115	425.94
553.469	408.06
553.823	400.4
554.176	402.95
554.53	395.29
554.884	400.4
555.237	673.61
555.591	479.56
555.944	431.04
556.298	410.62
556.651	469.34
557.005	351.89
557.358	408.06
557.711	382.53
558.064	454.02
558.417	428.49
558.771	405.51
559.124	438.7
559.477	420.83
559.83	405.51
560.182	408.06
560.535	502.54
560.888	443.81
561.241	474.45
561.594	410.62
561.946	331.46
562.299	387.63
562.651	395.29
563.004	379.97
563.356	346.78
563.709	354.44
564.061	321.25
564.413	425.94
564.766	438.7
565.118	372.31
565.47	441.26
565.822	466.79
566.174	323.8
566.526	423.38
566.878	431.04
567.23	423.38
567.582	374.87
567.934	405.51
568.286	425.94
568.638	443.81
568.989	359.55
569.341	425.94
569.693	436.15
570.044	359.55
570.396	410.62
570.747	397.85
571.098	446.36
571.45	395.29
571.801	397.85
572.152	397.85
572.504	356.99
572.855	415.72
573.206	420.83
573.557	428.49
573.908	423.38
574.259	499.98
574.61	431.04
574.961	402.95
575.311	413.17
575.662	410.62
576.013	423.38
576.364	454.02
576.714	482.11
577.065	456.58
577.415	351.89
577.766	405.51
578.116	390.19
578.467	367.21
578.817	400.4
579.167	400.4
579.518	415.72
579.868	377.42
580.218	459.13
580.568	418.28
580.918	423.38
581.268	303.37
581.618	351.89
581.968	351.89
582.318	382.53
582.668	405.51
583.017	390.19
583.367	436.15
583.717	395.29
584.066	415.72
584.416	436.15
584.765	382.53
585.115	405.51
585.464	410.62
585.814	369.76
586.163	420.83
586.512	410.62
586.862	405.51
587.211	387.63
587.56	362.1
587.909	402.95
588.258	367.21
588.607	431.04
588.956	438.7
589.305	420.83
589.654	374.87
590.002	433.6
590.351	413.17
590.7	448.92
591.048	423.38
591.397	364.65
591.746	318.69
592.094	334.01
592.443	362.1
592.791	354.44
593.139	441.26
593.488	418.28
593.836	431.04
594.184	395.29
594.532	390.19
594.88	423.38
595.228	418.28
595.576	382.53
595.924	323.8
596.272	377.42
596.62	390.19
596.968	382.53
597.316	400.4
597.664	390.19
598.011	397.85
598.359	377.42
598.706	344.23
599.054	372.31
599.402	392.74
599.749	372.31
600.096	433.6
600.444	420.83
600.791	379.97
601.138	441.26
601.485	390.19
601.833	339.12
602.18	372.31
602.527	387.63
602.874	428.49
603.221	387.63
603.568	413.17
603.914	385.08
604.261	438.7
604.608	382.53
604.955	433.6
605.301	415.72
605.648	461.68
605.995	402.95
606.341	410.62
606.688	420.83
607.034	400.4
607.38	433.6
607.727	436.15
608.073	438.7
608.419	356.99
608.765	438.7
609.112	425.94
609.458	364.65
609.804	448.92
610.15	362.1
610.496	413.17
610.842	390.19
611.187	461.68
611.533	408.06
611.879	415.72
612.225	374.87
612.57	413.17
612.916	387.63
613.261	397.85
613.607	323.8
613.952	339.12
614.298	385.08
614.643	418.28
614.989	397.85
615.334	461.68
615.679	382.53
616.024	410.62
616.369	377.42
616.714	387.63
617.059	408.06
617.404	354.44
617.749	372.31
618.094	392.74
618.439	392.74
618.784	499.98
619.129	400.4
619.473	349.33
619.818	369.76
620.163	400.4
620.507	367.21
620.852	377.42
621.196	382.53
621.54	372.31
621.885	356.99
622.229	397.85
622.573	382.53
622.918	379.97
623.262	431.04
623.606	392.74
623.95	413.17
624.294	400.4
624.638	331.46
624.982	397.85
625.326	441.26
625.67	328.91
626.013	413.17
626.357	431.04
626.701	438.7
627.044	346.78
627.388	331.46
627.731	385.08
628.075	351.89
628.418	413.17
628.762	356.99
629.105	288.05
629.448	405.51
629.792	431.04
630.135	436.15
630.478	413.17
630.821	351.89
631.164	344.23
631.507	356.99
631.85	415.72
632.193	364.65
632.536	359.55
632.879	466.79
633.221	438.7
633.564	369.76
633.907	385.08
634.249	382.53
634.592	328.91
634.935	356.99
635.277	397.85
635.619	349.33
635.962	466.79
636.304	367.21
636.646	387.63
636.989	382.53
637.331	443.81
637.673	400.4
638.015	443.81
638.357	336.57
638.699	405.51
639.041	420.83
639.383	402.95
639.725	425.94
640.067	392.74
640.408	456.58
640.75	356.99
641.092	385.08
641.433	303.37
641.775	400.4
642.116	446.36
642.458	510.2
642.799	410.62
643.141	446.36
643.482	387.63
643.823	405.51
644.164	443.81
644.506	433.6
644.847	410.62
645.188	413.17
645.529	425.94
645.87	359.55
646.211	379.97
646.552	356.99
646.893	390.19
647.233	405.51
647.574	418.28
647.915	423.38
648.255	428.49
648.596	423.38
648.937	436.15
649.277	372.31
649.618	364.65
649.958	387.63
650.298	497.43
650.639	354.44
650.979	303.37
651.319	339.12
651.659	413.17
651.999	390.19
652.339	369.76
652.679	436.15
653.019	423.38
653.359	446.36
653.699	295.71
654.039	397.85
654.379	344.23
654.719	390.19
655.058	334.01
655.398	387.63
655.737	418.28
656.077	400.4
656.416	341.67
656.756	410.62
657.095	362.1
657.435	316.14
657.774	351.89
658.113	334.01
658.452	418.28
658.792	349.33
659.131	392.74
659.47	390.19
659.809	364.65
660.148	392.74
660.487	336.57
660.826	400.4
661.164	408.06
661.503	369.76
661.842	425.94
662.181	382.53
662.519	418.28
662.858	408.06
663.196	402.95
663.535	400.4
663.873	339.12
664.212	402.95
664.55	346.78
664.888	400.4
665.226	448.92
665.565	382.53
665.903	609.78
666.241	459.13
666.579	423.38
666.917	402.95
667.255	359.55
667.593	385.08
667.931	423.38
668.268	451.47
668.606	461.68
668.944	423.38
669.282	339.12
669.619	410.62
669.957	402.95
670.294	397.85
670.632	405.51
670.969	494.88
671.307	423.38
671.644	405.51
671.981	392.74
672.318	405.51
672.656	379.97
672.993	328.91
673.33	390.19
673.667	374.87
674.004	456.58
674.341	423.38
674.678	392.74
675.015	351.89
675.351	374.87
675.688	374.87
676.025	410.62
676.362	364.65
676.698	425.94
677.035	395.29
677.371	446.36
677.708	392.74
678.044	431.04
678.38	354.44
678.717	420.83
679.053	425.94
679.389	405.51
679.725	423.38
680.062	461.68
680.398	377.42
680.734	369.76
681.07	410.62
681.406	369.76
681.742	438.7
682.077	423.38
682.413	382.53
682.749	382.53
683.085	413.17
683.42	367.21
683.756	405.51
684.091	415.72
684.427	410.62
684.762	374.87
685.098	402.95
685.433	328.91
685.768	425.94
686.104	459.13
686.439	431.04
686.774	456.58
687.109	428.49
687.444	431.04
687.779	408.06
688.114	367.21
688.449	385.08
688.784	351.89
689.119	351.89
689.454	316.14
689.789	387.63
690.123	379.97
690.458	364.65
690.792	410.62
691.127	402.95
691.461	392.74
691.796	351.89
692.13	395.29
692.465	351.89
692.799	415.72
693.133	405.51
693.467	359.55
693.802	425.94
694.136	395.29
694.47	374.87
694.804	374.87
695.138	367.21
695.472	405.51
695.806	359.55
696.139	369.76
696.473	410.62
696.807	397.85
697.141	390.19
697.474	418.28
697.808	418.28
698.141	413.17
698.475	387.63
698.808	413.17
699.142	346.78
699.475	413.17
699.808	466.79
700.142	423.38
700.475	405.51
700.808	367.21
701.141	364.65
701.474	425.94
701.807	359.55
702.14	354.44
702.473	377.42
702.806	425.94
703.139	379.97
703.472	402.95
703.804	379.97
704.137	413.17
704.47	323.8
704.802	341.67
705.135	374.87
705.467	387.63
705.8	364.65
706.132	349.33
706.464	451.47
706.797	390.19
707.129	382.53
707.461	379.97
707.793	372.31
708.125	387.63
708.457	341.67
708.789	344.23
709.121	341.67
709.453	395.29
709.785	387.63
710.117	420.83
710.449	308.48
710.781	400.4
711.112	390.19
711.444	377.42
711.775	392.74
712.107	397.85
712.438	392.74
712.77	397.85
713.101	443.81
713.433	461.68
713.764	331.46
714.095	441.26
714.426	428.49
714.757	456.58
715.089	397.85
715.42	359.55
715.751	428.49
716.082	392.74
716.412	461.68
716.743	433.6
717.074	377.42
717.405	346.78
717.736	328.91
718.066	382.53
718.397	466.79
718.727	413.17
719.058	356.99
719.388	392.74
719.719	420.83
720.049	379.97
720.38	359.55
720.71	428.49
721.04	410.62
721.37	428.49
721.7	372.31
722.031	392.74
722.361	331.46
722.691	392.74
723.021	397.85
723.35	308.48
723.68	374.87
724.01	400.4
724.34	420.83
724.67	382.53
724.999	428.49
725.329	431.04
725.658	408.06
725.988	356.99
726.317	379.97
726.647	402.95
726.976	387.63
727.306	382.53
727.635	367.21
727.964	382.53
728.293	395.29
728.622	464.24
728.952	359.55
729.281	377.42
729.61	379.97
729.939	385.08
730.267	400.4
730.596	469.34
730.925	433.6
731.254	413.17
731.583	425.94
731.911	392.74
732.24	454.02
732.568	405.51
732.897	379.97
733.225	293.16
733.554	385.08
733.882	369.76
734.21	456.58
734.539	367.21
734.867	349.33
735.195	379.97
735.523	311.03
735.851	328.91
736.179	418.28
736.507	356.99
736.835	356.99
737.163	410.62
737.491	372.31
737.819	382.53
738.147	423.38
738.474	367.21
738.802	367.21
739.13	374.87
739.457	385.08
739.785	344.23
740.112	346.78
740.44	392.74
740.767	364.65
741.094	405.51
741.422	374.87
741.749	326.35
742.076	364.65
742.403	369.76
742.73	379.97
743.057	425.94
743.384	341.67
743.711	359.55
744.038	351.89
744.365	464.24
744.692	400.4
745.018	369.76
745.345	428.49
745.672	410.62
745.998	349.33
746.325	362.1
746.651	418.28
746.978	438.7
747.304	377.42
747.631	341.67
747.957	374.87
748.283	346.78
748.61	392.74
748.936	316.14
749.262	354.44
749.588	359.55
749.914	433.6
750.24	385.08
750.566	459.13
750.892	334.01
751.218	392.74
751.543	395.29
751.869	364.65
752.195	428.49
752.521	390.19
752.846	425.94
753.172	405.51
753.497	379.97
753.823	392.74
754.148	402.95
754.473	400.4
754.799	431.04
755.124	408.06
755.449	354.44
755.774	385.08
756.1	397.85
756.425	367.21
756.75	387.63
757.075	390.19
757.4	558.71
757.724	372.31
758.049	402.95
758.374	413.17
758.699	346.78
759.024	364.65
759.348	390.19
759.673	339.12
759.997	436.15
760.322	285.5
760.646	313.59
760.971	423.38
761.295	382.53
761.619	456.58
761.944	408.06
762.268	441.26
762.592	482.11
762.916	543.39
763.24	538.28
763.564	551.05
763.888	581.69
764.212	515.3
764.536	520.41
764.86	645.53
765.184	602.12
765.508	535.73
765.831	482.11
766.155	852.35
766.478	796.18
766.802	964.7
767.126	1048.96
767.449	1260.89
767.772	1574.96
768.096	1608.15
768.419	1534.1
768.742	1477.93
769.066	1411.54
769.389	1184.29
769.712	982.57
770.035	872.78
770.358	870.22
770.681	903.42
771.004	995.34
771.327	1250.68
771.65	1651.56
771.972	2026.9
772.295	2535.03
772.618	2831.22
772.941	2958.89
773.263	3025.27
773.586	2984.42
773.908	2910.37
774.231	2701
774.553	2259.26
774.875	1889.02
775.198	1383.45
775.52	1225.14
775.842	1166.41
776.164	1511.12
776.487	2057.54
776.809	2718.87
777.131	3329.13
777.453	3722.35
777.775	4166.63
778.096	4684.97
778.418	4738.59
778.74	4120.67
779.062	3735.11
779.384	3339.34
779.705	3086.56
780.027	2670.35
780.348	2121.38
780.67	1651.56
780.991	1521.33
781.313	1837.95
781.634	2601.41
781.955	3295.93
782.277	4327.5
782.598	5693.55
782.919	6388.07
783.24	7039.18
783.561	7437.51
783.882	7422.19
784.203	7074.93
784.524	6227.21
784.845	4978.61
785.166	3696.81
785.487	2718.87
785.807	2044.78
786.128	1569.85
786.449	1477.93
786.769	1756.25
787.09	2394.59
787.41	3676.39
787.731	5394.81
788.051	7212.81
788.372	8497.16
788.692	10414.75
789.012	11336.52
789.332	11316.09
789.653	11413.12
789.973	10299.85
790.293	8275.02
790.613	5974.43
790.933	4508.79
791.253	3168.26
791.573	2146.91
791.893	1679.64
792.212	1480.48
792.532	1820.08
792.852	2685.67
793.171	3635.53
793.491	4567.51
793.811	5734.41
794.13	6510.64
794.45	6781.29
794.769	6857.89
795.088	6985.56
795.408	6625.54
795.727	6191.46
796.046	5070.53
796.365	4000.66
796.684	3007.4
797.004	2116.27
797.323	1536.65
797.642	1248.12
797.96	1396.22
798.279	1845.61
798.598	2517.15
798.917	3479.78
799.236	4324.94
