Data from 2025-12-03_xpw_interference_micrometer_634_FLMS141361__19__069.txt Node

Date: Wed Dec 03 15:48:38 MST 2025
User: james
Spectrometer: FLMS14136
Trigger mode: 0
Integration Time (sec): 1.000000E-1
Scans to average: 1
Electric dark correction enabled: true
Nonlinearity correction enabled: false
Boxcar width: 0
XAxis mode: Wavelengths
Number of Pixels in Spectrum: 2048
>>>>>Begin Spectral Data<<<<<
339.315	27.13
339.697	27.13
340.079	27.13
340.461	-92.88
340.843	-103.09
341.225	-85.22
341.607	-123.52
341.989	-141.39
342.371	-49.47
342.752	-49.47
343.134	-49.47
343.516	-95.43
343.897	-21.38
344.279	55.22
344.661	14.36
345.042	96.07
345.423	27.13
345.805	67.98
346.186	70.54
346.567	142.03
346.949	142.03
347.33	139.48
347.711	216.08
348.092	267.15
348.473	272.25
348.854	297.79
349.235	292.68
349.616	269.7
349.997	290.13
350.378	364.18
350.758	387.16
351.139	364.18
351.52	371.84
351.9	305.45
352.281	364.18
352.661	359.07
353.042	425.46
353.422	376.94
353.803	456.1
354.183	425.46
354.563	417.8
354.943	399.92
355.324	359.07
355.704	420.35
356.084	364.18
356.464	405.03
356.844	433.12
357.224	433.12
357.603	387.16
357.983	394.82
358.363	450.99
358.743	392.26
359.122	376.94
359.502	343.75
359.882	405.03
360.261	341.2
360.641	382.05
361.02	359.07
361.399	359.07
361.779	399.92
362.158	428.01
362.537	361.62
362.916	341.2
363.296	336.09
363.675	325.87
364.054	364.18
364.433	295.23
364.812	346.3
365.19	338.64
365.569	374.39
365.948	328.43
366.327	374.39
366.705	359.07
367.084	346.3
367.463	338.64
367.841	387.16
368.22	415.24
368.598	346.3
368.977	333.54
369.355	366.73
369.733	359.07
370.111	348.86
370.49	384.6
370.868	348.86
371.246	308
371.624	279.91
372.002	417.8
372.38	405.03
372.758	330.98
373.136	341.2
373.513	336.09
373.891	308
374.269	353.96
374.646	305.45
375.024	376.94
375.402	343.75
375.779	325.87
376.157	353.96
376.534	348.86
376.911	272.25
377.289	338.64
377.666	338.64
378.043	405.03
378.42	407.58
378.797	348.86
379.175	351.41
379.552	392.26
379.929	415.24
380.305	343.75
380.682	397.37
381.059	422.9
381.436	387.16
381.813	389.71
382.189	420.35
382.566	353.96
382.943	392.26
383.319	333.54
383.696	361.62
384.072	402.48
384.448	440.78
384.825	325.87
385.201	359.07
385.577	397.37
385.953	330.98
386.329	351.41
386.706	374.39
387.082	341.2
387.458	394.82
387.834	346.3
388.209	325.87
388.585	384.6
388.961	417.8
389.337	445.88
389.713	348.86
390.088	384.6
390.464	348.86
390.839	420.35
391.215	430.56
391.59	417.8
391.966	394.82
392.341	361.62
392.716	356.52
393.092	356.52
393.467	359.07
393.842	415.24
394.217	336.09
394.592	369.28
394.967	348.86
395.342	310.55
395.717	323.32
396.092	450.99
396.467	479.08
396.841	351.41
397.216	371.84
397.591	410.14
397.965	417.8
398.34	389.71
398.714	387.16
399.089	412.69
399.463	468.86
399.838	384.6
400.212	428.01
400.586	389.71
400.961	361.62
401.335	410.14
401.709	359.07
402.083	338.64
402.457	412.69
402.831	412.69
403.205	479.08
403.579	448.44
403.953	407.58
404.326	361.62
404.7	366.73
405.074	456.1
405.447	369.28
405.821	405.03
406.195	407.58
406.568	389.71
406.942	445.88
407.315	397.37
407.688	405.03
408.062	481.63
408.435	376.94
408.808	384.6
409.181	323.32
409.554	374.39
409.927	392.26
410.3	420.35
410.673	420.35
411.046	399.92
411.419	394.82
411.792	397.37
412.165	397.37
412.537	438.22
412.91	453.54
413.283	369.28
413.655	420.35
414.028	348.86
414.4	348.86
414.773	433.12
415.145	371.84
415.517	402.48
415.889	376.94
416.262	458.65
416.634	392.26
417.006	402.48
417.378	356.52
417.75	430.56
418.122	313.11
418.494	428.01
418.866	417.8
419.238	389.71
419.609	407.58
419.981	445.88
420.353	445.88
420.725	379.5
421.096	417.8
421.468	394.82
421.839	496.95
422.211	430.56
422.582	392.26
422.953	348.86
423.325	420.35
423.696	420.35
424.067	407.58
424.438	387.16
424.809	402.48
425.18	458.65
425.551	402.48
425.922	359.07
426.293	333.54
426.664	433.12
427.035	476.52
427.406	417.8
427.776	402.48
428.147	379.5
428.518	376.94
428.888	445.88
429.259	399.92
429.629	463.76
429.999	397.37
430.37	394.82
430.74	384.6
431.11	417.8
431.481	402.48
431.851	410.14
432.221	384.6
432.591	394.82
432.961	369.28
433.331	341.2
433.701	417.8
434.071	348.86
434.441	369.28
434.81	392.26
435.18	479.08
435.55	359.07
435.919	412.69
436.289	366.73
436.658	402.48
437.028	405.03
437.397	392.26
437.767	336.09
438.136	369.28
438.505	356.52
438.875	476.52
439.244	422.9
439.613	405.03
439.982	438.22
440.351	359.07
440.72	445.88
441.089	392.26
441.458	435.67
441.827	399.92
442.196	330.98
442.564	461.2
442.933	438.22
443.302	374.39
443.67	402.48
444.039	341.2
444.407	453.54
444.776	440.78
445.144	415.24
445.513	356.52
445.881	448.44
446.249	428.01
446.617	356.52
446.986	399.92
447.354	440.78
447.722	379.5
448.09	420.35
448.458	369.28
448.826	514.82
449.194	428.01
449.561	438.22
449.929	356.52
450.297	422.9
450.665	346.3
451.032	415.24
451.4	323.32
451.767	430.56
452.135	407.58
452.502	435.67
452.87	399.92
453.237	384.6
453.604	448.44
453.971	425.46
454.339	420.35
454.706	453.54
455.073	476.52
455.44	384.6
455.807	405.03
456.174	453.54
456.541	422.9
456.908	369.28
457.274	425.46
457.641	476.52
458.008	468.86
458.374	407.58
458.741	382.05
459.108	450.99
459.474	394.82
459.841	445.88
460.207	420.35
460.573	422.9
460.94	382.05
461.306	399.92
461.672	491.84
462.038	407.58
462.404	366.73
462.771	438.22
463.137	412.69
463.503	438.22
463.868	415.24
464.234	405.03
464.6	394.82
464.966	448.44
465.332	333.54
465.697	394.82
466.063	425.46
466.429	450.99
466.794	425.46
467.16	476.52
467.525	379.5
467.89	415.24
468.256	392.26
468.621	445.88
468.986	435.67
469.351	422.9
469.717	348.86
470.082	458.65
470.447	353.96
470.812	486.74
471.177	438.22
471.542	433.12
471.906	410.14
472.271	415.24
472.636	471.42
473.001	359.07
473.365	453.54
473.73	504.61
474.094	461.2
474.459	438.22
474.823	453.54
475.188	361.62
475.552	422.9
475.917	473.97
476.281	394.82
476.645	325.87
477.009	402.48
477.373	433.12
477.737	417.8
478.101	389.71
478.465	415.24
478.829	387.16
479.193	382.05
479.557	415.24
479.921	407.58
480.284	399.92
480.648	410.14
481.012	392.26
481.375	364.18
481.739	399.92
482.102	443.33
482.466	387.16
482.829	453.54
483.193	430.56
483.556	376.94
483.919	412.69
484.282	394.82
484.645	336.09
485.009	443.33
485.372	415.24
485.735	412.69
486.098	399.92
486.46	415.24
486.823	371.84
487.186	379.5
487.549	392.26
487.912	382.05
488.274	440.78
488.637	448.44
488.999	417.8
489.362	397.37
489.724	422.9
490.087	473.97
490.449	440.78
490.811	502.06
491.174	389.71
491.536	453.54
491.898	371.84
492.26	448.44
492.622	412.69
492.984	422.9
493.346	463.76
493.708	438.22
494.07	420.35
494.432	361.62
494.794	473.97
495.155	422.9
495.517	435.67
495.879	494.4
496.24	453.54
496.602	509.72
496.963	366.73
497.325	353.96
497.686	448.44
498.048	428.01
498.409	445.88
498.77	450.99
499.131	348.86
499.492	420.35
499.854	379.5
500.215	415.24
500.576	443.33
500.937	433.12
501.298	428.01
501.658	448.44
502.019	410.14
502.38	361.62
502.741	397.37
503.101	420.35
503.462	353.96
503.823	361.62
504.183	402.48
504.543	369.28
504.904	417.8
505.264	374.39
505.625	412.69
505.985	412.69
506.345	443.33
506.705	435.67
507.065	466.31
507.426	387.16
507.786	351.41
508.146	346.3
508.505	318.21
508.865	399.92
509.225	481.63
509.585	479.08
509.945	369.28
510.304	407.58
510.664	382.05
511.024	382.05
511.383	415.24
511.743	458.65
512.102	389.71
512.462	407.58
512.821	458.65
513.18	415.24
513.539	379.5
513.899	366.73
514.258	394.82
514.617	364.18
514.976	405.03
515.335	428.01
515.694	394.82
516.053	389.71
516.412	425.46
516.771	379.5
517.129	435.67
517.488	456.1
517.847	422.9
518.205	466.31
518.564	438.22
518.922	399.92
519.281	420.35
519.639	417.8
519.998	461.2
520.356	450.99
520.714	433.12
521.073	387.16
521.431	384.6
521.789	484.18
522.147	504.61
522.505	417.8
522.863	461.2
523.221	420.35
523.579	443.33
523.937	407.58
524.295	440.78
524.652	387.16
525.01	428.01
525.368	392.26
525.725	420.35
526.083	433.12
526.44	410.14
526.798	328.43
527.155	417.8
527.513	443.33
527.87	422.9
528.227	392.26
528.584	438.22
528.942	425.46
529.299	448.44
529.656	473.97
530.013	428.01
530.37	399.92
530.727	430.56
531.083	502.06
531.44	438.22
531.797	476.52
532.154	412.69
532.511	366.73
532.867	422.9
533.224	450.99
533.58	476.52
533.937	448.44
534.293	389.71
534.65	422.9
535.006	407.58
535.362	461.2
535.718	430.56
536.075	407.58
536.431	387.16
536.787	435.67
537.143	417.8
537.499	468.86
537.855	389.71
538.211	435.67
538.567	379.5
538.923	445.88
539.278	425.46
539.634	397.37
539.99	348.86
540.345	330.98
540.701	415.24
541.056	450.99
541.412	430.56
541.767	417.8
542.123	433.12
542.478	364.18
542.833	392.26
543.188	443.33
543.544	430.56
543.899	433.12
544.254	374.39
544.609	407.58
544.964	382.05
545.319	382.05
545.674	417.8
546.029	389.71
546.383	415.24
546.738	387.16
547.093	371.84
547.447	405.03
547.802	428.01
548.157	425.46
548.511	420.35
548.866	443.33
549.22	359.07
549.574	420.35
549.929	430.56
550.283	458.65
550.637	417.8
550.991	433.12
551.345	397.37
551.699	382.05
552.053	476.52
552.407	415.24
552.761	463.76
553.115	435.67
553.469	422.9
553.823	399.92
554.176	466.31
554.53	453.54
554.884	369.28
555.237	688.45
555.591	484.18
555.944	466.31
556.298	407.58
556.651	397.37
557.005	417.8
557.358	412.69
557.711	410.14
558.064	353.96
558.417	384.6
558.771	471.42
559.124	473.97
559.477	336.09
559.83	374.39
560.182	359.07
560.535	473.97
560.888	412.69
561.241	364.18
561.594	379.5
561.946	412.69
562.299	402.48
562.651	402.48
563.004	435.67
563.356	453.54
563.709	438.22
564.061	407.58
564.413	479.08
564.766	369.28
565.118	407.58
565.47	415.24
565.822	389.71
566.174	353.96
566.526	412.69
566.878	507.16
567.23	399.92
567.582	397.37
567.934	461.2
568.286	458.65
568.638	405.03
568.989	387.16
569.341	450.99
569.693	422.9
570.044	425.46
570.396	318.21
570.747	415.24
571.098	433.12
571.45	428.01
571.801	430.56
572.152	509.72
572.504	364.18
572.855	433.12
573.206	410.14
573.557	443.33
573.908	440.78
574.259	445.88
574.61	397.37
574.961	397.37
575.311	458.65
575.662	366.73
576.013	374.39
576.364	389.71
576.714	405.03
577.065	425.46
577.415	476.52
577.766	461.2
578.116	443.33
578.467	384.6
578.817	425.46
579.167	456.1
579.518	417.8
579.868	458.65
580.218	399.92
580.568	410.14
580.918	415.24
581.268	435.67
581.618	461.2
581.968	417.8
582.318	346.3
582.668	384.6
583.017	410.14
583.367	443.33
583.717	399.92
584.066	405.03
584.416	430.56
584.765	412.69
585.115	366.73
585.464	376.94
585.814	394.82
586.163	412.69
586.512	438.22
586.862	405.03
587.211	410.14
587.56	430.56
587.909	407.58
588.258	364.18
588.607	379.5
588.956	346.3
589.305	412.69
589.654	420.35
590.002	389.71
590.351	417.8
590.7	343.75
591.048	376.94
591.397	407.58
591.746	448.44
592.094	481.63
592.443	440.78
592.791	410.14
593.139	353.96
593.488	394.82
593.836	438.22
594.184	412.69
594.532	453.54
594.88	481.63
595.228	374.39
595.576	379.5
595.924	387.16
596.272	473.97
596.62	494.4
596.968	466.31
597.316	371.84
597.664	466.31
598.011	458.65
598.359	397.37
598.706	405.03
599.054	371.84
599.402	410.14
599.749	384.6
600.096	405.03
600.444	445.88
600.791	489.29
601.138	438.22
601.485	415.24
601.833	425.46
602.18	323.32
602.527	415.24
602.874	476.52
603.221	440.78
603.568	435.67
603.914	445.88
604.261	450.99
604.608	420.35
604.955	443.33
605.301	435.67
605.648	440.78
605.995	417.8
606.341	382.05
606.688	325.87
607.034	425.46
607.38	382.05
607.727	435.67
608.073	366.73
608.419	440.78
608.765	440.78
609.112	412.69
609.458	461.2
609.804	430.56
610.15	422.9
610.496	341.2
610.842	417.8
611.187	433.12
611.533	412.69
611.879	494.4
612.225	428.01
612.57	456.1
612.916	448.44
613.261	453.54
613.607	479.08
613.952	415.24
614.298	333.54
614.643	359.07
614.989	473.97
615.334	410.14
615.679	450.99
616.024	410.14
616.369	448.44
616.714	448.44
617.059	382.05
617.404	433.12
617.749	361.62
618.094	430.56
618.439	476.52
618.784	443.33
619.129	422.9
619.473	448.44
619.818	468.86
620.163	394.82
620.507	417.8
620.852	468.86
621.196	440.78
621.54	461.2
621.885	384.6
622.229	445.88
622.573	425.46
622.918	458.65
623.262	422.9
623.606	399.92
623.95	435.67
624.294	415.24
624.638	399.92
624.982	387.16
625.326	458.65
625.67	471.42
626.013	435.67
626.357	402.48
626.701	430.56
627.044	379.5
627.388	346.3
627.731	405.03
628.075	422.9
628.418	341.2
628.762	407.58
629.105	405.03
629.448	389.71
629.792	376.94
630.135	376.94
630.478	430.56
630.821	476.52
631.164	438.22
631.507	450.99
631.85	394.82
632.193	392.26
632.536	420.35
632.879	399.92
633.221	402.48
633.564	410.14
633.907	397.37
634.249	412.69
634.592	407.58
634.935	387.16
635.277	489.29
635.619	450.99
635.962	325.87
636.304	369.28
636.646	415.24
636.989	410.14
637.331	341.2
637.673	338.64
638.015	412.69
638.357	389.71
638.699	412.69
639.041	412.69
639.383	484.18
639.725	448.44
640.067	443.33
640.408	417.8
640.75	453.54
641.092	392.26
641.433	394.82
641.775	453.54
642.116	425.46
642.458	473.97
642.799	448.44
643.141	466.31
643.482	443.33
643.823	384.6
644.164	366.73
644.506	364.18
644.847	389.71
645.188	397.37
645.529	379.5
645.87	430.56
646.211	348.86
646.552	433.12
646.893	410.14
647.233	407.58
647.574	392.26
647.915	479.08
648.255	438.22
648.596	453.54
648.937	450.99
649.277	402.48
649.618	425.46
649.958	456.1
650.298	397.37
650.639	422.9
650.979	412.69
651.319	410.14
651.659	461.2
651.999	374.39
652.339	366.73
652.679	422.9
653.019	428.01
653.359	361.62
653.699	333.54
654.039	389.71
654.379	341.2
654.719	456.1
655.058	433.12
655.398	394.82
655.737	473.97
656.077	433.12
656.416	343.75
656.756	407.58
657.095	405.03
657.435	325.87
657.774	448.44
658.113	364.18
658.452	415.24
658.792	445.88
659.131	450.99
659.47	364.18
659.809	374.39
660.148	328.43
660.487	369.28
660.826	387.16
661.164	415.24
661.503	364.18
661.842	351.41
662.181	361.62
662.519	389.71
662.858	405.03
663.196	384.6
663.535	382.05
663.873	422.9
664.212	397.37
664.55	415.24
664.888	471.42
665.226	443.33
665.565	402.48
665.903	553.13
666.241	389.71
666.579	448.44
666.917	412.69
667.255	412.69
667.593	433.12
667.931	479.08
668.268	461.2
668.606	438.22
668.944	397.37
669.282	387.16
669.619	425.46
669.957	366.73
670.294	374.39
670.632	394.82
670.969	410.14
671.307	394.82
671.644	359.07
671.981	435.67
672.318	399.92
672.656	356.52
672.993	405.03
673.33	392.26
673.667	420.35
674.004	376.94
674.341	369.28
674.678	471.42
675.015	417.8
675.351	387.16
675.688	379.5
676.025	407.58
676.362	422.9
676.698	353.96
677.035	359.07
677.371	402.48
677.708	450.99
678.044	433.12
678.38	415.24
678.717	402.48
679.053	417.8
679.389	397.37
679.725	407.58
680.062	435.67
680.398	412.69
680.734	461.2
681.07	364.18
681.406	389.71
681.742	399.92
682.077	412.69
682.413	371.84
682.749	364.18
683.085	382.05
683.42	453.54
683.756	479.08
684.091	336.09
684.427	343.75
684.762	402.48
685.098	376.94
685.433	410.14
685.768	364.18
686.104	399.92
686.439	407.58
686.774	430.56
687.109	428.01
687.444	369.28
687.779	407.58
688.114	353.96
688.449	453.54
688.784	420.35
689.119	382.05
689.454	384.6
689.789	369.28
690.123	387.16
690.458	382.05
690.792	371.84
691.127	430.56
691.461	438.22
691.796	425.46
692.13	438.22
692.465	422.9
692.799	417.8
693.133	343.75
693.467	415.24
693.802	353.96
694.136	376.94
694.47	415.24
694.804	415.24
695.138	364.18
695.472	410.14
695.806	430.56
696.139	456.1
696.473	435.67
696.807	353.96
697.141	392.26
697.474	397.37
697.808	456.1
698.141	450.99
698.475	384.6
698.808	428.01
699.142	456.1
699.475	415.24
699.808	448.44
700.142	379.5
700.475	359.07
700.808	425.46
701.141	461.2
701.474	512.27
701.807	330.98
702.14	433.12
702.473	389.71
702.806	366.73
703.139	387.16
703.472	402.48
703.804	407.58
704.137	438.22
704.47	456.1
704.802	359.07
705.135	392.26
705.467	359.07
705.8	440.78
706.132	389.71
706.464	376.94
706.797	443.33
707.129	422.9
707.461	428.01
707.793	387.16
708.125	359.07
708.457	433.12
708.789	422.9
709.121	405.03
709.453	348.86
709.785	412.69
710.117	387.16
710.449	417.8
710.781	389.71
711.112	433.12
711.444	412.69
711.775	374.39
712.107	374.39
712.438	387.16
712.77	417.8
713.101	443.33
713.433	369.28
713.764	425.46
714.095	471.42
714.426	420.35
714.757	433.12
715.089	407.58
715.42	359.07
715.751	397.37
716.082	407.58
716.412	387.16
716.743	399.92
717.074	422.9
717.405	379.5
717.736	353.96
718.066	440.78
718.397	417.8
718.727	448.44
719.058	346.3
719.388	415.24
719.719	407.58
720.049	369.28
720.38	394.82
720.71	415.24
721.04	369.28
721.37	359.07
721.7	392.26
722.031	405.03
722.361	435.67
722.691	422.9
723.021	438.22
723.35	371.84
723.68	415.24
724.01	272.25
724.34	376.94
724.67	394.82
724.999	356.52
725.329	420.35
725.658	405.03
725.988	389.71
726.317	353.96
726.647	348.86
726.976	382.05
727.306	364.18
727.635	371.84
727.964	430.56
728.293	422.9
728.622	438.22
728.952	405.03
729.281	387.16
729.61	438.22
729.939	422.9
730.267	440.78
730.596	435.67
730.925	394.82
731.254	389.71
731.583	448.44
731.911	361.62
732.24	430.56
732.568	343.75
732.897	412.69
733.225	415.24
733.554	387.16
733.882	397.37
734.21	420.35
734.539	412.69
734.867	348.86
735.195	461.2
735.523	364.18
735.851	387.16
736.179	387.16
736.507	428.01
736.835	412.69
737.163	384.6
737.491	323.32
737.819	348.86
738.147	384.6
738.474	392.26
738.802	491.84
739.13	405.03
739.457	402.48
739.785	420.35
740.112	412.69
740.44	458.65
740.767	389.71
741.094	438.22
741.422	428.01
741.749	376.94
742.076	353.96
742.403	484.18
742.73	415.24
743.057	425.46
743.384	435.67
743.711	440.78
744.038	366.73
744.365	450.99
744.692	389.71
745.018	379.5
745.345	422.9
745.672	435.67
745.998	371.84
746.325	361.62
746.651	412.69
746.978	433.12
747.304	445.88
747.631	407.58
747.957	371.84
748.283	376.94
748.61	412.69
748.936	415.24
749.262	481.63
749.588	366.73
749.914	430.56
750.24	371.84
750.566	456.1
750.892	438.22
751.218	379.5
751.543	376.94
751.869	433.12
752.195	384.6
752.521	399.92
752.846	336.09
753.172	369.28
753.497	412.69
753.823	384.6
754.148	392.26
754.473	364.18
754.799	397.37
755.124	422.9
755.449	450.99
755.774	417.8
756.1	343.75
756.425	384.6
756.75	387.16
757.075	438.22
757.4	604.19
757.724	420.35
758.049	364.18
758.374	359.07
758.699	328.43
759.024	325.87
759.348	366.73
759.673	394.82
759.997	397.37
760.322	407.58
760.646	430.56
760.971	430.56
761.295	461.2
761.619	394.82
761.944	440.78
762.268	453.54
762.592	499.5
762.916	504.61
763.24	548.02
763.564	540.36
763.888	535.25
764.212	573.55
764.536	509.72
764.86	507.16
765.184	563.34
765.508	525.04
765.831	565.89
766.155	910.6
766.478	813.57
766.802	897.83
767.126	1076.57
767.449	1250.2
767.772	1592.35
768.096	1600.01
768.419	1467.23
768.742	1418.72
769.066	1301.27
769.389	1237.43
769.712	1043.37
770.035	869.74
770.358	731.86
770.681	851.87
771.004	1015.29
771.327	1265.52
771.65	1617.88
771.972	2028.98
772.295	2496.25
772.618	2664.77
772.941	2978.83
773.263	2894.57
773.586	2927.77
773.908	2766.9
774.231	2524.33
774.553	2161.75
774.875	1801.73
775.198	1426.38
775.52	1283.39
775.842	1250.2
776.164	1538.73
776.487	1980.46
776.809	2672.43
777.131	3208.64
777.453	3553.34
777.775	3964.44
778.096	4454.69
778.418	4475.11
778.74	4201.9
779.062	3755.06
779.384	3298.01
779.705	3001.82
780.027	2608.59
780.348	2026.42
780.67	1554.05
780.991	1523.41
781.313	1809.39
781.634	2455.39
781.955	3093.74
782.277	4360.21
782.598	5519.45
782.919	6336.53
783.24	6775.71
783.561	7079.56
783.882	6992.74
784.203	6791.03
784.524	6060.76
784.845	4625.76
785.166	3650.37
785.487	2764.35
785.807	1962.59
786.128	1602.56
786.449	1395.74
786.769	1796.62
787.09	2488.59
787.41	3665.69
787.731	5552.64
788.051	6977.42
788.372	8243.9
788.692	10235.53
789.012	11088.36
789.332	11190.5
789.653	10963.25
789.973	9916.36
790.293	7883.87
790.613	5751.8
790.933	4163.6
791.253	2981.39
791.573	2013.66
791.893	1554.05
792.212	1490.22
792.532	1834.92
792.852	2692.86
793.171	3563.56
793.491	4528.74
793.811	5777.34
794.13	6415.68
794.45	6681.23
794.769	6711.87
795.088	6954.44
795.408	6379.93
795.727	5984.16
796.046	4952.6
796.365	3900.6
796.684	2830.74
797.004	2085.15
797.323	1523.41
797.642	1227.22
797.96	1462.13
798.279	1811.94
798.598	2475.82
798.917	3532.92
799.236	4457.24
799.554	4993.45
799.873	5524.55
800.192	6571.44
800.51	7166.37
800.829	6949.34
