Data from 2025-12-03_xpw_interference_micrometer_634_FLMS141361__0__050.txt Node

Date: Wed Dec 03 15:48:36 MST 2025
User: james
Spectrometer: FLMS14136
Trigger mode: 0
Integration Time (sec): 1.000000E-1
Scans to average: 1
Electric dark correction enabled: true
Nonlinearity correction enabled: false
Boxcar width: 0
XAxis mode: Wavelengths
Number of Pixels in Spectrum: 2048
>>>>>Begin Spectral Data<<<<<
339.315	-0.96
339.697	-0.96
340.079	-0.96
340.461	-59.69
340.843	-95.43
341.225	-105.65
341.607	-131.18
341.989	-149.05
342.371	-146.5
342.752	-52.03
343.134	-26.49
343.516	-49.47
343.897	50.11
344.279	50.11
344.661	73.09
345.042	29.68
345.423	11.81
345.805	47.56
346.186	88.41
346.567	149.69
346.949	159.91
347.33	221.19
347.711	259.49
348.092	295.23
348.473	167.57
348.854	213.53
349.235	300.34
349.616	325.87
349.997	318.21
350.378	325.87
350.758	297.79
351.139	325.87
351.52	338.64
351.9	405.03
352.281	379.5
352.661	374.39
353.042	359.07
353.422	399.92
353.803	397.37
354.183	445.88
354.563	412.69
354.943	405.03
355.324	399.92
355.704	440.78
356.084	387.16
356.464	443.33
356.844	509.72
357.224	425.46
357.603	466.31
357.983	405.03
358.363	458.65
358.743	364.18
359.122	387.16
359.502	438.22
359.882	417.8
360.261	425.46
360.641	376.94
361.02	374.39
361.399	405.03
361.779	348.86
362.158	402.48
362.537	343.75
362.916	330.98
363.296	412.69
363.675	374.39
364.054	351.41
364.433	320.77
364.812	341.2
365.19	305.45
365.569	402.48
365.948	356.52
366.327	361.62
366.705	392.26
367.084	348.86
367.463	392.26
367.841	338.64
368.22	382.05
368.598	361.62
368.977	359.07
369.355	382.05
369.733	379.5
370.111	376.94
370.49	346.3
370.868	328.43
371.246	382.05
371.624	389.71
372.002	410.14
372.38	379.5
372.758	359.07
373.136	315.66
373.513	313.11
373.891	359.07
374.269	415.24
374.646	425.46
375.024	420.35
375.402	356.52
375.779	379.5
376.157	422.9
376.534	361.62
376.911	399.92
377.289	369.28
377.666	338.64
378.043	371.84
378.42	387.16
378.797	323.32
379.175	410.14
379.552	384.6
379.929	366.73
380.305	430.56
380.682	463.76
381.059	389.71
381.436	346.3
381.813	353.96
382.189	450.99
382.566	402.48
382.943	430.56
383.319	420.35
383.696	382.05
384.072	323.32
384.448	382.05
384.825	405.03
385.201	420.35
385.577	402.48
385.953	330.98
386.329	392.26
386.706	366.73
387.082	364.18
387.458	382.05
387.834	412.69
388.209	402.48
388.585	379.5
388.961	387.16
389.337	387.16
389.713	366.73
390.088	387.16
390.464	379.5
390.839	333.54
391.215	364.18
391.59	379.5
391.966	379.5
392.341	364.18
392.716	382.05
393.092	417.8
393.467	343.75
393.842	328.43
394.217	438.22
394.592	392.26
394.967	405.03
395.342	376.94
395.717	399.92
396.092	353.96
396.467	376.94
396.841	422.9
397.216	384.6
397.591	405.03
397.965	366.73
398.34	399.92
398.714	417.8
399.089	371.84
399.463	422.9
399.838	450.99
400.212	333.54
400.586	328.43
400.961	463.76
401.335	387.16
401.709	420.35
402.083	361.62
402.457	399.92
402.831	417.8
403.205	384.6
403.579	471.42
403.953	433.12
404.326	399.92
404.7	410.14
405.074	392.26
405.447	399.92
405.821	453.54
406.195	425.46
406.568	445.88
406.942	463.76
407.315	456.1
407.688	422.9
408.062	387.16
408.435	407.58
408.808	412.69
409.181	392.26
409.554	382.05
409.927	389.71
410.3	369.28
410.673	428.01
411.046	366.73
411.419	407.58
411.792	420.35
412.165	456.1
412.537	445.88
412.91	430.56
413.283	328.43
413.655	420.35
414.028	412.69
414.4	417.8
414.773	364.18
415.145	440.78
415.517	430.56
415.889	458.65
416.262	405.03
416.634	412.69
417.006	471.42
417.378	456.1
417.75	435.67
418.122	422.9
418.494	433.12
418.866	425.46
419.238	448.44
419.609	397.37
419.981	438.22
420.353	382.05
420.725	392.26
421.096	410.14
421.468	405.03
421.839	466.31
422.211	402.48
422.582	397.37
422.953	415.24
423.325	392.26
423.696	417.8
424.067	392.26
424.438	425.46
424.809	422.9
425.18	489.29
425.551	420.35
425.922	438.22
426.293	433.12
426.664	407.58
427.035	461.2
427.406	445.88
427.776	405.03
428.147	351.41
428.518	445.88
428.888	425.46
429.259	376.94
429.629	397.37
429.999	458.65
430.37	463.76
430.74	392.26
431.11	369.28
431.481	379.5
431.851	430.56
432.221	468.86
432.591	448.44
432.961	353.96
433.331	435.67
433.701	456.1
434.071	445.88
434.441	425.46
434.81	407.58
435.18	376.94
435.55	438.22
435.919	484.18
436.289	494.4
436.658	379.5
437.028	481.63
437.397	394.82
437.767	392.26
438.136	392.26
438.505	425.46
438.875	415.24
439.244	387.16
439.613	453.54
439.982	433.12
440.351	387.16
440.72	468.86
441.089	364.18
441.458	392.26
441.827	453.54
442.196	420.35
442.564	532.7
442.933	402.48
443.302	463.76
443.67	402.48
444.039	476.52
444.407	445.88
444.776	407.58
445.144	402.48
445.513	438.22
445.881	473.97
446.249	361.62
446.617	389.71
446.986	387.16
447.354	445.88
447.722	428.01
448.09	448.44
448.458	430.56
448.826	486.74
449.194	397.37
449.561	394.82
449.929	343.75
450.297	466.31
450.665	433.12
451.032	450.99
451.4	473.97
451.767	443.33
452.135	448.44
452.502	438.22
452.87	394.82
453.237	458.65
453.604	473.97
453.971	476.52
454.339	491.84
454.706	407.58
455.073	425.46
455.44	438.22
455.807	397.37
456.174	369.28
456.541	384.6
456.908	443.33
457.274	389.71
457.641	425.46
458.008	450.99
458.374	433.12
458.741	458.65
459.108	435.67
459.474	428.01
459.841	430.56
460.207	438.22
460.573	445.88
460.94	448.44
461.306	450.99
461.672	466.31
462.038	440.78
462.404	397.37
462.771	405.03
463.137	491.84
463.503	438.22
463.868	410.14
464.234	435.67
464.6	412.69
464.966	405.03
465.332	410.14
465.697	359.07
466.063	412.69
466.429	514.82
466.794	443.33
467.16	476.52
467.525	425.46
467.89	428.01
468.256	463.76
468.621	453.54
468.986	428.01
469.351	407.58
469.717	389.71
470.082	448.44
470.447	397.37
470.812	399.92
471.177	450.99
471.542	399.92
471.906	466.31
472.271	374.39
472.636	415.24
473.001	405.03
473.365	405.03
473.73	361.62
474.094	387.16
474.459	392.26
474.823	453.54
475.188	499.5
475.552	448.44
475.917	466.31
476.281	489.29
476.645	428.01
477.009	481.63
477.373	425.46
477.737	453.54
478.101	369.28
478.465	440.78
478.829	502.06
479.193	458.65
479.557	458.65
479.921	445.88
480.284	466.31
480.648	405.03
481.012	348.86
481.375	420.35
481.739	387.16
482.102	453.54
482.466	489.29
482.829	542.91
483.193	450.99
483.556	507.16
483.919	417.8
484.282	461.2
484.645	430.56
485.009	466.31
485.372	402.48
485.735	476.52
486.098	410.14
486.46	384.6
486.823	382.05
487.186	438.22
487.549	438.22
487.912	394.82
488.274	361.62
488.637	422.9
488.999	425.46
489.362	456.1
489.724	412.69
490.087	433.12
490.449	458.65
490.811	448.44
491.174	402.48
491.536	422.9
491.898	479.08
492.26	430.56
492.622	425.46
492.984	402.48
493.346	453.54
493.708	394.82
494.07	405.03
494.432	417.8
494.794	428.01
495.155	366.73
495.517	382.05
495.879	438.22
496.24	415.24
496.602	445.88
496.963	522.48
497.325	499.5
497.686	491.84
498.048	438.22
498.409	422.9
498.77	425.46
499.131	461.2
499.492	456.1
499.854	420.35
500.215	382.05
500.576	479.08
500.937	415.24
501.298	412.69
501.658	461.2
502.019	428.01
502.38	486.74
502.741	453.54
503.101	412.69
503.462	456.1
503.823	410.14
504.183	382.05
504.543	448.44
504.904	407.58
505.264	412.69
505.625	435.67
505.985	407.58
506.345	394.82
506.705	415.24
507.065	448.44
507.426	448.44
507.786	415.24
508.146	504.61
508.505	422.9
508.865	476.52
509.225	389.71
509.585	479.08
509.945	453.54
510.304	387.16
510.664	402.48
511.024	415.24
511.383	430.56
511.743	453.54
512.102	389.71
512.462	351.41
512.821	448.44
513.18	430.56
513.539	463.76
513.899	471.42
514.258	438.22
514.617	430.56
514.976	420.35
515.335	443.33
515.694	420.35
516.053	405.03
516.412	466.31
516.771	461.2
517.129	422.9
517.488	445.88
517.847	397.37
518.205	387.16
518.564	527.59
518.922	438.22
519.281	438.22
519.639	410.14
519.998	415.24
520.356	433.12
520.714	394.82
521.073	512.27
521.431	502.06
521.789	448.44
522.147	417.8
522.505	463.76
522.863	450.99
523.221	425.46
523.579	420.35
523.937	435.67
524.295	417.8
524.652	410.14
525.01	448.44
525.368	420.35
525.725	407.58
526.083	405.03
526.44	389.71
526.798	369.28
527.155	440.78
527.513	364.18
527.87	453.54
528.227	405.03
528.584	435.67
528.942	476.52
529.299	473.97
529.656	422.9
530.013	387.16
530.37	422.9
530.727	448.44
531.083	422.9
531.44	443.33
531.797	415.24
532.154	422.9
532.511	379.5
532.867	392.26
533.224	458.65
533.58	479.08
533.937	412.69
534.293	369.28
534.65	366.73
535.006	415.24
535.362	425.46
535.718	443.33
536.075	384.6
536.431	379.5
536.787	397.37
537.143	387.16
537.499	417.8
537.855	433.12
538.211	420.35
538.567	405.03
538.923	456.1
539.278	440.78
539.634	412.69
539.99	471.42
540.345	443.33
540.701	356.52
541.056	425.46
541.412	376.94
541.767	318.21
542.123	448.44
542.478	389.71
542.833	448.44
543.188	394.82
543.544	405.03
543.899	430.56
544.254	435.67
544.609	456.1
544.964	443.33
545.319	468.86
545.674	364.18
546.029	468.86
546.383	453.54
546.738	468.86
547.093	399.92
547.447	448.44
547.802	496.95
548.157	453.54
548.511	425.46
548.866	425.46
549.22	435.67
549.574	428.01
549.929	443.33
550.283	366.73
550.637	479.08
550.991	463.76
551.345	466.31
551.699	417.8
552.053	481.63
552.407	379.5
552.761	382.05
553.115	412.69
553.469	450.99
553.823	496.95
554.176	445.88
554.53	412.69
554.884	438.22
555.237	650.15
555.591	433.12
555.944	412.69
556.298	453.54
556.651	389.71
557.005	438.22
557.358	443.33
557.711	428.01
558.064	473.97
558.417	450.99
558.771	522.48
559.124	484.18
559.477	410.14
559.83	351.41
560.182	415.24
560.535	476.52
560.888	433.12
561.241	420.35
561.594	428.01
561.946	417.8
562.299	453.54
562.651	463.76
563.004	440.78
563.356	461.2
563.709	374.39
564.061	407.58
564.413	402.48
564.766	527.59
565.118	399.92
565.47	376.94
565.822	384.6
566.174	433.12
566.526	417.8
566.878	420.35
567.23	430.56
567.582	412.69
567.934	489.29
568.286	456.1
568.638	461.2
568.989	445.88
569.341	453.54
569.693	435.67
570.044	443.33
570.396	456.1
570.747	397.37
571.098	422.9
571.45	428.01
571.801	387.16
572.152	392.26
572.504	471.42
572.855	376.94
573.206	394.82
573.557	450.99
573.908	484.18
574.259	481.63
574.61	517.38
574.961	412.69
575.311	486.74
575.662	438.22
576.013	415.24
576.364	484.18
576.714	463.76
577.065	428.01
577.415	445.88
577.766	417.8
578.116	366.73
578.467	402.48
578.817	420.35
579.167	382.05
579.518	461.2
579.868	389.71
580.218	417.8
580.568	461.2
580.918	397.37
581.268	399.92
581.618	466.31
581.968	466.31
582.318	527.59
582.668	420.35
583.017	425.46
583.367	392.26
583.717	428.01
584.066	448.44
584.416	456.1
584.765	402.48
585.115	376.94
585.464	405.03
585.814	389.71
586.163	417.8
586.512	376.94
586.862	415.24
587.211	433.12
587.56	420.35
587.909	456.1
588.258	471.42
588.607	428.01
588.956	428.01
589.305	486.74
589.654	422.9
590.002	425.46
590.351	435.67
590.7	430.56
591.048	438.22
591.397	458.65
591.746	443.33
592.094	417.8
592.443	405.03
592.791	491.84
593.139	410.14
593.488	433.12
593.836	430.56
594.184	453.54
594.532	517.38
594.88	507.16
595.228	428.01
595.576	420.35
595.924	504.61
596.272	356.52
596.62	371.84
596.968	384.6
597.316	343.75
597.664	392.26
598.011	369.28
598.359	371.84
598.706	473.97
599.054	453.54
599.402	443.33
599.749	440.78
600.096	412.69
600.444	433.12
600.791	428.01
601.138	438.22
601.485	389.71
601.833	341.2
602.18	366.73
602.527	364.18
602.874	394.82
603.221	425.46
603.568	458.65
603.914	450.99
604.261	382.05
604.608	448.44
604.955	433.12
605.301	491.84
605.648	435.67
605.995	428.01
606.341	450.99
606.688	412.69
607.034	399.92
607.38	443.33
607.727	461.2
608.073	420.35
608.419	438.22
608.765	394.82
609.112	392.26
609.458	394.82
609.804	450.99
610.15	384.6
610.496	438.22
610.842	412.69
611.187	392.26
611.533	374.39
611.879	468.86
612.225	338.64
612.57	402.48
612.916	514.82
613.261	443.33
613.607	445.88
613.952	481.63
614.298	458.65
614.643	397.37
614.989	330.98
615.334	443.33
615.679	389.71
616.024	456.1
616.369	517.38
616.714	484.18
617.059	371.84
617.404	415.24
617.749	468.86
618.094	361.62
618.439	361.62
618.784	448.44
619.129	463.76
619.473	435.67
619.818	412.69
620.163	387.16
620.507	415.24
620.852	371.84
621.196	438.22
621.54	463.76
621.885	435.67
622.229	392.26
622.573	382.05
622.918	496.95
623.262	417.8
623.606	407.58
623.95	448.44
624.294	422.9
624.638	387.16
624.982	471.42
625.326	364.18
625.67	430.56
626.013	438.22
626.357	379.5
626.701	389.71
627.044	428.01
627.388	384.6
627.731	394.82
628.075	389.71
628.418	430.56
628.762	440.78
629.105	397.37
629.448	397.37
629.792	445.88
630.135	471.42
630.478	512.27
630.821	476.52
631.164	374.39
631.507	422.9
631.85	517.38
632.193	471.42
632.536	417.8
632.879	376.94
633.221	376.94
633.564	428.01
633.907	456.1
634.249	420.35
634.592	399.92
634.935	476.52
635.277	343.75
635.619	468.86
635.962	425.46
636.304	405.03
636.646	376.94
636.989	397.37
637.331	415.24
637.673	448.44
638.015	397.37
638.357	420.35
638.699	425.46
639.041	402.48
639.383	450.99
639.725	353.96
640.067	364.18
640.408	412.69
640.75	407.58
641.092	389.71
641.433	463.76
641.775	407.58
642.116	458.65
642.458	369.28
642.799	425.46
643.141	428.01
643.482	440.78
643.823	399.92
644.164	389.71
644.506	494.4
644.847	420.35
645.188	359.07
645.529	369.28
645.87	425.46
646.211	463.76
646.552	374.39
646.893	461.2
647.233	430.56
647.574	468.86
647.915	453.54
648.255	402.48
648.596	435.67
648.937	420.35
649.277	399.92
649.618	438.22
649.958	504.61
650.298	392.26
650.639	389.71
650.979	450.99
651.319	425.46
651.659	366.73
651.999	371.84
652.339	430.56
652.679	399.92
653.019	402.48
653.359	435.67
653.699	330.98
654.039	374.39
654.379	384.6
654.719	433.12
655.058	433.12
655.398	443.33
655.737	473.97
656.077	463.76
656.416	382.05
656.756	463.76
657.095	453.54
657.435	361.62
657.774	392.26
658.113	458.65
658.452	463.76
658.792	407.58
659.131	407.58
659.47	422.9
659.809	415.24
660.148	397.37
660.487	420.35
660.826	456.1
661.164	463.76
661.503	428.01
661.842	450.99
662.181	512.27
662.519	458.65
662.858	417.8
663.196	410.14
663.535	481.63
663.873	440.78
664.212	399.92
664.55	420.35
664.888	410.14
665.226	450.99
665.565	456.1
665.903	614.41
666.241	425.46
666.579	420.35
666.917	440.78
667.255	484.18
667.593	359.07
667.931	463.76
668.268	399.92
668.606	405.03
668.944	428.01
669.282	374.39
669.619	443.33
669.957	450.99
670.294	479.08
670.632	369.28
670.969	336.09
671.307	438.22
671.644	399.92
671.981	420.35
672.318	410.14
672.656	440.78
672.993	466.31
673.33	389.71
673.667	486.74
674.004	415.24
674.341	379.5
674.678	438.22
675.015	450.99
675.351	422.9
675.688	443.33
676.025	456.1
676.362	394.82
676.698	425.46
677.035	499.5
677.371	387.16
677.708	382.05
678.044	433.12
678.38	407.58
678.717	399.92
679.053	440.78
679.389	479.08
679.725	468.86
680.062	430.56
680.398	405.03
680.734	389.71
681.07	445.88
681.406	461.2
681.742	420.35
682.077	351.41
682.413	435.67
682.749	402.48
683.085	405.03
683.42	394.82
683.756	387.16
684.091	519.93
684.427	473.97
684.762	443.33
685.098	458.65
685.433	425.46
685.768	369.28
686.104	443.33
686.439	392.26
686.774	471.42
687.109	407.58
687.444	399.92
687.779	371.84
688.114	428.01
688.449	456.1
688.784	415.24
689.119	369.28
689.454	407.58
689.789	353.96
690.123	351.41
690.458	438.22
690.792	430.56
691.127	466.31
691.461	382.05
691.796	376.94
692.13	415.24
692.465	399.92
692.799	417.8
693.133	402.48
693.467	476.52
693.802	417.8
694.136	450.99
694.47	425.46
694.804	494.4
695.138	453.54
695.472	410.14
695.806	415.24
696.139	366.73
696.473	458.65
696.807	422.9
697.141	379.5
697.474	402.48
697.808	389.71
698.141	364.18
698.475	397.37
698.808	415.24
699.142	417.8
699.475	399.92
699.808	463.76
700.142	399.92
700.475	387.16
700.808	415.24
701.141	450.99
701.474	473.97
701.807	440.78
702.14	466.31
702.473	371.84
702.806	405.03
703.139	376.94
703.472	374.39
703.804	417.8
704.137	438.22
704.47	438.22
704.802	415.24
705.135	371.84
705.467	425.46
705.8	445.88
706.132	415.24
706.464	320.77
706.797	387.16
707.129	407.58
707.461	315.66
707.793	397.37
708.125	397.37
708.457	399.92
708.789	435.67
709.121	435.67
709.453	466.31
709.785	450.99
710.117	425.46
710.449	422.9
710.781	387.16
711.112	443.33
711.444	440.78
711.775	443.33
712.107	433.12
712.438	374.39
712.77	443.33
713.101	430.56
713.433	366.73
713.764	376.94
714.095	361.62
714.426	371.84
714.757	456.1
715.089	399.92
715.42	450.99
715.751	428.01
716.082	422.9
716.412	392.26
716.743	435.67
717.074	394.82
717.405	430.56
717.736	397.37
718.066	438.22
718.397	448.44
718.727	443.33
719.058	435.67
719.388	450.99
719.719	384.6
720.049	410.14
720.38	473.97
720.71	402.48
721.04	405.03
721.37	443.33
721.7	415.24
722.031	351.41
722.361	361.62
722.691	443.33
723.021	443.33
723.35	412.69
723.68	443.33
724.01	473.97
724.34	479.08
724.67	422.9
724.999	443.33
725.329	484.18
725.658	468.86
725.988	456.1
726.317	402.48
726.647	397.37
726.976	397.37
727.306	415.24
727.635	504.61
727.964	428.01
728.293	394.82
728.622	369.28
728.952	448.44
729.281	438.22
729.61	450.99
729.939	366.73
730.267	440.78
730.596	410.14
730.925	430.56
731.254	338.64
731.583	415.24
731.911	430.56
732.24	379.5
732.568	405.03
732.897	445.88
733.225	325.87
733.554	420.35
733.882	399.92
734.21	402.48
734.539	417.8
734.867	415.24
735.195	379.5
735.523	369.28
735.851	463.76
736.179	450.99
736.507	433.12
736.835	450.99
737.163	502.06
737.491	397.37
737.819	379.5
738.147	387.16
738.474	389.71
738.802	517.38
739.13	430.56
739.457	399.92
739.785	389.71
740.112	374.39
740.44	346.3
740.767	343.75
741.094	405.03
741.422	353.96
741.749	387.16
742.076	384.6
742.403	320.77
742.73	438.22
743.057	438.22
743.384	399.92
743.711	422.9
744.038	422.9
744.365	491.84
744.692	394.82
745.018	308
745.345	438.22
745.672	499.5
745.998	435.67
746.325	397.37
746.651	440.78
746.978	394.82
747.304	374.39
747.631	479.08
747.957	456.1
748.283	430.56
748.61	412.69
748.936	341.2
749.262	369.28
749.588	407.58
749.914	491.84
750.24	433.12
750.566	443.33
750.892	425.46
751.218	384.6
751.543	379.5
751.869	438.22
752.195	361.62
752.521	428.01
752.846	443.33
753.172	466.31
753.497	471.42
753.823	387.16
754.148	420.35
754.473	433.12
754.799	356.52
755.124	430.56
755.449	415.24
755.774	476.52
756.1	366.73
756.425	430.56
756.75	394.82
757.075	433.12
757.4	504.61
757.724	415.24
758.049	466.31
758.374	428.01
758.699	422.9
759.024	443.33
759.348	448.44
759.673	407.58
759.997	456.1
760.322	499.5
760.646	428.01
760.971	435.67
761.295	425.46
761.619	484.18
761.944	399.92
762.268	461.2
762.592	591.43
762.916	565.89
763.24	550.57
763.564	588.87
763.888	573.55
764.212	650.15
764.536	586.32
764.86	512.27
765.184	571
765.508	548.02
765.831	611.85
766.155	867.19
766.478	849.32
766.802	854.42
767.126	1020.39
767.449	1268.07
767.772	1564.26
768.096	1543.84
768.419	1515.75
768.742	1405.95
769.066	1242.54
769.389	1181.26
769.712	1068.91
770.035	872.3
770.358	856.98
770.681	841.66
771.004	1005.07
771.327	1291.05
771.65	1633.2
771.972	1972.8
772.295	2363.47
772.618	2634.13
772.941	2940.53
773.263	2851.17
773.586	2784.78
773.908	2588.17
774.231	2452.84
774.553	1993.23
774.875	1600.01
775.198	1285.95
775.52	1107.21
775.842	1303.82
776.164	1538.73
776.487	2082.6
776.809	2524.33
777.131	3216.3
777.453	3803.58
777.775	3961.89
778.096	4393.41
778.418	4357.66
778.74	3959.33
779.062	3425.68
779.384	3075.86
779.705	2769.46
780.027	2368.58
780.348	1883.44
780.67	1474.89
780.991	1477.45
781.313	1891.1
781.634	2427.3
781.955	3267.37
782.277	4186.58
782.598	5539.87
782.919	6180.77
783.24	6734.85
783.561	6992.74
783.882	6921.25
784.203	6499.94
784.524	5664.99
784.845	4564.48
785.166	3287.79
785.487	2521.78
785.807	1924.29
786.128	1372.76
786.449	1385.53
786.769	1794.07
787.09	2468.16
787.41	3803.58
787.731	5590.94
788.051	7174.03
788.372	8317.95
788.692	9701.88
789.012	10881.54
789.332	10682.38
789.653	10386.18
789.973	9538.46
790.293	7401.29
790.613	5259
790.933	3795.92
791.253	2677.54
791.573	1911.52
791.893	1505.54
792.212	1436.59
792.532	1914.08
792.852	2631.58
793.171	3632.5
793.491	4498.09
793.811	5504.13
794.13	6300.78
794.45	6586.76
794.769	6453.98
795.088	6556.12
795.408	6027.57
795.727	5726.27
796.046	4597.68
796.365	3652.93
796.684	2657.11
797.004	1926.84
797.323	1403.4
797.642	1298.71
797.96	1362.55
798.279	1977.91
798.598	2654.56
798.917	3737.19
799.236	4470.01
799.554	4875.99
799.873	5493.91
800.192	6385.04
800.51	7151.05
