Data from 2025-12-03_xpw_interference_micrometer_634_FLMS141361__95__145.txt Node

Date: Wed Dec 03 15:48:46 MST 2025
User: james
Spectrometer: FLMS14136
Trigger mode: 0
Integration Time (sec): 1.000000E-1
Scans to average: 1
Electric dark correction enabled: true
Nonlinearity correction enabled: false
Boxcar width: 0
XAxis mode: Wavelengths
Number of Pixels in Spectrum: 2048
>>>>>Begin Spectral Data<<<<<
339.315	-84.1
339.697	-84.1
340.079	-84.1
340.461	-63.67
340.843	-30.48
341.225	-114.74
341.607	-147.94
341.989	-112.19
342.371	-124.96
342.752	-71.33
343.134	-27.93
343.516	18.03
343.897	-35.59
344.279	-7.5
344.661	25.69
345.042	35.91
345.423	84.42
345.805	74.21
346.186	102.29
346.567	109.95
346.949	191.66
347.33	117.61
347.711	158.47
348.092	204.43
348.473	232.52
348.854	273.37
349.235	201.88
349.616	247.84
349.997	301.46
350.378	375.51
350.758	324.44
351.139	298.9
351.52	352.53
351.9	375.51
352.281	329.55
352.661	293.8
353.042	321.89
353.422	406.15
353.803	426.57
354.183	378.06
354.563	360.19
354.943	339.76
355.324	329.55
355.704	380.61
356.084	413.81
356.464	367.85
356.844	393.38
357.224	372.95
357.603	398.49
357.983	411.25
358.363	424.02
358.743	406.15
359.122	339.76
359.502	388.27
359.882	383.17
360.261	406.15
360.641	293.8
361.02	352.53
361.399	444.45
361.779	401.04
362.158	375.51
362.537	390.83
362.916	309.12
363.296	319.33
363.675	372.95
364.054	355.08
364.433	357.63
364.812	291.24
365.19	408.7
365.569	416.36
365.948	385.72
366.327	316.78
366.705	293.8
367.084	316.78
367.463	395.93
367.841	288.69
368.22	372.95
368.598	380.61
368.977	357.63
369.355	304.01
369.733	342.31
370.111	298.9
370.49	383.17
370.868	378.06
371.246	334.65
371.624	401.04
372.002	367.85
372.38	360.19
372.758	352.53
373.136	365.29
373.513	347.42
373.891	316.78
374.269	321.89
374.646	406.15
375.024	365.29
375.402	398.49
375.779	408.7
376.157	390.83
376.534	401.04
376.911	441.89
377.289	362.74
377.666	342.31
378.043	378.06
378.42	403.59
378.797	301.46
379.175	380.61
379.552	329.55
379.929	408.7
380.305	355.08
380.682	390.83
381.059	357.63
381.436	357.63
381.813	403.59
382.189	370.4
382.566	424.02
382.943	388.27
383.319	337.21
383.696	370.4
384.072	296.35
384.448	380.61
384.825	332.1
385.201	393.38
385.577	408.7
385.953	398.49
386.329	403.59
386.706	395.93
387.082	457.21
387.458	413.81
387.834	429.13
388.209	380.61
388.585	380.61
388.961	385.72
389.337	334.65
389.713	388.27
390.088	347.42
390.464	332.1
390.839	329.55
391.215	370.4
391.59	434.23
391.966	378.06
392.341	385.72
392.716	403.59
393.092	388.27
393.467	349.97
393.842	413.81
394.217	329.55
394.592	365.29
394.967	429.13
395.342	388.27
395.717	375.51
396.092	316.78
396.467	339.76
396.841	367.85
397.216	357.63
397.591	380.61
397.965	403.59
398.34	439.34
398.714	342.31
399.089	383.17
399.463	372.95
399.838	447
400.212	332.1
400.586	309.12
400.961	395.93
401.335	395.93
401.709	370.4
402.083	365.29
402.457	424.02
402.831	401.04
403.205	411.25
403.579	403.59
403.953	375.51
404.326	406.15
404.7	383.17
405.074	418.91
405.447	416.36
405.821	416.36
406.195	380.61
406.568	344.87
406.942	378.06
407.315	436.79
407.688	380.61
408.062	464.87
408.435	416.36
408.808	408.7
409.181	375.51
409.554	372.95
409.927	395.93
410.3	375.51
410.673	413.81
411.046	447
411.419	401.04
411.792	416.36
412.165	380.61
412.537	411.25
412.91	344.87
413.283	326.99
413.655	293.8
414.028	413.81
414.4	444.45
414.773	406.15
415.145	378.06
415.517	339.76
415.889	339.76
416.262	401.04
416.634	416.36
417.006	342.31
417.378	352.53
417.75	332.1
418.122	378.06
418.494	406.15
418.866	344.87
419.238	385.72
419.609	462.32
419.981	372.95
420.353	411.25
420.725	375.51
421.096	395.93
421.468	424.02
421.839	431.68
422.211	372.95
422.582	411.25
422.953	385.72
423.325	380.61
423.696	408.7
424.067	339.76
424.438	403.59
424.809	401.04
425.18	388.27
425.551	378.06
425.922	383.17
426.293	309.12
426.664	383.17
427.035	413.81
427.406	449.55
427.776	462.32
428.147	352.53
428.518	349.97
428.888	401.04
429.259	424.02
429.629	439.34
429.999	452.11
430.37	413.81
430.74	357.63
431.11	411.25
431.481	408.7
431.851	424.02
432.221	421.47
432.591	378.06
432.961	342.31
433.331	372.95
433.701	431.68
434.071	367.85
434.441	383.17
434.81	441.89
435.18	406.15
435.55	362.74
435.919	398.49
436.289	406.15
436.658	362.74
437.028	395.93
437.397	355.08
437.767	352.53
438.136	344.87
438.505	406.15
438.875	344.87
439.244	416.36
439.613	390.83
439.982	401.04
440.351	416.36
440.72	416.36
441.089	447
441.458	459.77
441.827	454.66
442.196	370.4
442.564	487.85
442.933	416.36
443.302	469.98
443.67	426.57
444.039	424.02
444.407	416.36
444.776	355.08
445.144	439.34
445.513	416.36
445.881	406.15
446.249	375.51
446.617	385.72
446.986	403.59
447.354	467.43
447.722	401.04
448.09	401.04
448.458	334.65
448.826	452.11
449.194	452.11
449.561	418.91
449.929	311.67
450.297	370.4
450.665	398.49
451.032	403.59
451.4	372.95
451.767	457.21
452.135	424.02
452.502	408.7
452.87	406.15
453.237	349.97
453.604	395.93
453.971	467.43
454.339	459.77
454.706	324.44
455.073	454.66
455.44	385.72
455.807	452.11
456.174	469.98
456.541	447
456.908	385.72
457.274	447
457.641	378.06
458.008	439.34
458.374	385.72
458.741	447
459.108	406.15
459.474	367.85
459.841	398.49
460.207	416.36
460.573	431.68
460.94	375.51
461.306	439.34
461.672	408.7
462.038	406.15
462.404	454.66
462.771	436.79
463.137	403.59
463.503	429.13
463.868	441.89
464.234	349.97
464.6	436.79
464.966	360.19
465.332	449.55
465.697	367.85
466.063	347.42
466.429	426.57
466.794	388.27
467.16	429.13
467.525	459.77
467.89	418.91
468.256	487.85
468.621	383.17
468.986	429.13
469.351	388.27
469.717	424.02
470.082	477.64
470.447	370.4
470.812	388.27
471.177	372.95
471.542	411.25
471.906	431.68
472.271	388.27
472.636	429.13
473.001	467.43
473.365	424.02
473.73	398.49
474.094	403.59
474.459	398.49
474.823	457.21
475.188	406.15
475.552	398.49
475.917	467.43
476.281	439.34
476.645	462.32
477.009	487.85
477.373	378.06
477.737	426.57
478.101	490.41
478.465	413.81
478.829	401.04
479.193	413.81
479.557	365.29
479.921	383.17
480.284	441.89
480.648	393.38
481.012	462.32
481.375	472.53
481.739	395.93
482.102	454.66
482.466	441.89
482.829	429.13
483.193	403.59
483.556	487.85
483.919	426.57
484.282	480.19
484.645	403.59
485.009	416.36
485.372	375.51
485.735	441.89
486.098	469.98
486.46	411.25
486.823	401.04
487.186	431.68
487.549	393.38
487.912	326.99
488.274	418.91
488.637	372.95
488.999	378.06
489.362	426.57
489.724	434.23
490.087	429.13
490.449	406.15
490.811	398.49
491.174	395.93
491.536	441.89
491.898	439.34
492.26	452.11
492.622	454.66
492.984	395.93
493.346	378.06
493.708	347.42
494.07	398.49
494.432	411.25
494.794	426.57
495.155	342.31
495.517	418.91
495.879	413.81
496.24	424.02
496.602	385.72
496.963	375.51
497.325	408.7
497.686	457.21
498.048	406.15
498.409	436.79
498.77	411.25
499.131	408.7
499.492	390.83
499.854	416.36
500.215	370.4
500.576	367.85
500.937	337.21
501.298	383.17
501.658	401.04
502.019	418.91
502.38	352.53
502.741	347.42
503.101	390.83
503.462	403.59
503.823	383.17
504.183	436.79
504.543	408.7
504.904	403.59
505.264	370.4
505.625	365.29
505.985	416.36
506.345	418.91
506.705	431.68
507.065	388.27
507.426	492.96
507.786	421.47
508.146	372.95
508.505	424.02
508.865	429.13
509.225	378.06
509.585	454.66
509.945	416.36
510.304	355.08
510.664	372.95
511.024	362.74
511.383	324.44
511.743	380.61
512.102	411.25
512.462	431.68
512.821	447
513.18	390.83
513.539	418.91
513.899	454.66
514.258	424.02
514.617	380.61
514.976	388.27
515.335	403.59
515.694	385.72
516.053	431.68
516.412	418.91
516.771	454.66
517.129	401.04
517.488	375.51
517.847	408.7
518.205	398.49
518.564	395.93
518.922	393.38
519.281	416.36
519.639	408.7
519.998	418.91
520.356	411.25
520.714	390.83
521.073	375.51
521.431	403.59
521.789	403.59
522.147	418.91
522.505	495.51
522.863	370.4
523.221	436.79
523.579	462.32
523.937	434.23
524.295	441.89
524.652	383.17
525.01	426.57
525.368	449.55
525.725	411.25
526.083	413.81
526.44	426.57
526.798	441.89
527.155	388.27
527.513	378.06
527.87	401.04
528.227	360.19
528.584	352.53
528.942	449.55
529.299	388.27
529.656	449.55
530.013	429.13
530.37	477.64
530.727	378.06
531.083	367.85
531.44	378.06
531.797	418.91
532.154	401.04
532.511	469.98
532.867	403.59
533.224	362.74
533.58	439.34
533.937	403.59
534.293	429.13
534.65	426.57
535.006	401.04
535.362	439.34
535.718	375.51
536.075	434.23
536.431	360.19
536.787	393.38
537.143	424.02
537.499	411.25
537.855	426.57
538.211	357.63
538.567	365.29
538.923	385.72
539.278	449.55
539.634	365.29
539.99	393.38
540.345	416.36
540.701	401.04
541.056	418.91
541.412	416.36
541.767	355.08
542.123	421.47
542.478	408.7
542.833	388.27
543.188	426.57
543.544	406.15
543.899	439.34
544.254	434.23
544.609	383.17
544.964	467.43
545.319	365.29
545.674	393.38
546.029	431.68
546.383	523.6
546.738	406.15
547.093	477.64
547.447	416.36
547.802	424.02
548.157	480.19
548.511	370.4
548.866	421.47
549.22	416.36
549.574	441.89
549.929	413.81
550.283	429.13
550.637	418.91
550.991	390.83
551.345	449.55
551.699	395.93
552.053	454.66
552.407	372.95
552.761	398.49
553.115	383.17
553.469	395.93
553.823	401.04
554.176	339.76
554.53	372.95
554.884	370.4
555.237	707.45
555.591	475.09
555.944	469.98
556.298	431.68
556.651	541.48
557.005	439.34
557.358	447
557.711	429.13
558.064	388.27
558.417	393.38
558.771	531.26
559.124	457.21
559.477	398.49
559.83	449.55
560.182	390.83
560.535	510.84
560.888	416.36
561.241	342.31
561.594	444.45
561.946	388.27
562.299	413.81
562.651	365.29
563.004	385.72
563.356	436.79
563.709	434.23
564.061	416.36
564.413	401.04
564.766	395.93
565.118	411.25
565.47	447
565.822	395.93
566.174	362.74
566.526	467.43
566.878	429.13
567.23	411.25
567.582	426.57
567.934	421.47
568.286	375.51
568.638	449.55
568.989	408.7
569.341	452.11
569.693	378.06
570.044	447
570.396	413.81
570.747	367.85
571.098	413.81
571.45	464.87
571.801	355.08
572.152	298.9
572.504	383.17
572.855	349.97
573.206	441.89
573.557	395.93
573.908	388.27
574.259	365.29
574.61	347.42
574.961	357.63
575.311	457.21
575.662	495.51
576.013	421.47
576.364	459.77
576.714	403.59
577.065	360.19
577.415	416.36
577.766	347.42
578.116	418.91
578.467	365.29
578.817	475.09
579.167	355.08
579.518	378.06
579.868	388.27
580.218	416.36
580.568	349.97
580.918	447
581.268	342.31
581.618	424.02
581.968	411.25
582.318	388.27
582.668	457.21
583.017	406.15
583.367	421.47
583.717	403.59
584.066	429.13
584.416	385.72
584.765	406.15
585.115	388.27
585.464	401.04
585.814	403.59
586.163	395.93
586.512	401.04
586.862	388.27
587.211	367.85
587.56	390.83
587.909	416.36
588.258	393.38
588.607	418.91
588.956	444.45
589.305	408.7
589.654	411.25
590.002	441.89
590.351	413.81
590.7	401.04
591.048	413.81
591.397	362.74
591.746	388.27
592.094	380.61
592.443	444.45
592.791	447
593.139	452.11
593.488	383.17
593.836	347.42
594.184	436.79
594.532	401.04
594.88	439.34
595.228	395.93
595.576	429.13
595.924	431.68
596.272	434.23
596.62	424.02
596.968	503.18
597.316	434.23
597.664	367.85
598.011	370.4
598.359	365.29
598.706	459.77
599.054	426.57
599.402	332.1
599.749	388.27
600.096	324.44
600.444	388.27
600.791	477.64
601.138	416.36
601.485	378.06
601.833	411.25
602.18	378.06
602.527	467.43
602.874	477.64
603.221	413.81
603.568	362.74
603.914	352.53
604.261	452.11
604.608	447
604.955	426.57
605.301	390.83
605.648	385.72
605.995	464.87
606.341	385.72
606.688	401.04
607.034	332.1
607.38	436.79
607.727	406.15
608.073	472.53
608.419	418.91
608.765	395.93
609.112	406.15
609.458	411.25
609.804	398.49
610.15	378.06
610.496	441.89
610.842	441.89
611.187	393.38
611.533	424.02
611.879	429.13
612.225	352.53
612.57	393.38
612.916	375.51
613.261	457.21
613.607	434.23
613.952	441.89
614.298	452.11
614.643	426.57
614.989	467.43
615.334	380.61
615.679	439.34
616.024	418.91
616.369	406.15
616.714	421.47
617.059	403.59
617.404	347.42
617.749	388.27
618.094	426.57
618.439	403.59
618.784	390.83
619.129	429.13
619.473	372.95
619.818	375.51
620.163	355.08
620.507	449.55
620.852	393.38
621.196	467.43
621.54	411.25
621.885	411.25
622.229	434.23
622.573	339.76
622.918	447
623.262	398.49
623.606	469.98
623.95	431.68
624.294	372.95
624.638	349.97
624.982	357.63
625.326	434.23
625.67	393.38
626.013	401.04
626.357	454.66
626.701	459.77
627.044	395.93
627.388	390.83
627.731	398.49
628.075	360.19
628.418	444.45
628.762	426.57
629.105	372.95
629.448	388.27
629.792	352.53
630.135	395.93
630.478	441.89
630.821	452.11
631.164	434.23
631.507	390.83
631.85	380.61
632.193	444.45
632.536	342.31
632.879	365.29
633.221	408.7
633.564	393.38
633.907	395.93
634.249	401.04
634.592	441.89
634.935	459.77
635.277	416.36
635.619	462.32
635.962	337.21
636.304	429.13
636.646	367.85
636.989	441.89
637.331	444.45
637.673	383.17
638.015	403.59
638.357	337.21
638.699	454.66
639.041	406.15
639.383	365.29
639.725	395.93
640.067	398.49
640.408	401.04
640.75	360.19
641.092	355.08
641.433	385.72
641.775	464.87
642.116	469.98
642.458	429.13
642.799	482.75
643.141	416.36
643.482	416.36
643.823	408.7
644.164	444.45
644.506	505.73
644.847	472.53
645.188	421.47
645.529	439.34
645.87	380.61
646.211	406.15
646.552	393.38
646.893	357.63
647.233	413.81
647.574	388.27
647.915	370.4
648.255	452.11
648.596	418.91
648.937	370.4
649.277	418.91
649.618	367.85
649.958	439.34
650.298	439.34
650.639	408.7
650.979	418.91
651.319	352.53
651.659	383.17
651.999	352.53
652.339	352.53
652.679	429.13
653.019	390.83
653.359	426.57
653.699	452.11
654.039	421.47
654.379	424.02
654.719	413.81
655.058	349.97
655.398	383.17
655.737	612.97
656.077	467.43
656.416	416.36
656.756	424.02
657.095	416.36
657.435	403.59
657.774	436.79
658.113	365.29
658.452	385.72
658.792	431.68
659.131	431.68
659.47	411.25
659.809	457.21
660.148	421.47
660.487	388.27
660.826	362.74
661.164	434.23
661.503	426.57
661.842	383.17
662.181	429.13
662.519	344.87
662.858	406.15
663.196	441.89
663.535	380.61
663.873	403.59
664.212	411.25
664.55	447
664.888	444.45
665.226	393.38
665.565	385.72
665.903	607.86
666.241	503.18
666.579	431.68
666.917	390.83
667.255	401.04
667.593	385.72
667.931	403.59
668.268	362.74
668.606	459.77
668.944	418.91
669.282	416.36
669.619	431.68
669.957	334.65
670.294	475.09
670.632	434.23
670.969	431.68
671.307	413.81
671.644	385.72
671.981	390.83
672.318	395.93
672.656	347.42
672.993	355.08
673.33	416.36
673.667	316.78
674.004	360.19
674.341	378.06
674.678	416.36
675.015	380.61
675.351	439.34
675.688	388.27
676.025	418.91
676.362	370.4
676.698	413.81
677.035	413.81
677.371	367.85
677.708	372.95
678.044	398.49
678.38	421.47
678.717	406.15
679.053	332.1
679.389	416.36
679.725	454.66
680.062	439.34
680.398	411.25
680.734	426.57
681.07	406.15
681.406	349.97
681.742	357.63
682.077	439.34
682.413	365.29
682.749	395.93
683.085	357.63
683.42	383.17
683.756	475.09
684.091	401.04
684.427	411.25
684.762	383.17
685.098	365.29
685.433	401.04
685.768	393.38
686.104	393.38
686.439	288.69
686.774	441.89
687.109	372.95
687.444	349.97
687.779	380.61
688.114	393.38
688.449	357.63
688.784	365.29
689.119	347.42
689.454	388.27
689.789	380.61
690.123	337.21
690.458	416.36
690.792	383.17
691.127	383.17
691.461	393.38
691.796	326.99
692.13	416.36
692.465	411.25
692.799	385.72
693.133	457.21
693.467	403.59
693.802	467.43
694.136	367.85
694.47	406.15
694.804	457.21
695.138	477.64
695.472	355.08
695.806	372.95
696.139	401.04
696.473	401.04
696.807	344.87
697.141	401.04
697.474	436.79
697.808	398.49
698.141	429.13
698.475	492.96
698.808	424.02
699.142	339.76
699.475	413.81
699.808	367.85
700.142	347.42
700.475	385.72
700.808	347.42
701.141	426.57
701.474	357.63
701.807	444.45
702.14	385.72
702.473	337.21
702.806	426.57
703.139	301.46
703.472	411.25
703.804	380.61
704.137	372.95
704.47	375.51
704.802	360.19
705.135	418.91
705.467	403.59
705.8	441.89
706.132	462.32
706.464	383.17
706.797	367.85
707.129	431.68
707.461	393.38
707.793	393.38
708.125	365.29
708.457	378.06
708.789	398.49
709.121	390.83
709.453	365.29
709.785	426.57
710.117	403.59
710.449	424.02
710.781	505.73
711.112	411.25
711.444	355.08
711.775	360.19
712.107	426.57
712.438	452.11
712.77	372.95
713.101	344.87
713.433	434.23
713.764	395.93
714.095	403.59
714.426	416.36
714.757	447
715.089	360.19
715.42	411.25
715.751	452.11
716.082	441.89
716.412	390.83
716.743	378.06
717.074	388.27
717.405	459.77
717.736	424.02
718.066	393.38
718.397	429.13
718.727	383.17
719.058	398.49
719.388	452.11
719.719	401.04
720.049	408.7
720.38	436.79
720.71	388.27
721.04	362.74
721.37	332.1
721.7	332.1
722.031	365.29
722.361	398.49
722.691	452.11
723.021	411.25
723.35	365.29
723.68	416.36
724.01	393.38
724.34	413.81
724.67	383.17
724.999	411.25
725.329	421.47
725.658	467.43
725.988	436.79
726.317	431.68
726.647	464.87
726.976	449.55
727.306	344.87
727.635	370.4
727.964	393.38
728.293	421.47
728.622	434.23
728.952	421.47
729.281	332.1
729.61	360.19
729.939	429.13
730.267	472.53
730.596	439.34
730.925	441.89
731.254	388.27
731.583	454.66
731.911	403.59
732.24	408.7
732.568	357.63
732.897	464.87
733.225	452.11
733.554	395.93
733.882	383.17
734.21	408.7
734.539	370.4
734.867	378.06
735.195	421.47
735.523	462.32
735.851	398.49
736.179	347.42
736.507	418.91
736.835	357.63
737.163	434.23
737.491	378.06
737.819	342.31
738.147	383.17
738.474	403.59
738.802	401.04
739.13	408.7
739.457	406.15
739.785	401.04
740.112	385.72
740.44	454.66
740.767	398.49
741.094	365.29
741.422	332.1
741.749	411.25
742.076	390.83
742.403	342.31
742.73	406.15
743.057	416.36
743.384	393.38
743.711	372.95
744.038	406.15
744.365	380.61
744.692	375.51
745.018	380.61
745.345	375.51
745.672	441.89
745.998	429.13
746.325	380.61
746.651	393.38
746.978	467.43
747.304	347.42
747.631	434.23
747.957	393.38
748.283	375.51
748.61	426.57
748.936	424.02
749.262	421.47
749.588	395.93
749.914	452.11
750.24	411.25
750.566	385.72
750.892	403.59
751.218	385.72
751.543	408.7
751.869	424.02
752.195	360.19
752.521	319.33
752.846	401.04
753.172	454.66
753.497	401.04
753.823	429.13
754.148	459.77
754.473	383.17
754.799	375.51
755.124	393.38
755.449	408.7
755.774	424.02
756.1	395.93
756.425	421.47
756.75	375.51
757.075	418.91
757.4	538.92
757.724	447
758.049	408.7
758.374	411.25
758.699	398.49
759.024	365.29
759.348	411.25
759.673	342.31
759.997	408.7
760.322	388.27
760.646	375.51
760.971	413.81
761.295	390.83
761.619	429.13
761.944	500.62
762.268	513.39
762.592	554.24
762.916	495.51
763.24	485.3
763.564	556.8
763.888	577.22
764.212	572.12
764.536	533.82
764.86	518.5
765.184	559.35
765.508	564.46
765.831	582.33
766.155	960.23
766.478	875.97
766.802	1044.49
767.126	1113.43
767.449	1424.94
767.772	1598.57
768.096	1800.29
768.419	1619
768.742	1532.19
769.066	1422.39
769.389	1294.72
769.712	1077.69
770.035	870.86
770.358	837.67
770.681	960.23
771.004	1202.8
771.327	1401.96
771.65	1777.31
771.972	2242.03
772.295	2890.58
772.618	3184.22
772.941	3176.56
773.263	3237.84
773.586	3199.54
773.908	3099.96
774.231	2826.75
774.553	2282.88
774.875	1950.94
775.198	1547.51
775.52	1345.79
775.842	1381.54
776.164	1774.76
776.487	2405.44
776.809	3036.13
777.131	3582.55
777.453	4126.42
777.775	4609.01
778.096	5150.32
778.418	5152.88
778.74	4450.7
779.062	4213.23
779.384	3692.34
779.705	3278.7
780.027	2780.79
780.348	2152.66
780.67	1667.52
780.991	1718.58
781.313	2114.36
781.634	2788.45
781.955	3740.86
782.277	4969.03
782.598	6521.49
782.919	7389.64
783.24	7767.54
783.561	8002.45
783.882	8147.99
784.203	7596.46
784.524	6600.64
784.845	5196.28
785.166	3945.13
785.487	2791
785.807	2167.98
786.128	1685.39
786.449	1652.2
786.769	2063.29
787.09	2880.37
787.41	4427.72
787.731	6368.28
788.051	8260.34
788.372	9805.13
788.692	11607.82
789.012	12621.51
789.332	12626.61
789.653	12003.59
789.973	11143.1
790.293	8822.08
790.613	6258.49
790.933	4499.21
791.253	3181.67
791.573	2155.21
791.893	1774.76
792.212	1759.44
792.532	2081.16
792.852	3158.69
793.171	4397.08
793.491	5323.95
793.811	6531.7
794.13	7341.12
794.45	7624.55
794.769	7652.63
795.088	7854.35
795.408	7407.51
795.727	6769.16
796.046	5390.34
796.365	4172.38
796.684	3105.07
797.004	2226.71
797.323	1575.59
797.642	1391.75
797.96	1626.66
798.279	2272.67
798.598	3135.71
798.917	4213.23
799.236	5198.84
799.554	5821.86
799.873	6712.99
