Data from 2025-12-03_xpw_interference_micrometer_634_FLMS141361__91__141.txt Node

Date: Wed Dec 03 15:48:45 MST 2025
User: james
Spectrometer: FLMS14136
Trigger mode: 0
Integration Time (sec): 1.000000E-1
Scans to average: 1
Electric dark correction enabled: true
Nonlinearity correction enabled: false
Boxcar width: 0
XAxis mode: Wavelengths
Number of Pixels in Spectrum: 2048
>>>>>Begin Spectral Data<<<<<
339.315	-53.14
339.697	-53.14
340.079	-53.14
340.461	-119.53
340.843	-132.3
341.225	-111.87
341.607	-162.94
341.989	-162.94
342.371	-78.68
342.752	-71.02
343.134	-106.76
343.516	31.12
343.897	-9.73
344.279	69.42
344.661	36.23
345.042	74.53
345.423	82.19
345.805	92.4
346.186	77.08
346.567	110.27
346.949	130.7
347.33	169
347.711	174.11
348.092	166.45
348.473	296.67
348.854	209.86
349.235	212.41
349.616	214.96
349.997	278.8
350.378	266.03
350.758	299.22
351.139	337.52
351.52	281.35
351.9	268.58
352.281	296.67
352.661	380.93
353.042	393.7
353.422	278.8
353.803	467.75
354.183	403.91
354.563	375.83
354.943	375.83
355.324	386.04
355.704	388.59
356.084	345.18
356.464	424.34
356.844	414.13
357.224	424.34
357.603	393.7
357.983	409.02
358.363	467.75
358.743	396.25
359.122	370.72
359.502	329.86
359.882	414.13
360.261	398.81
360.641	368.17
361.02	396.25
361.399	345.18
361.779	391.15
362.158	363.06
362.537	378.38
362.916	363.06
363.296	347.74
363.675	380.93
364.054	334.97
364.433	357.95
364.812	370.72
365.19	363.06
365.569	329.86
365.948	317.1
366.327	383.49
366.705	370.72
367.084	319.65
367.463	319.65
367.841	301.78
368.22	309.44
368.598	340.08
368.977	380.93
369.355	350.29
369.733	314.54
370.111	380.93
370.49	350.29
370.868	314.54
371.246	375.83
371.624	332.42
372.002	329.86
372.38	299.22
372.758	327.31
373.136	368.17
373.513	360.51
373.891	309.44
374.269	309.44
374.646	398.81
375.024	347.74
375.402	360.51
375.779	426.89
376.157	324.76
376.534	337.52
376.911	286.46
377.289	365.61
377.666	378.38
378.043	311.99
378.42	357.95
378.797	317.1
379.175	368.17
379.552	301.78
379.929	365.61
380.305	363.06
380.682	342.63
381.059	352.84
381.436	432
381.813	337.52
382.189	411.57
382.566	391.15
382.943	370.72
383.319	319.65
383.696	398.81
384.072	375.83
384.448	314.54
384.825	329.86
385.201	355.4
385.577	337.52
385.953	388.59
386.329	271.14
386.706	324.76
387.082	347.74
387.458	342.63
387.834	363.06
388.209	324.76
388.585	352.84
388.961	388.59
389.337	380.93
389.713	243.05
390.088	332.42
390.464	416.68
390.839	378.38
391.215	391.15
391.59	347.74
391.966	380.93
392.341	363.06
392.716	383.49
393.092	401.36
393.467	337.52
393.842	416.68
394.217	360.51
394.592	370.72
394.967	365.61
395.342	409.02
395.717	357.95
396.092	370.72
396.467	426.89
396.841	388.59
397.216	352.84
397.591	414.13
397.965	350.29
398.34	332.42
398.714	454.98
399.089	355.4
399.463	314.54
399.838	365.61
400.212	380.93
400.586	386.04
400.961	342.63
401.335	347.74
401.709	363.06
402.083	360.51
402.457	409.02
402.831	360.51
403.205	368.17
403.579	401.36
403.953	360.51
404.326	424.34
404.7	365.61
405.074	368.17
405.447	437.11
405.821	380.93
406.195	380.93
406.568	368.17
406.942	347.74
407.315	342.63
407.688	370.72
408.062	350.29
408.435	424.34
408.808	409.02
409.181	432
409.554	380.93
409.927	340.08
410.3	375.83
410.673	378.38
411.046	386.04
411.419	391.15
411.792	360.51
412.165	419.23
412.537	424.34
412.91	373.27
413.283	401.36
413.655	380.93
414.028	383.49
414.4	432
414.773	396.25
415.145	380.93
415.517	365.61
415.889	401.36
416.262	370.72
416.634	368.17
417.006	370.72
417.378	357.95
417.75	406.47
418.122	421.79
418.494	393.7
418.866	391.15
419.238	383.49
419.609	332.42
419.981	380.93
420.353	334.97
420.725	334.97
421.096	355.4
421.468	401.36
421.839	406.47
422.211	368.17
422.582	327.31
422.953	342.63
423.325	406.47
423.696	383.49
424.067	363.06
424.438	368.17
424.809	406.47
425.18	378.38
425.551	370.72
425.922	416.68
426.293	429.45
426.664	434.55
427.035	373.27
427.406	345.18
427.776	409.02
428.147	460.09
428.518	432
428.888	370.72
429.259	414.13
429.629	383.49
429.999	419.23
430.37	375.83
430.74	421.79
431.11	329.86
431.481	406.47
431.851	444.77
432.221	378.38
432.591	406.47
432.961	421.79
433.331	403.91
433.701	380.93
434.071	439.66
434.441	357.95
434.81	375.83
435.18	370.72
435.55	365.61
435.919	424.34
436.289	454.98
436.658	434.55
437.028	421.79
437.397	363.06
437.767	447.32
438.136	401.36
438.505	401.36
438.875	416.68
439.244	421.79
439.613	419.23
439.982	355.4
440.351	350.29
440.72	306.88
441.089	375.83
441.458	342.63
441.827	393.7
442.196	472.85
442.564	414.13
442.933	332.42
443.302	360.51
443.67	386.04
444.039	360.51
444.407	396.25
444.776	401.36
445.144	457.53
445.513	368.17
445.881	340.08
446.249	388.59
446.617	457.53
446.986	409.02
447.354	449.87
447.722	391.15
448.09	388.59
448.458	378.38
448.826	449.87
449.194	460.09
449.561	406.47
449.929	332.42
450.297	322.2
450.665	368.17
451.032	480.51
451.4	368.17
451.767	401.36
452.135	416.68
452.502	342.63
452.87	363.06
453.237	393.7
453.604	457.53
453.971	439.66
454.339	447.32
454.706	345.18
455.073	329.86
455.44	378.38
455.807	444.77
456.174	327.31
456.541	439.66
456.908	391.15
457.274	378.38
457.641	406.47
458.008	393.7
458.374	465.19
458.741	426.89
459.108	414.13
459.474	444.77
459.841	432
460.207	396.25
460.573	444.77
460.94	416.68
461.306	401.36
461.672	472.85
462.038	414.13
462.404	483.07
462.771	409.02
463.137	442.21
463.503	477.96
463.868	401.36
464.234	370.72
464.6	347.74
464.966	386.04
465.332	388.59
465.697	416.68
466.063	457.53
466.429	444.77
466.794	337.52
467.16	357.95
467.525	429.45
467.89	414.13
468.256	350.29
468.621	419.23
468.986	403.91
469.351	424.34
469.717	416.68
470.082	370.72
470.447	419.23
470.812	401.36
471.177	447.32
471.542	393.7
471.906	411.57
472.271	419.23
472.636	365.61
473.001	373.27
473.365	360.51
473.73	416.68
474.094	388.59
474.459	363.06
474.823	386.04
475.188	324.76
475.552	383.49
475.917	393.7
476.281	432
476.645	429.45
477.009	439.66
477.373	386.04
477.737	426.89
478.101	447.32
478.465	403.91
478.829	342.63
479.193	424.34
479.557	495.83
479.921	490.73
480.284	437.11
480.648	442.21
481.012	437.11
481.375	380.93
481.739	368.17
482.102	373.27
482.466	386.04
482.829	460.09
483.193	375.83
483.556	398.81
483.919	421.79
484.282	352.84
484.645	373.27
485.009	373.27
485.372	403.91
485.735	406.47
486.098	426.89
486.46	462.64
486.823	432
487.186	401.36
487.549	409.02
487.912	444.77
488.274	380.93
488.637	334.97
488.999	386.04
489.362	414.13
489.724	329.86
490.087	370.72
490.449	444.77
490.811	388.59
491.174	421.79
491.536	396.25
491.898	401.36
492.26	421.79
492.622	363.06
492.984	396.25
493.346	429.45
493.708	391.15
494.07	442.21
494.432	437.11
494.794	403.91
495.155	342.63
495.517	350.29
495.879	365.61
496.24	429.45
496.602	406.47
496.963	411.57
497.325	416.68
497.686	444.77
498.048	373.27
498.409	439.66
498.77	401.36
499.131	398.81
499.492	391.15
499.854	380.93
500.215	378.38
500.576	411.57
500.937	403.91
501.298	350.29
501.658	416.68
502.019	475.41
502.38	406.47
502.741	416.68
503.101	416.68
503.462	373.27
503.823	421.79
504.183	373.27
504.543	414.13
504.904	414.13
505.264	386.04
505.625	462.64
505.985	406.47
506.345	386.04
506.705	447.32
507.065	454.98
507.426	411.57
507.786	327.31
508.146	327.31
508.505	306.88
508.865	386.04
509.225	411.57
509.585	465.19
509.945	409.02
510.304	424.34
510.664	439.66
511.024	380.93
511.383	380.93
511.743	424.34
512.102	380.93
512.462	409.02
512.821	426.89
513.18	391.15
513.539	406.47
513.899	380.93
514.258	439.66
514.617	403.91
514.976	421.79
515.335	383.49
515.694	386.04
516.053	342.63
516.412	411.57
516.771	324.76
517.129	340.08
517.488	383.49
517.847	365.61
518.205	416.68
518.564	444.77
518.922	421.79
519.281	396.25
519.639	393.7
519.998	419.23
520.356	452.43
520.714	452.43
521.073	439.66
521.431	386.04
521.789	363.06
522.147	401.36
522.505	360.51
522.863	378.38
523.221	383.49
523.579	401.36
523.937	437.11
524.295	426.89
524.652	409.02
525.01	437.11
525.368	406.47
525.725	439.66
526.083	434.55
526.44	419.23
526.798	434.55
527.155	470.3
527.513	419.23
527.87	350.29
528.227	352.84
528.584	396.25
528.942	409.02
529.299	424.34
529.656	345.18
530.013	421.79
530.37	414.13
530.727	363.06
531.083	437.11
531.44	409.02
531.797	355.4
532.154	432
532.511	401.36
532.867	388.59
533.224	419.23
533.58	419.23
533.937	380.93
534.293	396.25
534.65	465.19
535.006	414.13
535.362	378.38
535.718	426.89
536.075	393.7
536.431	396.25
536.787	350.29
537.143	388.59
537.499	337.52
537.855	370.72
538.211	398.81
538.567	391.15
538.923	393.7
539.278	393.7
539.634	350.29
539.99	383.49
540.345	411.57
540.701	386.04
541.056	452.43
541.412	421.79
541.767	391.15
542.123	416.68
542.478	454.98
542.833	447.32
543.188	406.47
543.544	401.36
543.899	357.95
544.254	345.18
544.609	414.13
544.964	373.27
545.319	375.83
545.674	419.23
546.029	460.09
546.383	309.44
546.738	345.18
547.093	342.63
547.447	409.02
547.802	409.02
548.157	396.25
548.511	424.34
548.866	355.4
549.22	378.38
549.574	414.13
549.929	454.98
550.283	375.83
550.637	383.49
550.991	409.02
551.345	437.11
551.699	334.97
552.053	439.66
552.407	426.89
552.761	485.62
553.115	429.45
553.469	403.91
553.823	342.63
554.176	403.91
554.53	416.68
554.884	424.34
555.237	666.91
555.591	457.53
555.944	411.57
556.298	414.13
556.651	437.11
557.005	498.39
557.358	429.45
557.711	391.15
558.064	426.89
558.417	378.38
558.771	516.26
559.124	409.02
559.477	391.15
559.83	398.81
560.182	439.66
560.535	421.79
560.888	439.66
561.241	421.79
561.594	398.81
561.946	424.34
562.299	411.57
562.651	368.17
563.004	365.61
563.356	460.09
563.709	426.89
564.061	426.89
564.413	409.02
564.766	434.55
565.118	403.91
565.47	393.7
565.822	368.17
566.174	388.59
566.526	365.61
566.878	426.89
567.23	401.36
567.582	434.55
567.934	449.87
568.286	378.38
568.638	398.81
568.989	401.36
569.341	432
569.693	414.13
570.044	439.66
570.396	409.02
570.747	411.57
571.098	401.36
571.45	426.89
571.801	409.02
572.152	337.52
572.504	340.08
572.855	360.51
573.206	383.49
573.557	383.49
573.908	373.27
574.259	391.15
574.61	386.04
574.961	360.51
575.311	442.21
575.662	345.18
576.013	391.15
576.364	414.13
576.714	432
577.065	401.36
577.415	414.13
577.766	411.57
578.116	432
578.467	406.47
578.817	483.07
579.167	457.53
579.518	401.36
579.868	391.15
580.218	311.99
580.568	472.85
580.918	414.13
581.268	457.53
581.618	406.47
581.968	365.61
582.318	380.93
582.668	426.89
583.017	419.23
583.367	388.59
583.717	398.81
584.066	396.25
584.416	424.34
584.765	388.59
585.115	388.59
585.464	378.38
585.814	419.23
586.163	411.57
586.512	337.52
586.862	363.06
587.211	414.13
587.56	460.09
587.909	411.57
588.258	409.02
588.607	396.25
588.956	483.07
589.305	393.7
589.654	380.93
590.002	444.77
590.351	409.02
590.7	396.25
591.048	391.15
591.397	498.39
591.746	437.11
592.094	363.06
592.443	449.87
592.791	426.89
593.139	403.91
593.488	388.59
593.836	401.36
594.184	409.02
594.532	383.49
594.88	375.83
595.228	347.74
595.576	406.47
595.924	373.27
596.272	345.18
596.62	357.95
596.968	393.7
597.316	465.19
597.664	447.32
598.011	403.91
598.359	403.91
598.706	426.89
599.054	396.25
599.402	409.02
599.749	386.04
600.096	406.47
600.444	388.59
600.791	347.74
601.138	449.87
601.485	403.91
601.833	414.13
602.18	424.34
602.527	403.91
602.874	429.45
603.221	411.57
603.568	432
603.914	488.17
604.261	375.83
604.608	419.23
604.955	391.15
605.301	365.61
605.648	439.66
605.995	378.38
606.341	409.02
606.688	411.57
607.034	444.77
607.38	357.95
607.727	388.59
608.073	409.02
608.419	386.04
608.765	467.75
609.112	424.34
609.458	403.91
609.804	393.7
610.15	409.02
610.496	383.49
610.842	396.25
611.187	437.11
611.533	406.47
611.879	373.27
612.225	340.08
612.57	424.34
612.916	409.02
613.261	398.81
613.607	421.79
613.952	457.53
614.298	370.72
614.643	322.2
614.989	388.59
615.334	503.49
615.679	373.27
616.024	406.47
616.369	386.04
616.714	403.91
617.059	360.51
617.404	442.21
617.749	424.34
618.094	357.95
618.439	401.36
618.784	406.47
619.129	370.72
619.473	411.57
619.818	403.91
620.163	370.72
620.507	383.49
620.852	472.85
621.196	396.25
621.54	375.83
621.885	350.29
622.229	426.89
622.573	406.47
622.918	368.17
623.262	368.17
623.606	375.83
623.95	393.7
624.294	357.95
624.638	434.55
624.982	363.06
625.326	347.74
625.67	370.72
626.013	460.09
626.357	350.29
626.701	472.85
627.044	409.02
627.388	401.36
627.731	409.02
628.075	386.04
628.418	426.89
628.762	424.34
629.105	411.57
629.448	357.95
629.792	449.87
630.135	409.02
630.478	411.57
630.821	396.25
631.164	368.17
631.507	454.98
631.85	439.66
632.193	380.93
632.536	419.23
632.879	388.59
633.221	406.47
633.564	444.77
633.907	391.15
634.249	378.38
634.592	378.38
634.935	439.66
635.277	401.36
635.619	406.47
635.962	424.34
636.304	383.49
636.646	373.27
636.989	386.04
637.331	414.13
637.673	442.21
638.015	391.15
638.357	375.83
638.699	419.23
639.041	437.11
639.383	386.04
639.725	391.15
640.067	424.34
640.408	429.45
640.75	373.27
641.092	332.42
641.433	278.8
641.775	375.83
642.116	434.55
642.458	411.57
642.799	391.15
643.141	396.25
643.482	373.27
643.823	457.53
644.164	391.15
644.506	493.28
644.847	521.37
645.188	396.25
645.529	363.06
645.87	350.29
646.211	432
646.552	352.84
646.893	409.02
647.233	401.36
647.574	370.72
647.915	396.25
648.255	324.76
648.596	337.52
648.937	360.51
649.277	411.57
649.618	449.87
649.958	429.45
650.298	332.42
650.639	401.36
650.979	406.47
651.319	414.13
651.659	363.06
651.999	477.96
652.339	406.47
652.679	434.55
653.019	375.83
653.359	401.36
653.699	373.27
654.039	286.46
654.379	401.36
654.719	449.87
655.058	426.89
655.398	437.11
655.737	414.13
656.077	452.43
656.416	403.91
656.756	403.91
657.095	398.81
657.435	483.07
657.774	365.61
658.113	360.51
658.452	426.89
658.792	439.66
659.131	365.61
659.47	409.02
659.809	411.57
660.148	378.38
660.487	368.17
660.826	434.55
661.164	419.23
661.503	324.76
661.842	449.87
662.181	454.98
662.519	396.25
662.858	393.7
663.196	352.84
663.535	393.7
663.873	391.15
664.212	317.1
664.55	421.79
664.888	386.04
665.226	350.29
665.565	391.15
665.903	587.76
666.241	437.11
666.579	363.06
666.917	375.83
667.255	391.15
667.593	437.11
667.931	388.59
668.268	365.61
668.606	429.45
668.944	375.83
669.282	363.06
669.619	393.7
669.957	337.52
670.294	301.78
670.632	337.52
670.969	432
671.307	396.25
671.644	373.27
671.981	457.53
672.318	434.55
672.656	391.15
672.993	409.02
673.33	370.72
673.667	352.84
674.004	365.61
674.341	411.57
674.678	424.34
675.015	401.36
675.351	396.25
675.688	373.27
676.025	396.25
676.362	345.18
676.698	432
677.035	403.91
677.371	406.47
677.708	419.23
678.044	383.49
678.38	380.93
678.717	380.93
679.053	373.27
679.389	311.99
679.725	401.36
680.062	365.61
680.398	386.04
680.734	375.83
681.07	416.68
681.406	406.47
681.742	368.17
682.077	388.59
682.413	444.77
682.749	393.7
683.085	460.09
683.42	444.77
683.756	398.81
684.091	375.83
684.427	391.15
684.762	429.45
685.098	391.15
685.433	368.17
685.768	363.06
686.104	442.21
686.439	347.74
686.774	406.47
687.109	357.95
687.444	432
687.779	370.72
688.114	322.2
688.449	419.23
688.784	409.02
689.119	345.18
689.454	386.04
689.789	401.36
690.123	373.27
690.458	429.45
690.792	419.23
691.127	363.06
691.461	375.83
691.796	334.97
692.13	388.59
692.465	352.84
692.799	401.36
693.133	363.06
693.467	419.23
693.802	398.81
694.136	452.43
694.47	442.21
694.804	370.72
695.138	383.49
695.472	373.27
695.806	401.36
696.139	421.79
696.473	350.29
696.807	437.11
697.141	350.29
697.474	391.15
697.808	477.96
698.141	462.64
698.475	439.66
698.808	426.89
699.142	375.83
699.475	444.77
699.808	411.57
700.142	383.49
700.475	342.63
700.808	352.84
701.141	350.29
701.474	416.68
701.807	329.86
702.14	401.36
702.473	406.47
702.806	467.75
703.139	419.23
703.472	457.53
703.804	355.4
704.137	424.34
704.47	378.38
704.802	419.23
705.135	429.45
705.467	368.17
705.8	350.29
706.132	419.23
706.464	444.77
706.797	403.91
707.129	444.77
707.461	421.79
707.793	409.02
708.125	365.61
708.457	426.89
708.789	401.36
709.121	345.18
709.453	409.02
709.785	347.74
710.117	383.49
710.449	350.29
710.781	357.95
711.112	388.59
711.444	363.06
711.775	386.04
712.107	386.04
712.438	291.56
712.77	409.02
713.101	472.85
713.433	398.81
713.764	424.34
714.095	396.25
714.426	393.7
714.757	396.25
715.089	352.84
715.42	380.93
715.751	414.13
716.082	442.21
716.412	439.66
716.743	375.83
717.074	391.15
717.405	411.57
717.736	391.15
718.066	388.59
718.397	414.13
718.727	355.4
719.058	396.25
719.388	406.47
719.719	347.74
720.049	396.25
720.38	403.91
720.71	342.63
721.04	414.13
721.37	352.84
721.7	332.42
722.031	452.43
722.361	380.93
722.691	437.11
723.021	401.36
723.35	406.47
723.68	329.86
724.01	401.36
724.34	378.38
724.67	391.15
724.999	352.84
725.329	391.15
725.658	406.47
725.988	414.13
726.317	334.97
726.647	360.51
726.976	406.47
727.306	347.74
727.635	421.79
727.964	393.7
728.293	401.36
728.622	368.17
728.952	357.95
729.281	406.47
729.61	406.47
729.939	401.36
730.267	511.15
730.596	373.27
730.925	352.84
731.254	388.59
731.583	365.61
731.911	357.95
732.24	426.89
732.568	401.36
732.897	383.49
733.225	327.31
733.554	393.7
733.882	414.13
734.21	380.93
734.539	386.04
734.867	378.38
735.195	360.51
735.523	380.93
735.851	380.93
736.179	454.98
736.507	424.34
736.835	437.11
737.163	360.51
737.491	447.32
737.819	380.93
738.147	406.47
738.474	439.66
738.802	401.36
739.13	332.42
739.457	386.04
739.785	383.49
740.112	403.91
740.44	386.04
740.767	396.25
741.094	378.38
741.422	350.29
741.749	370.72
742.076	383.49
742.403	419.23
742.73	424.34
743.057	360.51
743.384	314.54
743.711	437.11
744.038	363.06
744.365	386.04
744.692	380.93
745.018	465.19
745.345	403.91
745.672	467.75
745.998	337.52
746.325	309.44
746.651	426.89
746.978	386.04
747.304	388.59
747.631	398.81
747.957	401.36
748.283	352.84
748.61	434.55
748.936	363.06
749.262	322.2
749.588	380.93
749.914	345.18
750.24	437.11
750.566	396.25
750.892	401.36
751.218	437.11
751.543	449.87
751.869	424.34
752.195	347.74
752.521	462.64
752.846	414.13
753.172	363.06
753.497	457.53
753.823	388.59
754.148	345.18
754.473	391.15
754.799	365.61
755.124	454.98
755.449	393.7
755.774	352.84
756.1	426.89
756.425	347.74
756.75	365.61
757.075	370.72
757.4	554.56
757.724	465.19
758.049	434.55
758.374	439.66
758.699	375.83
759.024	437.11
759.348	447.32
759.673	360.51
759.997	409.02
760.322	444.77
760.646	403.91
760.971	434.55
761.295	442.21
761.619	393.7
761.944	467.75
762.268	452.43
762.592	498.39
762.916	513.71
763.24	585.2
763.564	526.47
763.888	523.92
764.212	567.33
764.536	483.07
764.86	503.49
765.184	529.03
765.508	554.56
765.831	626.06
766.155	963.1
766.478	845.65
766.802	924.8
767.126	1111.2
767.449	1351.22
767.772	1509.53
768.096	1527.4
768.419	1448.24
768.742	1389.52
769.066	1259.29
769.389	1123.97
769.712	912.03
770.035	751.17
770.358	837.99
770.681	932.46
771.004	1052.47
771.327	1335.9
771.65	1754.65
771.972	2278.09
772.295	2627.9
772.618	2778.55
772.941	2972.61
773.263	2936.86
773.586	2804.09
773.908	2653.44
774.231	2334.27
774.553	1915.51
774.875	1575.91
775.198	1341
775.52	1231.21
775.842	1366.54
776.164	1785.29
776.487	2377.67
776.809	2862.82
777.131	3429.67
777.453	3799.91
777.775	4136.95
778.096	4622.09
778.418	4430.59
778.74	4009.28
779.062	3554.78
779.384	3161.56
779.705	2704.51
780.027	2278.09
780.348	1764.86
780.67	1466.12
780.991	1581.02
781.313	2063.61
781.634	2860.26
781.955	3672.24
782.277	4736.99
782.598	5771.11
782.919	6389.03
783.24	6930.35
783.561	7234.2
783.882	7144.83
784.203	6465.63
784.524	5615.36
784.845	4282.49
785.166	3353.06
785.487	2459.38
785.807	1884.87
786.128	1466.12
786.449	1575.91
786.769	2107.02
787.09	2982.82
787.41	4221.21
787.731	6223.06
788.051	7780.62
788.372	8842.83
788.692	10484.65
789.012	11370.67
789.332	10773.18
789.653	10305.91
789.973	9366.27
790.293	7193.34
790.613	5181.28
790.933	3707.98
791.253	2548.75
791.573	1792.95
791.893	1540.17
792.212	1718.9
792.532	2073.82
792.852	3051.77
793.171	4246.75
793.491	4999.99
793.811	6023.9
794.13	6715.86
794.45	6863.96
794.769	6669.9
795.088	6840.98
795.408	6235.83
795.727	5574.5
796.046	4479.1
796.365	3503.71
796.684	2579.39
797.004	1851.68
797.323	1404.84
797.642	1300.15
797.96	1655.07
798.279	2295.97
798.598	3082.41
798.917	4318.24
799.236	4992.33
799.554	5612.8
