Data from FLMS141361__0__15-37-57-273.txt Node

Date: Tue Dec 02 15:37:57 MST 2025
User: kpspe
Spectrometer: FLMS14136
Trigger mode: 0
Integration Time (sec): 1.000000E-1
Scans to average: 1
Electric dark correction enabled: true
Nonlinearity correction enabled: false
Boxcar width: 0
XAxis mode: Wavelengths
Number of Pixels in Spectrum: 2048
>>>>>Begin Spectral Data<<<<<
339.315	20.11
339.697	20.11
340.079	20.11
340.461	-110.11
340.843	-110.11
341.225	-89.69
341.607	-64.15
341.989	-92.24
342.371	-10.53
342.752	-71.81
343.134	-36.07
343.516	-18.19
343.897	7.34
344.279	-64.15
344.661	7.34
345.042	50.75
345.423	20.11
345.805	68.62
346.186	104.37
346.567	68.62
346.949	119.69
347.33	226.93
347.711	211.61
348.092	249.91
348.473	180.97
348.854	232.04
349.235	295.87
349.616	247.36
349.997	275.45
350.378	272.89
350.758	262.68
351.139	308.64
351.52	326.51
351.9	242.25
352.281	400.56
352.661	303.53
353.042	346.94
353.422	359.71
353.803	441.42
354.183	352.05
354.563	375.03
354.943	410.77
355.324	341.83
355.704	403.11
356.084	352.05
356.464	344.39
356.844	408.22
357.224	423.54
357.603	438.86
357.983	336.73
358.363	390.35
358.743	410.77
359.122	398.01
359.502	303.53
359.882	369.92
360.261	382.69
360.641	382.69
361.02	359.71
361.399	420.99
361.779	341.83
362.158	346.94
362.537	408.22
362.916	367.37
363.296	341.83
363.675	321.41
364.054	354.6
364.433	339.28
364.812	272.89
365.19	316.3
365.569	331.62
365.948	318.85
366.327	321.41
366.705	329.07
367.084	334.17
367.463	392.9
367.841	357.15
368.22	321.41
368.598	265.23
368.977	313.75
369.355	362.26
369.733	369.92
370.111	341.83
370.49	303.53
370.868	283.11
371.246	377.58
371.624	357.15
372.002	295.87
372.38	329.07
372.758	390.35
373.136	395.45
373.513	380.13
373.891	349.49
374.269	357.15
374.646	367.37
375.024	339.28
375.402	346.94
375.779	321.41
376.157	334.17
376.534	313.75
376.911	377.58
377.289	400.56
377.666	341.83
378.043	344.39
378.42	385.24
378.797	375.03
379.175	357.15
379.552	357.15
379.929	369.92
380.305	359.71
380.682	405.67
381.059	303.53
381.436	390.35
381.813	352.05
382.189	392.9
382.566	380.13
382.943	385.24
383.319	352.05
383.696	443.97
384.072	357.15
384.448	398.01
384.825	400.56
385.201	387.79
385.577	336.73
385.953	375.03
386.329	380.13
386.706	326.51
387.082	385.24
387.458	359.71
387.834	390.35
388.209	346.94
388.585	385.24
388.961	349.49
389.337	387.79
389.713	423.54
390.088	303.53
390.464	354.6
390.839	352.05
391.215	303.53
391.59	341.83
391.966	359.71
392.341	380.13
392.716	408.22
393.092	400.56
393.467	403.11
393.842	392.9
394.217	346.94
394.592	354.6
394.967	321.41
395.342	280.55
395.717	352.05
396.092	354.6
396.467	329.07
396.841	387.79
397.216	372.47
397.591	341.83
397.965	313.75
398.34	387.79
398.714	390.35
399.089	372.47
399.463	331.62
399.838	385.24
400.212	288.21
400.586	357.15
400.961	377.58
401.335	362.26
401.709	369.92
402.083	377.58
402.457	354.6
402.831	354.6
403.205	352.05
403.579	367.37
403.953	354.6
404.326	344.39
404.7	267.79
405.074	336.73
405.447	395.45
405.821	329.07
406.195	349.49
406.568	336.73
406.942	400.56
407.315	334.17
407.688	387.79
408.062	398.01
408.435	380.13
408.808	408.22
409.181	390.35
409.554	390.35
409.927	385.24
410.3	341.83
410.673	436.31
411.046	489.93
411.419	398.01
411.792	410.77
412.165	362.26
412.537	283.11
412.91	354.6
413.283	349.49
413.655	352.05
414.028	403.11
414.4	395.45
414.773	359.71
415.145	341.83
415.517	418.43
415.889	362.26
416.262	395.45
416.634	418.43
417.006	382.69
417.378	334.17
417.75	413.33
418.122	420.99
418.494	359.71
418.866	357.15
419.238	400.56
419.609	408.22
419.981	336.73
420.353	408.22
420.725	369.92
421.096	398.01
421.468	461.84
421.839	477.16
422.211	385.24
422.582	357.15
422.953	390.35
423.325	413.33
423.696	390.35
424.067	359.71
424.438	364.81
424.809	372.47
425.18	341.83
425.551	392.9
425.922	449.08
426.293	482.27
426.664	377.58
427.035	398.01
427.406	454.18
427.776	446.52
428.147	433.76
428.518	364.81
428.888	375.03
429.259	382.69
429.629	375.03
429.999	316.3
430.37	318.85
430.74	405.67
431.11	387.79
431.481	354.6
431.851	354.6
432.221	362.26
432.591	303.53
432.961	390.35
433.331	359.71
433.701	364.81
434.071	398.01
434.441	451.63
434.81	387.79
435.18	423.54
435.55	390.35
435.919	400.56
436.289	398.01
436.658	395.45
437.028	423.54
437.397	372.47
437.767	382.69
438.136	431.2
438.505	451.63
438.875	443.97
439.244	382.69
439.613	336.73
439.982	331.62
440.351	408.22
440.72	413.33
441.089	367.37
441.458	369.92
441.827	311.19
442.196	395.45
442.564	403.11
442.933	472.06
443.302	408.22
443.67	392.9
444.039	364.81
444.407	377.58
444.776	387.79
445.144	380.13
445.513	336.73
445.881	405.67
446.249	410.77
446.617	369.92
446.986	362.26
447.354	369.92
447.722	344.39
448.09	454.18
448.458	367.37
448.826	438.86
449.194	438.86
449.561	405.67
449.929	403.11
450.297	400.56
450.665	329.07
451.032	410.77
451.4	410.77
451.767	454.18
452.135	418.43
452.502	392.9
452.87	377.58
453.237	377.58
453.604	372.47
453.971	359.71
454.339	413.33
454.706	426.09
455.073	354.6
455.44	403.11
455.807	398.01
456.174	403.11
456.541	405.67
456.908	390.35
457.274	408.22
457.641	390.35
458.008	449.08
458.374	415.88
458.741	387.79
459.108	369.92
459.474	443.97
459.841	349.49
460.207	405.67
460.573	359.71
460.94	377.58
461.306	423.54
461.672	474.61
462.038	385.24
462.404	367.37
462.771	415.88
463.137	398.01
463.503	423.54
463.868	410.77
464.234	426.09
464.6	395.45
464.966	466.95
465.332	418.43
465.697	418.43
466.063	375.03
466.429	359.71
466.794	344.39
467.16	344.39
467.525	354.6
467.89	415.88
468.256	418.43
468.621	390.35
468.986	385.24
469.351	364.81
469.717	380.13
470.082	451.63
470.447	377.58
470.812	385.24
471.177	431.2
471.542	357.15
471.906	428.65
472.271	390.35
472.636	364.81
473.001	428.65
473.365	390.35
473.73	410.77
474.094	403.11
474.459	375.03
474.823	431.2
475.188	403.11
475.552	387.79
475.917	362.26
476.281	410.77
476.645	438.86
477.009	433.76
477.373	410.77
477.737	443.97
478.101	316.3
478.465	339.28
478.829	326.51
479.193	382.69
479.557	433.76
479.921	420.99
480.284	372.47
480.648	410.77
481.012	392.9
481.375	362.26
481.739	387.79
482.102	377.58
482.466	449.08
482.829	433.76
483.193	413.33
483.556	410.77
483.919	461.84
484.282	400.56
484.645	403.11
485.009	423.54
485.372	362.26
485.735	398.01
486.098	459.29
486.46	423.54
486.823	418.43
487.186	418.43
487.549	431.2
487.912	405.67
488.274	362.26
488.637	369.92
488.999	410.77
489.362	352.05
489.724	436.31
490.087	387.79
490.449	408.22
490.811	438.86
491.174	387.79
491.536	395.45
491.898	390.35
492.26	431.2
492.622	431.2
492.984	369.92
493.346	410.77
493.708	428.65
494.07	346.94
494.432	392.9
494.794	433.76
495.155	443.97
495.517	441.42
495.879	400.56
496.24	387.79
496.602	423.54
496.963	367.37
497.325	362.26
497.686	438.86
498.048	426.09
498.409	387.79
498.77	431.2
499.131	423.54
499.492	349.49
499.854	415.88
500.215	436.31
500.576	387.79
500.937	423.54
501.298	413.33
501.658	385.24
502.019	303.53
502.38	410.77
502.741	377.58
503.101	387.79
503.462	420.99
503.823	400.56
504.183	398.01
504.543	451.63
504.904	405.67
505.264	438.86
505.625	428.65
505.985	431.2
506.345	449.08
506.705	354.6
507.065	426.09
507.426	426.09
507.786	367.37
508.146	354.6
508.505	405.67
508.865	426.09
509.225	385.24
509.585	461.84
509.945	426.09
510.304	431.2
510.664	339.28
511.024	390.35
511.383	372.47
511.743	405.67
512.102	443.97
512.462	433.76
512.821	398.01
513.18	413.33
513.539	395.45
513.899	387.79
514.258	433.76
514.617	451.63
514.976	408.22
515.335	400.56
515.694	410.77
516.053	443.97
516.412	382.69
516.771	390.35
517.129	311.19
517.488	408.22
517.847	413.33
518.205	459.29
518.564	392.9
518.922	438.86
519.281	431.2
519.639	398.01
519.998	359.71
520.356	454.18
520.714	410.77
521.073	403.11
521.431	354.6
521.789	382.69
522.147	413.33
522.505	418.43
522.863	382.69
523.221	369.92
523.579	341.83
523.937	408.22
524.295	380.13
524.652	403.11
525.01	433.76
525.368	418.43
525.725	410.77
526.083	377.58
526.44	408.22
526.798	469.5
527.155	395.45
527.513	408.22
527.87	375.03
528.227	410.77
528.584	385.24
528.942	400.56
529.299	415.88
529.656	400.56
530.013	392.9
530.37	410.77
530.727	454.18
531.083	410.77
531.44	449.08
531.797	418.43
532.154	515.46
532.511	413.33
532.867	398.01
533.224	415.88
533.58	369.92
533.937	408.22
534.293	443.97
534.65	436.31
535.006	410.77
535.362	392.9
535.718	390.35
536.075	398.01
536.431	420.99
536.787	326.51
537.143	418.43
537.499	449.08
537.855	400.56
538.211	377.58
538.567	441.42
538.923	451.63
539.278	436.31
539.634	469.5
539.99	410.77
540.345	357.15
540.701	403.11
541.056	375.03
541.412	420.99
541.767	433.76
542.123	446.52
542.478	418.43
542.833	395.45
543.188	413.33
543.544	418.43
543.899	487.38
544.254	390.35
544.609	456.74
544.964	392.9
545.319	405.67
545.674	405.67
546.029	433.76
546.383	487.38
546.738	392.9
547.093	400.56
547.447	385.24
547.802	382.69
548.157	431.2
548.511	398.01
548.866	449.08
549.22	426.09
549.574	403.11
549.929	443.97
550.283	375.03
550.637	395.45
550.991	375.03
551.345	341.83
551.699	454.18
552.053	400.56
552.407	390.35
552.761	415.88
553.115	449.08
553.469	403.11
553.823	413.33
554.176	413.33
554.53	446.52
554.884	420.99
555.237	556.32
555.591	443.97
555.944	362.26
556.298	420.99
556.651	449.08
557.005	398.01
557.358	367.37
557.711	408.22
558.064	403.11
558.417	436.31
558.771	497.59
559.124	395.45
559.477	375.03
559.83	408.22
560.182	369.92
560.535	446.52
560.888	354.6
561.241	420.99
561.594	375.03
561.946	418.43
562.299	426.09
562.651	410.77
563.004	443.97
563.356	375.03
563.709	472.06
564.061	390.35
564.413	367.37
564.766	428.65
565.118	426.09
565.47	372.47
565.822	438.86
566.174	410.77
566.526	431.2
566.878	375.03
567.23	423.54
567.582	482.27
567.934	408.22
568.286	413.33
568.638	482.27
568.989	423.54
569.341	423.54
569.693	410.77
570.044	408.22
570.396	428.65
570.747	449.08
571.098	382.69
571.45	464.4
571.801	410.77
572.152	441.42
572.504	385.24
572.855	418.43
573.206	408.22
573.557	423.54
573.908	428.65
574.259	410.77
574.61	461.84
574.961	472.06
575.311	474.61
575.662	380.13
576.013	372.47
576.364	403.11
576.714	408.22
577.065	403.11
577.415	423.54
577.766	418.43
578.116	418.43
578.467	446.52
578.817	469.5
579.167	377.58
579.518	426.09
579.868	400.56
580.218	395.45
580.568	395.45
580.918	405.67
581.268	385.24
581.618	464.4
581.968	456.74
582.318	441.42
582.668	385.24
583.017	431.2
583.367	392.9
583.717	431.2
584.066	413.33
584.416	354.6
584.765	413.33
585.115	341.83
585.464	341.83
585.814	377.58
586.163	415.88
586.512	372.47
586.862	372.47
587.211	403.11
587.56	426.09
587.909	400.56
588.258	403.11
588.607	346.94
588.956	454.18
589.305	477.16
589.654	443.97
590.002	418.43
590.351	375.03
590.7	377.58
591.048	441.42
591.397	398.01
591.746	369.92
592.094	426.09
592.443	420.99
592.791	423.54
593.139	334.17
593.488	357.15
593.836	364.81
594.184	464.4
594.532	357.15
594.88	415.88
595.228	385.24
595.576	441.42
595.924	372.47
596.272	461.84
596.62	410.77
596.968	487.38
597.316	459.29
597.664	398.01
598.011	362.26
598.359	398.01
598.706	385.24
599.054	441.42
599.402	415.88
599.749	346.94
600.096	385.24
600.444	339.28
600.791	443.97
601.138	375.03
601.485	364.81
601.833	395.45
602.18	392.9
602.527	413.33
602.874	385.24
603.221	426.09
603.568	385.24
603.914	398.01
604.261	321.41
604.608	385.24
604.955	385.24
605.301	415.88
605.648	415.88
605.995	454.18
606.341	400.56
606.688	420.99
607.034	359.71
607.38	339.28
607.727	438.86
608.073	387.79
608.419	418.43
608.765	403.11
609.112	387.79
609.458	354.6
609.804	385.24
610.15	436.31
610.496	423.54
610.842	415.88
611.187	375.03
611.533	441.42
611.879	405.67
612.225	311.19
612.57	339.28
612.916	375.03
613.261	392.9
613.607	477.16
613.952	398.01
614.298	408.22
614.643	359.71
614.989	352.05
615.334	385.24
615.679	364.81
616.024	385.24
616.369	387.79
616.714	300.98
617.059	359.71
617.404	446.52
617.749	349.49
618.094	364.81
618.439	382.69
618.784	413.33
619.129	349.49
619.473	352.05
619.818	456.74
620.163	474.61
620.507	423.54
620.852	403.11
621.196	398.01
621.54	390.35
621.885	336.73
622.229	398.01
622.573	346.94
622.918	420.99
623.262	377.58
623.606	375.03
623.95	492.48
624.294	415.88
624.638	418.43
624.982	390.35
625.326	369.92
625.67	367.37
626.013	375.03
626.357	410.77
626.701	459.29
627.044	454.18
627.388	426.09
627.731	420.99
628.075	443.97
628.418	385.24
628.762	387.79
629.105	369.92
629.448	387.79
629.792	382.69
630.135	354.6
630.478	395.45
630.821	362.26
631.164	410.77
631.507	423.54
631.85	369.92
632.193	380.13
632.536	392.9
632.879	357.15
633.221	341.83
633.564	428.65
633.907	341.83
634.249	362.26
634.592	364.81
634.935	316.3
635.277	395.45
635.619	362.26
635.962	331.62
636.304	354.6
636.646	431.2
636.989	390.35
637.331	377.58
637.673	377.58
638.015	380.13
638.357	403.11
638.699	377.58
639.041	415.88
639.383	431.2
639.725	321.41
640.067	341.83
640.408	323.96
640.75	431.2
641.092	408.22
641.433	398.01
641.775	423.54
642.116	420.99
642.458	398.01
642.799	426.09
643.141	436.31
643.482	408.22
643.823	403.11
644.164	410.77
644.506	472.06
644.847	410.77
645.188	344.39
645.529	341.83
645.87	387.79
646.211	382.69
646.552	428.65
646.893	339.28
647.233	387.79
647.574	364.81
647.915	428.65
648.255	420.99
648.596	428.65
648.937	400.56
649.277	410.77
649.618	385.24
649.958	392.9
650.298	354.6
650.639	428.65
650.979	372.47
651.319	426.09
651.659	336.73
651.999	364.81
652.339	380.13
652.679	408.22
653.019	349.49
653.359	354.6
653.699	344.39
654.039	408.22
654.379	395.45
654.719	387.79
655.058	410.77
655.398	364.81
655.737	375.03
656.077	380.13
656.416	375.03
656.756	372.47
657.095	400.56
657.435	441.42
657.774	398.01
658.113	400.56
658.452	433.76
658.792	372.47
659.131	362.26
659.47	426.09
659.809	387.79
660.148	382.69
660.487	438.86
660.826	377.58
661.164	400.56
661.503	395.45
661.842	423.54
662.181	400.56
662.519	436.31
662.858	433.76
663.196	400.56
663.535	382.69
663.873	403.11
664.212	436.31
664.55	413.33
664.888	469.5
665.226	408.22
665.565	433.76
665.903	563.98
666.241	398.01
666.579	390.35
666.917	375.03
667.255	449.08
667.593	362.26
667.931	420.99
668.268	382.69
668.606	420.99
668.944	400.56
669.282	408.22
669.619	341.83
669.957	413.33
670.294	352.05
670.632	311.19
670.969	323.96
671.307	423.54
671.644	367.37
671.981	382.69
672.318	398.01
672.656	461.84
672.993	423.54
673.33	477.16
673.667	362.26
674.004	400.56
674.341	357.15
674.678	362.26
675.015	369.92
675.351	469.5
675.688	326.51
676.025	441.42
676.362	372.47
676.698	398.01
677.035	420.99
677.371	410.77
677.708	336.73
678.044	454.18
678.38	375.03
678.717	382.69
679.053	408.22
679.389	436.31
679.725	428.65
680.062	385.24
680.398	454.18
680.734	441.42
681.07	359.71
681.406	380.13
681.742	420.99
682.077	454.18
682.413	433.76
682.749	403.11
683.085	326.51
683.42	331.62
683.756	418.43
684.091	362.26
684.427	392.9
684.762	349.49
685.098	372.47
685.433	410.77
685.768	377.58
686.104	428.65
686.439	357.15
686.774	382.69
687.109	387.79
687.444	359.71
687.779	405.67
688.114	375.03
688.449	428.65
688.784	369.92
689.119	392.9
689.454	410.77
689.789	329.07
690.123	369.92
690.458	377.58
690.792	403.11
691.127	428.65
691.461	336.73
691.796	372.47
692.13	415.88
692.465	321.41
692.799	380.13
693.133	385.24
693.467	428.65
693.802	334.17
694.136	387.79
694.47	392.9
694.804	415.88
695.138	385.24
695.472	380.13
695.806	395.45
696.139	408.22
696.473	426.09
696.807	395.45
697.141	382.69
697.474	380.13
697.808	446.52
698.141	318.85
698.475	364.81
698.808	413.33
699.142	433.76
699.475	461.84
699.808	438.86
700.142	410.77
700.475	433.76
700.808	408.22
701.141	346.94
701.474	359.71
701.807	418.43
702.14	341.83
702.473	359.71
702.806	420.99
703.139	413.33
703.472	410.77
703.804	377.58
704.137	413.33
704.47	408.22
704.802	428.65
705.135	382.69
705.467	380.13
705.8	408.22
706.132	354.6
706.464	380.13
706.797	408.22
707.129	377.58
707.461	380.13
707.793	390.35
708.125	443.97
708.457	426.09
708.789	380.13
709.121	392.9
709.453	367.37
709.785	362.26
710.117	344.39
710.449	362.26
710.781	372.47
711.112	385.24
711.444	382.69
711.775	344.39
712.107	413.33
712.438	392.9
712.77	405.67
713.101	443.97
713.433	415.88
713.764	413.33
714.095	392.9
714.426	390.35
714.757	382.69
715.089	323.96
715.42	398.01
715.751	408.22
716.082	362.26
716.412	413.33
716.743	400.56
717.074	369.92
717.405	385.24
717.736	367.37
718.066	362.26
718.397	423.54
718.727	382.69
719.058	405.67
719.388	446.52
719.719	443.97
720.049	403.11
720.38	372.47
720.71	405.67
721.04	436.31
721.37	413.33
721.7	408.22
722.031	352.05
722.361	334.17
722.691	344.39
723.021	387.79
723.35	375.03
723.68	418.43
724.01	426.09
724.34	390.35
724.67	385.24
724.999	405.67
725.329	420.99
725.658	395.45
725.988	418.43
726.317	415.88
726.647	375.03
726.976	372.47
727.306	385.24
727.635	385.24
727.964	385.24
728.293	385.24
728.622	505.25
728.952	390.35
729.281	344.39
729.61	354.6
729.939	369.92
730.267	408.22
730.596	443.97
730.925	431.2
731.254	400.56
731.583	398.01
731.911	369.92
732.24	362.26
732.568	403.11
732.897	331.62
733.225	410.77
733.554	377.58
733.882	413.33
734.21	418.43
734.539	433.76
734.867	352.05
735.195	395.45
735.523	372.47
735.851	395.45
736.179	336.73
736.507	311.19
736.835	354.6
737.163	372.47
737.491	400.56
737.819	385.24
738.147	443.97
738.474	426.09
738.802	377.58
739.13	454.18
739.457	390.35
739.785	346.94
740.112	410.77
740.44	400.56
740.767	326.51
741.094	372.47
741.422	293.32
741.749	438.86
742.076	352.05
742.403	390.35
742.73	362.26
743.057	385.24
743.384	359.71
743.711	464.4
744.038	362.26
744.365	367.37
744.692	359.71
745.018	403.11
745.345	362.26
745.672	367.37
745.998	359.71
746.325	382.69
746.651	398.01
746.978	392.9
747.304	400.56
747.631	454.18
747.957	454.18
748.283	380.13
748.61	469.5
748.936	352.05
749.262	443.97
749.588	387.79
749.914	418.43
750.24	436.31
750.566	321.41
750.892	413.33
751.218	313.75
751.543	375.03
751.869	390.35
752.195	413.33
752.521	408.22
752.846	375.03
753.172	349.49
753.497	433.76
753.823	382.69
754.148	318.85
754.473	380.13
754.799	408.22
755.124	352.05
755.449	341.83
755.774	398.01
756.1	300.98
756.425	369.92
756.75	362.26
757.075	387.79
757.4	477.16
757.724	408.22
758.049	449.08
758.374	403.11
758.699	426.09
759.024	420.99
759.348	385.24
759.673	349.49
759.997	408.22
760.322	400.56
760.646	408.22
760.971	415.88
761.295	331.62
761.619	441.42
761.944	336.73
762.268	420.99
762.592	431.2
762.916	392.9
763.24	423.54
763.564	400.56
763.888	387.79
764.212	367.37
764.536	306.09
764.86	357.15
765.184	352.05
765.508	456.74
765.831	369.92
766.155	630.37
766.478	415.88
766.802	377.58
767.126	426.09
767.449	418.43
767.772	283.11
768.096	369.92
768.419	349.49
768.742	415.88
769.066	390.35
769.389	400.56
769.712	392.9
770.035	346.94
770.358	451.63
770.681	433.76
771.004	387.79
771.327	377.58
771.65	426.09
771.972	464.4
772.295	377.58
772.618	390.35
772.941	385.24
773.263	405.67
773.586	423.54
773.908	415.88
774.231	403.11
774.553	329.07
774.875	482.27
775.198	489.93
775.52	507.8
775.842	505.25
776.164	535.89
776.487	699.31
776.809	671.22
777.131	834.64
777.453	975.07
777.775	1056.78
778.096	1107.85
778.418	1284.03
778.74	1437.23
779.062	1623.63
779.384	1700.23
779.705	1756.4
780.027	1896.84
780.348	2096
780.67	2269.63
780.991	2558.17
781.313	2489.22
781.634	2177.71
781.955	1909.61
782.277	1797.26
782.598	1562.35
782.919	1340.2
783.24	1092.53
783.561	1049.12
783.882	824.42
784.203	722.29
784.524	556.32
784.845	497.59
785.166	589.51
785.487	722.29
785.807	834.64
786.128	1174.23
786.449	1570.01
786.769	2055.15
787.09	2596.47
787.41	3250.13
787.731	3673.99
788.051	4276.59
788.372	4667.26
788.692	5591.58
789.012	7036.79
789.332	8213.9
789.653	9189.29
789.973	9179.07
790.293	8819.05
790.613	8612.22
790.933	8803.73
791.253	9010.55
791.573	8709.25
791.893	7705.78
792.212	6531.22
792.532	5594.13
792.852	4386.38
793.171	3628.03
793.491	3068.84
793.811	2348.79
794.13	1764.07
794.45	1450
794.769	1133.38
795.088	990.39
795.408	926.56
795.727	1110.4
796.046	1524.05
796.365	2152.18
796.684	2897.76
797.004	3852.73
797.323	4485.97
797.642	5514.98
797.96	6610.38
798.279	8173.04
798.598	9457.39
798.917	10928.14
799.236	10940.91
799.554	11576.7
799.873	12414.2
800.192	13351.29
800.51	14786.29
800.829	16423.01
