Data from 2025-12-03_xpw_interference_micrometer_634_reference_FLMS141361__63__513.txt Node

Date: Wed Dec 03 15:52:25 MST 2025
User: james
Spectrometer: FLMS14136
Trigger mode: 0
Integration Time (sec): 1.000000E-1
Scans to average: 1
Electric dark correction enabled: true
Nonlinearity correction enabled: false
Boxcar width: 0
XAxis mode: Wavelengths
Number of Pixels in Spectrum: 2048
>>>>>Begin Spectral Data<<<<<
339.315	-57.29
339.697	-57.29
340.079	-57.29
340.461	-90.49
340.843	-82.83
341.225	-41.97
341.607	-82.83
341.989	-105.81
342.371	-116.02
342.752	-80.27
343.134	47.4
343.516	-116.02
343.897	-52.18
344.279	-31.76
344.661	21.86
345.042	65.27
345.423	70.38
345.805	83.14
346.186	83.14
346.567	118.89
346.949	136.77
347.33	190.39
347.711	139.32
348.092	159.75
348.473	249.11
348.854	218.47
349.235	259.33
349.616	254.22
349.997	274.65
350.378	228.69
350.758	259.33
351.139	315.5
351.52	277.2
351.9	389.55
352.281	356.36
352.661	371.68
353.042	415.08
353.422	302.73
353.803	369.12
354.183	266.99
354.563	320.61
354.943	392.1
355.324	422.74
355.704	425.3
356.084	318.06
356.464	397.21
356.844	417.64
357.224	376.78
357.603	407.42
357.983	333.38
358.363	466.15
358.743	399.76
359.122	312.95
359.502	338.48
359.882	392.1
360.261	330.82
360.641	409.98
361.02	320.61
361.399	364.02
361.779	392.1
362.158	371.68
362.537	384.44
362.916	376.78
363.296	300.18
363.675	371.68
364.054	335.93
364.433	320.61
364.812	323.16
365.19	310.4
365.569	254.22
365.948	409.98
366.327	392.1
366.705	361.46
367.084	346.14
367.463	287.41
367.841	394.66
368.22	300.18
368.598	335.93
368.977	358.91
369.355	369.12
369.733	295.07
370.111	341.04
370.49	338.48
370.868	338.48
371.246	323.16
371.624	297.63
372.002	325.72
372.38	348.7
372.758	338.48
373.136	376.78
373.513	364.02
373.891	343.59
374.269	425.3
374.646	328.27
375.024	364.02
375.402	315.5
375.779	310.4
376.157	295.07
376.534	343.59
376.911	356.36
377.289	333.38
377.666	402.32
378.043	297.63
378.42	381.89
378.797	379.34
379.175	376.78
379.552	366.57
379.929	328.27
380.305	346.14
380.682	415.08
381.059	379.34
381.436	348.7
381.813	343.59
382.189	384.44
382.566	422.74
382.943	343.59
383.319	328.27
383.696	422.74
384.072	422.74
384.448	392.1
384.825	381.89
385.201	353.8
385.577	341.04
385.953	254.22
386.329	325.72
386.706	397.21
387.082	381.89
387.458	325.72
387.834	353.8
388.209	358.91
388.585	430.4
388.961	361.46
389.337	369.12
389.713	366.57
390.088	318.06
390.464	251.67
390.839	371.68
391.215	318.06
391.59	302.73
391.966	277.2
392.341	366.57
392.716	341.04
393.092	358.91
393.467	325.72
393.842	369.12
394.217	343.59
394.592	371.68
394.967	415.08
395.342	353.8
395.717	338.48
396.092	341.04
396.467	381.89
396.841	387
397.216	346.14
397.591	348.7
397.965	335.93
398.34	351.25
398.714	374.23
399.089	415.08
399.463	389.55
399.838	409.98
400.212	330.82
400.586	366.57
400.961	366.57
401.335	338.48
401.709	297.63
402.083	330.82
402.457	394.66
402.831	374.23
403.205	323.16
403.579	348.7
403.953	381.89
404.326	315.5
404.7	325.72
405.074	366.57
405.447	374.23
405.821	320.61
406.195	318.06
406.568	364.02
406.942	455.94
407.315	412.53
407.688	361.46
408.062	425.3
408.435	407.42
408.808	407.42
409.181	335.93
409.554	443.17
409.927	376.78
410.3	384.44
410.673	445.72
411.046	455.94
411.419	407.42
411.792	425.3
412.165	397.21
412.537	392.1
412.91	376.78
413.283	312.95
413.655	402.32
414.028	302.73
414.4	417.64
414.773	399.76
415.145	387
415.517	351.25
415.889	325.72
416.262	389.55
416.634	384.44
417.006	364.02
417.378	361.46
417.75	364.02
418.122	369.12
418.494	341.04
418.866	295.07
419.238	381.89
419.609	361.46
419.981	379.34
420.353	392.1
420.725	384.44
421.096	392.1
421.468	402.32
421.839	379.34
422.211	392.1
422.582	402.32
422.953	351.25
423.325	381.89
423.696	394.66
424.067	376.78
424.438	335.93
424.809	438.06
425.18	351.25
425.551	402.32
425.922	369.12
426.293	333.38
426.664	348.7
427.035	392.1
427.406	402.32
427.776	358.91
428.147	376.78
428.518	348.7
428.888	315.5
429.259	351.25
429.629	369.12
429.999	384.44
430.37	379.34
430.74	358.91
431.11	341.04
431.481	420.19
431.851	366.57
432.221	374.23
432.591	394.66
432.961	341.04
433.331	394.66
433.701	404.87
434.071	397.21
434.441	417.64
434.81	402.32
435.18	392.1
435.55	315.5
435.919	389.55
436.289	343.59
436.658	443.17
437.028	366.57
437.397	384.44
437.767	389.55
438.136	443.17
438.505	453.38
438.875	399.76
439.244	438.06
439.613	409.98
439.982	407.42
440.351	356.36
440.72	425.3
441.089	384.44
441.458	420.19
441.827	369.12
442.196	445.72
442.564	453.38
442.933	407.42
443.302	343.59
443.67	430.4
444.039	402.32
444.407	438.06
444.776	425.3
445.144	468.7
445.513	409.98
445.881	422.74
446.249	415.08
446.617	427.85
446.986	389.55
447.354	374.23
447.722	402.32
448.09	376.78
448.458	358.91
448.826	445.72
449.194	392.1
449.561	356.36
449.929	425.3
450.297	420.19
450.665	392.1
451.032	346.14
451.4	399.76
451.767	422.74
452.135	384.44
452.502	422.74
452.87	415.08
453.237	404.87
453.604	458.49
453.971	397.21
454.339	381.89
454.706	356.36
455.073	412.53
455.44	430.4
455.807	364.02
456.174	315.5
456.541	374.23
456.908	376.78
457.274	364.02
457.641	448.28
458.008	318.06
458.374	422.74
458.741	384.44
459.108	422.74
459.474	369.12
459.841	430.4
460.207	402.32
460.573	402.32
460.94	417.64
461.306	379.34
461.672	394.66
462.038	341.04
462.404	417.64
462.771	440.62
463.137	445.72
463.503	412.53
463.868	453.38
464.234	364.02
464.6	394.66
464.966	351.25
465.332	351.25
465.697	361.46
466.063	366.57
466.429	427.85
466.794	412.53
467.16	412.53
467.525	453.38
467.89	415.08
468.256	409.98
468.621	300.18
468.986	366.57
469.351	402.32
469.717	356.36
470.082	435.51
470.447	427.85
470.812	364.02
471.177	387
471.542	384.44
471.906	361.46
472.271	399.76
472.636	448.28
473.001	450.83
473.365	407.42
473.73	346.14
474.094	435.51
474.459	466.15
474.823	389.55
475.188	404.87
475.552	404.87
475.917	397.21
476.281	443.17
476.645	409.98
477.009	392.1
477.373	381.89
477.737	364.02
478.101	432.96
478.465	404.87
478.829	392.1
479.193	412.53
479.557	381.89
479.921	376.78
480.284	448.28
480.648	381.89
481.012	402.32
481.375	366.57
481.739	328.27
482.102	333.38
482.466	330.82
482.829	407.42
483.193	399.76
483.556	379.34
483.919	468.7
484.282	458.49
484.645	394.66
485.009	364.02
485.372	389.55
485.735	435.51
486.098	369.12
486.46	397.21
486.823	376.78
487.186	379.34
487.549	356.36
487.912	384.44
488.274	404.87
488.637	491.68
488.999	394.66
489.362	409.98
489.724	381.89
490.087	366.57
490.449	343.59
490.811	376.78
491.174	374.23
491.536	402.32
491.898	287.41
492.26	478.92
492.622	394.66
492.984	432.96
493.346	417.64
493.708	389.55
494.07	343.59
494.432	427.85
494.794	412.53
495.155	440.62
495.517	430.4
495.879	402.32
496.24	394.66
496.602	448.28
496.963	307.84
497.325	445.72
497.686	402.32
498.048	443.17
498.409	425.3
498.77	415.08
499.131	381.89
499.492	387
499.854	427.85
500.215	432.96
500.576	417.64
500.937	371.68
501.298	420.19
501.658	364.02
502.019	346.14
502.38	389.55
502.741	361.46
503.101	394.66
503.462	295.07
503.823	307.84
504.183	404.87
504.543	376.78
504.904	432.96
505.264	338.48
505.625	384.44
505.985	341.04
506.345	389.55
506.705	438.06
507.065	369.12
507.426	320.61
507.786	361.46
508.146	409.98
508.505	338.48
508.865	333.38
509.225	432.96
509.585	463.6
509.945	466.15
510.304	450.83
510.664	376.78
511.024	443.17
511.383	438.06
511.743	361.46
512.102	379.34
512.462	399.76
512.821	381.89
513.18	394.66
513.539	330.82
513.899	358.91
514.258	369.12
514.617	422.74
514.976	463.6
515.335	381.89
515.694	384.44
516.053	369.12
516.412	392.1
516.771	407.42
517.129	422.74
517.488	402.32
517.847	420.19
518.205	392.1
518.564	517.22
518.922	305.29
519.281	468.7
519.639	404.87
519.998	351.25
520.356	376.78
520.714	420.19
521.073	425.3
521.431	402.32
521.789	371.68
522.147	394.66
522.505	399.76
522.863	412.53
523.221	320.61
523.579	387
523.937	371.68
524.295	440.62
524.652	371.68
525.01	432.96
525.368	369.12
525.725	376.78
526.083	399.76
526.44	356.36
526.798	366.57
527.155	415.08
527.513	389.55
527.87	435.51
528.227	409.98
528.584	384.44
528.942	417.64
529.299	496.79
529.656	412.53
530.013	409.98
530.37	402.32
530.727	338.48
531.083	417.64
531.44	387
531.797	379.34
532.154	341.04
532.511	384.44
532.867	440.62
533.224	399.76
533.58	384.44
533.937	432.96
534.293	417.64
534.65	338.48
535.006	415.08
535.362	335.93
535.718	361.46
536.075	302.73
536.431	353.8
536.787	453.38
537.143	384.44
537.499	356.36
537.855	366.57
538.211	397.21
538.567	412.53
538.923	335.93
539.278	425.3
539.634	338.48
539.99	343.59
540.345	269.54
540.701	369.12
541.056	432.96
541.412	420.19
541.767	371.68
542.123	458.49
542.478	415.08
542.833	427.85
543.188	358.91
543.544	432.96
543.899	461.04
544.254	289.97
544.609	389.55
544.964	450.83
545.319	412.53
545.674	394.66
546.029	351.25
546.383	404.87
546.738	328.27
547.093	392.1
547.447	392.1
547.802	351.25
548.157	387
548.511	440.62
548.866	387
549.22	381.89
549.574	453.38
549.929	445.72
550.283	384.44
550.637	415.08
550.991	387
551.345	387
551.699	407.42
552.053	422.74
552.407	392.1
552.761	379.34
553.115	379.34
553.469	455.94
553.823	341.04
554.176	397.21
554.53	415.08
554.884	369.12
555.237	632.12
555.591	412.53
555.944	404.87
556.298	381.89
556.651	445.72
557.005	425.3
557.358	351.25
557.711	422.74
558.064	346.14
558.417	346.14
558.771	422.74
559.124	361.46
559.477	320.61
559.83	435.51
560.182	466.15
560.535	417.64
560.888	402.32
561.241	397.21
561.594	412.53
561.946	325.72
562.299	348.7
562.651	412.53
563.004	348.7
563.356	376.78
563.709	435.51
564.061	404.87
564.413	387
564.766	338.48
565.118	369.12
565.47	448.28
565.822	443.17
566.174	353.8
566.526	420.19
566.878	333.38
567.23	353.8
567.582	366.57
567.934	366.57
568.286	455.94
568.638	438.06
568.989	473.81
569.341	415.08
569.693	425.3
570.044	376.78
570.396	348.7
570.747	356.36
571.098	397.21
571.45	325.72
571.801	394.66
572.152	409.98
572.504	425.3
572.855	384.44
573.206	379.34
573.557	432.96
573.908	476.36
574.259	397.21
574.61	397.21
574.961	328.27
575.311	427.85
575.662	402.32
576.013	440.62
576.364	471.26
576.714	343.59
577.065	409.98
577.415	412.53
577.766	445.72
578.116	364.02
578.467	371.68
578.817	420.19
579.167	438.06
579.518	381.89
579.868	438.06
580.218	412.53
580.568	409.98
580.918	420.19
581.268	458.49
581.618	379.34
581.968	438.06
582.318	343.59
582.668	404.87
583.017	358.91
583.367	394.66
583.717	318.06
584.066	356.36
584.416	366.57
584.765	399.76
585.115	412.53
585.464	461.04
585.814	445.72
586.163	389.55
586.512	364.02
586.862	453.38
587.211	389.55
587.56	407.42
587.909	404.87
588.258	330.82
588.607	346.14
588.956	374.23
589.305	420.19
589.654	438.06
590.002	381.89
590.351	374.23
590.7	417.64
591.048	389.55
591.397	343.59
591.746	335.93
592.094	361.46
592.443	450.83
592.791	374.23
593.139	376.78
593.488	353.8
593.836	422.74
594.184	435.51
594.532	315.5
594.88	399.76
595.228	361.46
595.576	346.14
595.924	402.32
596.272	399.76
596.62	358.91
596.968	443.17
597.316	471.26
597.664	366.57
598.011	404.87
598.359	389.55
598.706	412.53
599.054	440.62
599.402	389.55
599.749	422.74
600.096	435.51
600.444	351.25
600.791	394.66
601.138	394.66
601.485	458.49
601.833	412.53
602.18	402.32
602.527	453.38
602.874	376.78
603.221	399.76
603.568	422.74
603.914	392.1
604.261	356.36
604.608	338.48
604.955	420.19
605.301	387
605.648	397.21
605.995	369.12
606.341	374.23
606.688	364.02
607.034	389.55
607.38	318.06
607.727	353.8
608.073	341.04
608.419	305.29
608.765	389.55
609.112	394.66
609.458	397.21
609.804	427.85
610.15	364.02
610.496	415.08
610.842	361.46
611.187	409.98
611.533	384.44
611.879	366.57
612.225	330.82
612.57	269.54
612.916	430.4
613.261	438.06
613.607	389.55
613.952	392.1
614.298	371.68
614.643	420.19
614.989	415.08
615.334	409.98
615.679	351.25
616.024	376.78
616.369	364.02
616.714	468.7
617.059	389.55
617.404	315.5
617.749	379.34
618.094	392.1
618.439	364.02
618.784	343.59
619.129	409.98
619.473	425.3
619.818	392.1
620.163	407.42
620.507	366.57
620.852	394.66
621.196	422.74
621.54	371.68
621.885	343.59
622.229	430.4
622.573	366.57
622.918	320.61
623.262	392.1
623.606	443.17
623.95	333.38
624.294	394.66
624.638	438.06
624.982	463.6
625.326	387
625.67	361.46
626.013	412.53
626.357	364.02
626.701	361.46
627.044	338.48
627.388	397.21
627.731	478.92
628.075	392.1
628.418	387
628.762	394.66
629.105	404.87
629.448	471.26
629.792	422.74
630.135	415.08
630.478	366.57
630.821	381.89
631.164	384.44
631.507	325.72
631.85	346.14
632.193	394.66
632.536	417.64
632.879	330.82
633.221	394.66
633.564	389.55
633.907	443.17
634.249	389.55
634.592	443.17
634.935	473.81
635.277	404.87
635.619	412.53
635.962	358.91
636.304	432.96
636.646	356.36
636.989	448.28
637.331	468.7
637.673	379.34
638.015	448.28
638.357	399.76
638.699	358.91
639.041	389.55
639.383	292.52
639.725	409.98
640.067	399.76
640.408	384.44
640.75	409.98
641.092	397.21
641.433	389.55
641.775	374.23
642.116	412.53
642.458	420.19
642.799	353.8
643.141	389.55
643.482	371.68
643.823	427.85
644.164	394.66
644.506	387
644.847	476.36
645.188	346.14
645.529	338.48
645.87	387
646.211	389.55
646.552	387
646.893	374.23
647.233	409.98
647.574	369.12
647.915	348.7
648.255	389.55
648.596	397.21
648.937	394.66
649.277	415.08
649.618	364.02
649.958	379.34
650.298	399.76
650.639	330.82
650.979	351.25
651.319	371.68
651.659	394.66
651.999	425.3
652.339	422.74
652.679	371.68
653.019	397.21
653.359	351.25
653.699	366.57
654.039	427.85
654.379	341.04
654.719	358.91
655.058	376.78
655.398	353.8
655.737	348.7
656.077	417.64
656.416	415.08
656.756	374.23
657.095	300.18
657.435	312.95
657.774	435.51
658.113	376.78
658.452	412.53
658.792	341.04
659.131	376.78
659.47	387
659.809	318.06
660.148	417.64
660.487	381.89
660.826	399.76
661.164	415.08
661.503	338.48
661.842	318.06
662.181	448.28
662.519	430.4
662.858	376.78
663.196	379.34
663.535	379.34
663.873	358.91
664.212	466.15
664.55	415.08
664.888	389.55
665.226	358.91
665.565	384.44
665.903	560.63
666.241	397.21
666.579	369.12
666.917	404.87
667.255	341.04
667.593	328.27
667.931	466.15
668.268	358.91
668.606	341.04
668.944	412.53
669.282	338.48
669.619	392.1
669.957	369.12
670.294	387
670.632	376.78
670.969	399.76
671.307	376.78
671.644	425.3
671.981	384.44
672.318	389.55
672.656	415.08
672.993	338.48
673.33	376.78
673.667	397.21
674.004	445.72
674.341	402.32
674.678	374.23
675.015	440.62
675.351	369.12
675.688	371.68
676.025	392.1
676.362	387
676.698	399.76
677.035	379.34
677.371	381.89
677.708	356.36
678.044	343.59
678.38	379.34
678.717	389.55
679.053	412.53
679.389	364.02
679.725	366.57
680.062	399.76
680.398	364.02
680.734	407.42
681.07	484.02
681.406	364.02
681.742	374.23
682.077	361.46
682.413	343.59
682.749	402.32
683.085	356.36
683.42	381.89
683.756	397.21
684.091	402.32
684.427	381.89
684.762	425.3
685.098	346.14
685.433	353.8
685.768	432.96
686.104	407.42
686.439	356.36
686.774	302.73
687.109	407.42
687.444	371.68
687.779	369.12
688.114	369.12
688.449	310.4
688.784	358.91
689.119	381.89
689.454	409.98
689.789	358.91
690.123	417.64
690.458	394.66
690.792	356.36
691.127	384.44
691.461	343.59
691.796	358.91
692.13	381.89
692.465	343.59
692.799	376.78
693.133	346.14
693.467	389.55
693.802	392.1
694.136	356.36
694.47	420.19
694.804	394.66
695.138	404.87
695.472	387
695.806	399.76
696.139	389.55
696.473	371.68
696.807	422.74
697.141	379.34
697.474	374.23
697.808	323.16
698.141	407.42
698.475	371.68
698.808	440.62
699.142	448.28
699.475	387
699.808	409.98
700.142	335.93
700.475	415.08
700.808	384.44
701.141	425.3
701.474	369.12
701.807	409.98
702.14	417.64
702.473	381.89
702.806	417.64
703.139	425.3
703.472	435.51
703.804	353.8
704.137	300.18
704.47	338.48
704.802	325.72
705.135	397.21
705.467	387
705.8	305.29
706.132	312.95
706.464	409.98
706.797	415.08
707.129	409.98
707.461	461.04
707.793	412.53
708.125	394.66
708.457	412.53
708.789	415.08
709.121	312.95
709.453	351.25
709.785	351.25
710.117	376.78
710.449	371.68
710.781	346.14
711.112	402.32
711.444	489.13
711.775	455.94
712.107	381.89
712.438	353.8
712.77	387
713.101	409.98
713.433	351.25
713.764	397.21
714.095	453.38
714.426	435.51
714.757	420.19
715.089	356.36
715.42	404.87
715.751	381.89
716.082	366.57
716.412	471.26
716.743	358.91
717.074	376.78
717.405	392.1
717.736	399.76
718.066	364.02
718.397	333.38
718.727	374.23
719.058	392.1
719.388	348.7
719.719	300.18
720.049	412.53
720.38	402.32
720.71	448.28
721.04	358.91
721.37	402.32
721.7	407.42
722.031	387
722.361	415.08
722.691	369.12
723.021	443.17
723.35	389.55
723.68	353.8
724.01	422.74
724.34	399.76
724.67	371.68
724.999	399.76
725.329	402.32
725.658	407.42
725.988	466.15
726.317	397.21
726.647	415.08
726.976	417.64
727.306	358.91
727.635	432.96
727.964	394.66
728.293	392.1
728.622	358.91
728.952	297.63
729.281	387
729.61	366.57
729.939	397.21
730.267	374.23
730.596	353.8
730.925	353.8
731.254	409.98
731.583	399.76
731.911	397.21
732.24	351.25
732.568	371.68
732.897	364.02
733.225	404.87
733.554	374.23
733.882	341.04
734.21	402.32
734.539	315.5
734.867	417.64
735.195	443.17
735.523	392.1
735.851	443.17
736.179	333.38
736.507	384.44
736.835	407.42
737.163	335.93
737.491	422.74
737.819	412.53
738.147	381.89
738.474	394.66
738.802	384.44
739.13	443.17
739.457	412.53
739.785	381.89
740.112	392.1
740.44	335.93
740.767	376.78
741.094	335.93
741.422	366.57
741.749	351.25
742.076	353.8
742.403	461.04
742.73	394.66
743.057	374.23
743.384	284.86
743.711	346.14
744.038	312.95
744.365	422.74
744.692	397.21
745.018	364.02
745.345	415.08
745.672	438.06
745.998	438.06
746.325	358.91
746.651	335.93
746.978	397.21
747.304	348.7
747.631	384.44
747.957	353.8
748.283	353.8
748.61	328.27
748.936	323.16
749.262	361.46
749.588	335.93
749.914	366.57
750.24	450.83
750.566	448.28
750.892	422.74
751.218	409.98
751.543	415.08
751.869	440.62
752.195	348.7
752.521	315.5
752.846	409.98
753.172	432.96
753.497	435.51
753.823	389.55
754.148	389.55
754.473	389.55
754.799	443.17
755.124	381.89
755.449	394.66
755.774	384.44
756.1	461.04
756.425	356.36
756.75	356.36
757.075	381.89
757.4	432.96
757.724	420.19
758.049	374.23
758.374	430.4
758.699	351.25
759.024	402.32
759.348	358.91
759.673	443.17
759.997	379.34
760.322	443.17
760.646	463.6
760.971	440.62
761.295	392.1
761.619	384.44
761.944	463.6
762.268	381.89
762.592	384.44
762.916	417.64
763.24	422.74
763.564	361.46
763.888	361.46
764.212	432.96
764.536	476.36
764.86	397.21
765.184	397.21
765.508	412.53
765.831	453.38
766.155	703.62
766.478	552.97
766.802	471.26
767.126	443.17
767.449	555.52
767.772	593.82
768.096	501.9
768.419	471.26
768.742	570.84
769.066	627.01
769.389	614.25
769.712	563.18
770.035	598.93
770.358	685.74
770.681	734.26
771.004	741.92
771.327	747.02
771.65	724.04
771.972	762.34
772.295	823.62
772.618	846.6
772.941	844.05
773.263	900.23
773.586	923.21
773.908	912.99
774.231	1068.75
774.553	964.06
774.875	1175.99
775.198	1168.33
775.52	1117.26
775.842	1091.73
776.164	1055.98
776.487	1094.28
776.809	1091.73
777.131	1122.37
777.453	1124.92
777.775	1091.73
778.096	1216.84
778.418	1165.78
778.74	1257.7
779.062	1247.48
779.384	1262.81
779.705	1349.62
780.027	1472.18
780.348	1416.01
780.67	1354.73
780.991	1561.55
781.313	1691.77
781.634	1758.16
781.955	1638.15
782.277	1602.4
782.598	1635.6
782.919	1633.04
783.24	1686.67
783.561	1679.01
783.882	1625.38
784.203	1691.77
784.524	1696.88
784.845	1676.45
785.166	1735.18
785.487	1686.67
785.807	1837.32
786.128	1809.23
786.449	1773.48
786.769	1870.51
787.09	1921.58
787.41	2044.14
787.731	2212.66
788.051	2307.14
788.372	2350.54
788.692	2539.49
789.012	2529.28
789.332	2424.59
789.653	2462.89
789.973	2580.35
790.293	2439.91
790.613	2363.31
790.933	2317.35
791.253	2355.65
791.573	2353.1
791.893	2411.83
792.212	2261.18
792.532	2391.4
792.852	2296.92
793.171	2113.08
793.491	2079.89
793.811	2082.44
794.13	2064.57
794.45	1936.9
794.769	1936.9
795.088	1919.02
795.408	1870.51
795.727	1942
796.046	1893.49
796.365	1944.56
796.684	1834.76
797.004	1819.44
797.323	2120.74
797.642	2526.73
797.96	2577.79
798.279	2516.51
798.598	2524.17
798.917	2399.06
799.236	2327.56
799.554	2199.89
799.873	1990.52
800.192	2151.38
800.51	2192.23
800.829	2238.2
801.147	2205
801.466	1993.07
801.784	2077.33
