Data from 2025-12-03_xpw_interference_micrometer_634_reference_FLMS141361__51__501.txt Node

Date: Wed Dec 03 15:52:24 MST 2025
User: james
Spectrometer: FLMS14136
Trigger mode: 0
Integration Time (sec): 1.000000E-1
Scans to average: 1
Electric dark correction enabled: true
Nonlinearity correction enabled: false
Boxcar width: 0
XAxis mode: Wavelengths
Number of Pixels in Spectrum: 2048
>>>>>Begin Spectral Data<<<<<
339.315	-63.36
339.697	-63.36
340.079	-63.36
340.461	-142.51
340.843	-101.66
341.225	-73.57
341.607	-139.96
341.989	-137.4
342.371	-119.53
342.752	-88.89
343.134	-17.39
343.516	-55.7
343.897	-14.84
344.279	20.91
344.661	10.69
345.042	128.15
345.423	31.12
345.805	71.97
346.186	69.42
346.567	151.13
346.949	163.89
347.33	237.94
347.711	166.45
348.092	212.41
348.473	207.3
348.854	299.22
349.235	240.5
349.616	255.82
349.997	304.33
350.378	296.67
350.758	347.74
351.139	332.42
351.52	319.65
351.9	309.44
352.281	401.36
352.661	355.4
353.042	317.1
353.422	363.06
353.803	373.27
354.183	393.7
354.563	375.83
354.943	380.93
355.324	393.7
355.704	368.17
356.084	398.81
356.464	462.64
356.844	383.49
357.224	434.55
357.603	365.61
357.983	396.25
358.363	449.87
358.743	347.74
359.122	393.7
359.502	345.18
359.882	334.97
360.261	334.97
360.641	391.15
361.02	378.38
361.399	386.04
361.779	329.86
362.158	396.25
362.537	327.31
362.916	386.04
363.296	370.72
363.675	352.84
364.054	350.29
364.433	324.76
364.812	411.57
365.19	357.95
365.569	347.74
365.948	357.95
366.327	416.68
366.705	409.02
367.084	421.79
367.463	386.04
367.841	380.93
368.22	258.37
368.598	345.18
368.977	398.81
369.355	380.93
369.733	301.78
370.111	311.99
370.49	350.29
370.868	370.72
371.246	368.17
371.624	368.17
372.002	388.59
372.38	388.59
372.758	357.95
373.136	329.86
373.513	324.76
373.891	421.79
374.269	355.4
374.646	380.93
375.024	383.49
375.402	365.61
375.779	393.7
376.157	365.61
376.534	332.42
376.911	363.06
377.289	416.68
377.666	332.42
378.043	375.83
378.42	378.38
378.797	373.27
379.175	309.44
379.552	357.95
379.929	355.4
380.305	355.4
380.682	352.84
381.059	342.63
381.436	437.11
381.813	411.57
382.189	375.83
382.566	398.81
382.943	388.59
383.319	340.08
383.696	332.42
384.072	401.36
384.448	406.47
384.825	396.25
385.201	373.27
385.577	352.84
385.953	342.63
386.329	375.83
386.706	401.36
387.082	403.91
387.458	398.81
387.834	383.49
388.209	324.76
388.585	378.38
388.961	357.95
389.337	396.25
389.713	403.91
390.088	411.57
390.464	386.04
390.839	411.57
391.215	416.68
391.59	347.74
391.966	368.17
392.341	416.68
392.716	439.66
393.092	457.53
393.467	432
393.842	345.18
394.217	396.25
394.592	314.54
394.967	360.51
395.342	383.49
395.717	401.36
396.092	370.72
396.467	375.83
396.841	444.77
397.216	398.81
397.591	301.78
397.965	449.87
398.34	416.68
398.714	383.49
399.089	340.08
399.463	460.09
399.838	350.29
400.212	365.61
400.586	363.06
400.961	373.27
401.335	391.15
401.709	409.02
402.083	391.15
402.457	434.55
402.831	388.59
403.205	409.02
403.579	386.04
403.953	368.17
404.326	363.06
404.7	396.25
405.074	370.72
405.447	365.61
405.821	324.76
406.195	388.59
406.568	421.79
406.942	444.77
407.315	365.61
407.688	370.72
408.062	421.79
408.435	398.81
408.808	429.45
409.181	401.36
409.554	347.74
409.927	357.95
410.3	391.15
410.673	360.51
411.046	434.55
411.419	375.83
411.792	426.89
412.165	373.27
412.537	388.59
412.91	373.27
413.283	355.4
413.655	406.47
414.028	332.42
414.4	437.11
414.773	388.59
415.145	467.75
415.517	411.57
415.889	434.55
416.262	380.93
416.634	421.79
417.006	386.04
417.378	383.49
417.75	393.7
418.122	434.55
418.494	454.98
418.866	457.53
419.238	449.87
419.609	409.02
419.981	337.52
420.353	414.13
420.725	401.36
421.096	386.04
421.468	334.97
421.839	472.85
422.211	383.49
422.582	383.49
422.953	360.51
423.325	406.47
423.696	439.66
424.067	357.95
424.438	378.38
424.809	414.13
425.18	396.25
425.551	401.36
425.922	421.79
426.293	406.47
426.664	444.77
427.035	457.53
427.406	429.45
427.776	388.59
428.147	380.93
428.518	439.66
428.888	396.25
429.259	401.36
429.629	386.04
429.999	434.55
430.37	365.61
430.74	365.61
431.11	342.63
431.481	324.76
431.851	490.73
432.221	396.25
432.591	329.86
432.961	409.02
433.331	421.79
433.701	447.32
434.071	442.21
434.441	424.34
434.81	432
435.18	378.38
435.55	452.43
435.919	409.02
436.289	357.95
436.658	454.98
437.028	350.29
437.397	383.49
437.767	442.21
438.136	396.25
438.505	419.23
438.875	363.06
439.244	465.19
439.613	393.7
439.982	360.51
440.351	345.18
440.72	409.02
441.089	332.42
441.458	347.74
441.827	398.81
442.196	406.47
442.564	462.64
442.933	409.02
443.302	365.61
443.67	401.36
444.039	334.97
444.407	403.91
444.776	370.72
445.144	396.25
445.513	317.1
445.881	421.79
446.249	368.17
446.617	347.74
446.986	350.29
447.354	437.11
447.722	378.38
448.09	380.93
448.458	396.25
448.826	460.09
449.194	370.72
449.561	421.79
449.929	383.49
450.297	396.25
450.665	426.89
451.032	444.77
451.4	434.55
451.767	373.27
452.135	370.72
452.502	396.25
452.87	434.55
453.237	393.7
453.604	439.66
453.971	485.62
454.339	380.93
454.706	352.84
455.073	393.7
455.44	401.36
455.807	383.49
456.174	424.34
456.541	465.19
456.908	403.91
457.274	444.77
457.641	409.02
458.008	409.02
458.374	409.02
458.741	419.23
459.108	475.41
459.474	416.68
459.841	355.4
460.207	360.51
460.573	447.32
460.94	403.91
461.306	442.21
461.672	421.79
462.038	363.06
462.404	360.51
462.771	449.87
463.137	465.19
463.503	434.55
463.868	363.06
464.234	454.98
464.6	401.36
464.966	403.91
465.332	403.91
465.697	378.38
466.063	327.31
466.429	439.66
466.794	393.7
467.16	419.23
467.525	462.64
467.89	442.21
468.256	391.15
468.621	373.27
468.986	447.32
469.351	434.55
469.717	398.81
470.082	373.27
470.447	424.34
470.812	416.68
471.177	414.13
471.542	360.51
471.906	419.23
472.271	383.49
472.636	370.72
473.001	444.77
473.365	465.19
473.73	426.89
474.094	398.81
474.459	449.87
474.823	378.38
475.188	414.13
475.552	375.83
475.917	401.36
476.281	396.25
476.645	452.43
477.009	449.87
477.373	401.36
477.737	388.59
478.101	396.25
478.465	403.91
478.829	350.29
479.193	403.91
479.557	442.21
479.921	401.36
480.284	393.7
480.648	403.91
481.012	419.23
481.375	373.27
481.739	398.81
482.102	470.3
482.466	419.23
482.829	411.57
483.193	357.95
483.556	401.36
483.919	437.11
484.282	396.25
484.645	429.45
485.009	396.25
485.372	398.81
485.735	365.61
486.098	380.93
486.46	462.64
486.823	396.25
487.186	437.11
487.549	493.28
487.912	393.7
488.274	444.77
488.637	401.36
488.999	406.47
489.362	414.13
489.724	317.1
490.087	465.19
490.449	388.59
490.811	365.61
491.174	403.91
491.536	396.25
491.898	368.17
492.26	421.79
492.622	386.04
492.984	403.91
493.346	391.15
493.708	411.57
494.07	429.45
494.432	396.25
494.794	383.49
495.155	439.66
495.517	393.7
495.879	477.96
496.24	426.89
496.602	393.7
496.963	416.68
497.325	383.49
497.686	437.11
498.048	396.25
498.409	439.66
498.77	401.36
499.131	403.91
499.492	391.15
499.854	432
500.215	432
500.576	424.34
500.937	368.17
501.298	414.13
501.658	470.3
502.019	398.81
502.38	429.45
502.741	472.85
503.101	444.77
503.462	447.32
503.823	375.83
504.183	472.85
504.543	444.77
504.904	352.84
505.264	375.83
505.625	375.83
505.985	444.77
506.345	439.66
506.705	429.45
507.065	396.25
507.426	457.53
507.786	414.13
508.146	411.57
508.505	442.21
508.865	416.68
509.225	421.79
509.585	470.3
509.945	434.55
510.304	409.02
510.664	437.11
511.024	368.17
511.383	462.64
511.743	419.23
512.102	340.08
512.462	375.83
512.821	447.32
513.18	470.3
513.539	437.11
513.899	383.49
514.258	452.43
514.617	452.43
514.976	437.11
515.335	432
515.694	470.3
516.053	398.81
516.412	337.52
516.771	396.25
517.129	424.34
517.488	345.18
517.847	437.11
518.205	396.25
518.564	472.85
518.922	439.66
519.281	375.83
519.639	391.15
519.998	447.32
520.356	439.66
520.714	472.85
521.073	406.47
521.431	363.06
521.789	365.61
522.147	437.11
522.505	460.09
522.863	447.32
523.221	291.56
523.579	365.61
523.937	411.57
524.295	365.61
524.652	411.57
525.01	368.17
525.368	380.93
525.725	454.98
526.083	426.89
526.44	378.38
526.798	411.57
527.155	454.98
527.513	414.13
527.87	421.79
528.227	370.72
528.584	424.34
528.942	444.77
529.299	460.09
529.656	378.38
530.013	393.7
530.37	388.59
530.727	485.62
531.083	477.96
531.44	421.79
531.797	388.59
532.154	447.32
532.511	409.02
532.867	406.47
533.224	429.45
533.58	472.85
533.937	432
534.293	396.25
534.65	421.79
535.006	406.47
535.362	460.09
535.718	424.34
536.075	360.51
536.431	454.98
536.787	421.79
537.143	365.61
537.499	388.59
537.855	373.27
538.211	454.98
538.567	500.94
538.923	406.47
539.278	426.89
539.634	368.17
539.99	424.34
540.345	386.04
540.701	442.21
541.056	421.79
541.412	375.83
541.767	460.09
542.123	391.15
542.478	444.77
542.833	460.09
543.188	462.64
543.544	432
543.899	357.95
544.254	398.81
544.609	452.43
544.964	429.45
545.319	388.59
545.674	442.21
546.029	365.61
546.383	414.13
546.738	416.68
547.093	467.75
547.447	403.91
547.802	396.25
548.157	403.91
548.511	396.25
548.866	432
549.22	403.91
549.574	416.68
549.929	454.98
550.283	406.47
550.637	424.34
550.991	465.19
551.345	452.43
551.699	465.19
552.053	334.97
552.407	403.91
552.761	434.55
553.115	424.34
553.469	403.91
553.823	462.64
554.176	429.45
554.53	439.66
554.884	373.27
555.237	597.97
555.591	506.05
555.944	406.47
556.298	447.32
556.651	449.87
557.005	475.41
557.358	403.91
557.711	391.15
558.064	437.11
558.417	416.68
558.771	475.41
559.124	388.59
559.477	383.49
559.83	386.04
560.182	401.36
560.535	403.91
560.888	447.32
561.241	414.13
561.594	432
561.946	357.95
562.299	368.17
562.651	411.57
563.004	409.02
563.356	368.17
563.709	406.47
564.061	324.76
564.413	398.81
564.766	406.47
565.118	416.68
565.47	416.68
565.822	437.11
566.174	437.11
566.526	380.93
566.878	421.79
567.23	426.89
567.582	396.25
567.934	416.68
568.286	444.77
568.638	444.77
568.989	411.57
569.341	350.29
569.693	421.79
570.044	439.66
570.396	414.13
570.747	352.84
571.098	403.91
571.45	398.81
571.801	401.36
572.152	403.91
572.504	454.98
572.855	424.34
573.206	370.72
573.557	352.84
573.908	434.55
574.259	409.02
574.61	429.45
574.961	424.34
575.311	439.66
575.662	449.87
576.013	447.32
576.364	406.47
576.714	409.02
577.065	462.64
577.415	360.51
577.766	457.53
578.116	391.15
578.467	401.36
578.817	470.3
579.167	460.09
579.518	421.79
579.868	444.77
580.218	388.59
580.568	391.15
580.918	421.79
581.268	454.98
581.618	363.06
581.968	345.18
582.318	337.52
582.668	444.77
583.017	424.34
583.367	424.34
583.717	406.47
584.066	401.36
584.416	403.91
584.765	409.02
585.115	409.02
585.464	401.36
585.814	373.27
586.163	363.06
586.512	391.15
586.862	416.68
587.211	383.49
587.56	409.02
587.909	383.49
588.258	383.49
588.607	380.93
588.956	439.66
589.305	401.36
589.654	490.73
590.002	398.81
590.351	475.41
590.7	437.11
591.048	409.02
591.397	447.32
591.746	421.79
592.094	373.27
592.443	503.49
592.791	396.25
593.139	411.57
593.488	470.3
593.836	409.02
594.184	373.27
594.532	386.04
594.88	454.98
595.228	416.68
595.576	406.47
595.924	444.77
596.272	437.11
596.62	439.66
596.968	442.21
597.316	365.61
597.664	393.7
598.011	370.72
598.359	360.51
598.706	383.49
599.054	355.4
599.402	388.59
599.749	409.02
600.096	378.38
600.444	439.66
600.791	432
601.138	406.47
601.485	421.79
601.833	442.21
602.18	411.57
602.527	378.38
602.874	416.68
603.221	393.7
603.568	414.13
603.914	363.06
604.261	340.08
604.608	350.29
604.955	322.2
605.301	388.59
605.648	444.77
605.995	388.59
606.341	373.27
606.688	419.23
607.034	396.25
607.38	439.66
607.727	401.36
608.073	475.41
608.419	386.04
608.765	432
609.112	396.25
609.458	454.98
609.804	419.23
610.15	375.83
610.496	347.74
610.842	350.29
611.187	409.02
611.533	365.61
611.879	401.36
612.225	401.36
612.57	383.49
612.916	457.53
613.261	401.36
613.607	388.59
613.952	357.95
614.298	398.81
614.643	442.21
614.989	378.38
615.334	375.83
615.679	375.83
616.024	432
616.369	403.91
616.714	375.83
617.059	406.47
617.404	406.47
617.749	363.06
618.094	378.38
618.439	345.18
618.784	462.64
619.129	421.79
619.473	444.77
619.818	447.32
620.163	457.53
620.507	429.45
620.852	352.84
621.196	378.38
621.54	421.79
621.885	406.47
622.229	334.97
622.573	393.7
622.918	391.15
623.262	398.81
623.606	406.47
623.95	426.89
624.294	414.13
624.638	419.23
624.982	406.47
625.326	416.68
625.67	350.29
626.013	363.06
626.357	380.93
626.701	437.11
627.044	477.96
627.388	337.52
627.731	347.74
628.075	419.23
628.418	437.11
628.762	391.15
629.105	416.68
629.448	406.47
629.792	391.15
630.135	411.57
630.478	409.02
630.821	370.72
631.164	375.83
631.507	419.23
631.85	419.23
632.193	442.21
632.536	352.84
632.879	355.4
633.221	416.68
633.564	457.53
633.907	327.31
634.249	409.02
634.592	355.4
634.935	386.04
635.277	340.08
635.619	370.72
635.962	411.57
636.304	396.25
636.646	370.72
636.989	434.55
637.331	352.84
637.673	378.38
638.015	401.36
638.357	393.7
638.699	357.95
639.041	414.13
639.383	355.4
639.725	368.17
640.067	398.81
640.408	391.15
640.75	357.95
641.092	375.83
641.433	360.51
641.775	442.21
642.116	403.91
642.458	401.36
642.799	437.11
643.141	317.1
643.482	347.74
643.823	368.17
644.164	403.91
644.506	472.85
644.847	437.11
645.188	386.04
645.529	370.72
645.87	434.55
646.211	434.55
646.552	452.43
646.893	447.32
647.233	434.55
647.574	398.81
647.915	460.09
648.255	424.34
648.596	411.57
648.937	403.91
649.277	386.04
649.618	406.47
649.958	444.77
650.298	449.87
650.639	368.17
650.979	355.4
651.319	432
651.659	419.23
651.999	386.04
652.339	421.79
652.679	437.11
653.019	352.84
653.359	416.68
653.699	396.25
654.039	485.62
654.379	437.11
654.719	383.49
655.058	416.68
655.398	411.57
655.737	454.98
656.077	345.18
656.416	398.81
656.756	426.89
657.095	439.66
657.435	383.49
657.774	452.43
658.113	391.15
658.452	426.89
658.792	386.04
659.131	403.91
659.47	393.7
659.809	444.77
660.148	380.93
660.487	416.68
660.826	357.95
661.164	363.06
661.503	403.91
661.842	424.34
662.181	416.68
662.519	467.75
662.858	439.66
663.196	403.91
663.535	414.13
663.873	396.25
664.212	386.04
664.55	442.21
664.888	388.59
665.226	419.23
665.565	416.68
665.903	631.16
666.241	500.94
666.579	442.21
666.917	396.25
667.255	365.61
667.593	380.93
667.931	365.61
668.268	409.02
668.606	411.57
668.944	457.53
669.282	398.81
669.619	467.75
669.957	406.47
670.294	449.87
670.632	406.47
670.969	426.89
671.307	452.43
671.644	396.25
671.981	462.64
672.318	442.21
672.656	411.57
672.993	449.87
673.33	340.08
673.667	414.13
674.004	409.02
674.341	414.13
674.678	380.93
675.015	444.77
675.351	485.62
675.688	391.15
676.025	393.7
676.362	454.98
676.698	424.34
677.035	398.81
677.371	393.7
677.708	363.06
678.044	373.27
678.38	403.91
678.717	416.68
679.053	424.34
679.389	429.45
679.725	352.84
680.062	449.87
680.398	467.75
680.734	475.41
681.07	442.21
681.406	363.06
681.742	380.93
682.077	350.29
682.413	327.31
682.749	383.49
683.085	373.27
683.42	383.49
683.756	424.34
684.091	432
684.427	398.81
684.762	383.49
685.098	383.49
685.433	388.59
685.768	352.84
686.104	334.97
686.439	414.13
686.774	439.66
687.109	345.18
687.444	378.38
687.779	350.29
688.114	403.91
688.449	375.83
688.784	375.83
689.119	380.93
689.454	414.13
689.789	337.52
690.123	350.29
690.458	380.93
690.792	419.23
691.127	373.27
691.461	360.51
691.796	409.02
692.13	393.7
692.465	411.57
692.799	424.34
693.133	434.55
693.467	386.04
693.802	439.66
694.136	429.45
694.47	444.77
694.804	347.74
695.138	426.89
695.472	426.89
695.806	411.57
696.139	419.23
696.473	411.57
696.807	365.61
697.141	401.36
697.474	403.91
697.808	401.36
698.141	363.06
698.475	380.93
698.808	444.77
699.142	444.77
699.475	414.13
699.808	424.34
700.142	429.45
700.475	363.06
700.808	378.38
701.141	398.81
701.474	419.23
701.807	355.4
702.14	301.78
702.473	319.65
702.806	345.18
703.139	416.68
703.472	411.57
703.804	419.23
704.137	306.88
704.47	355.4
704.802	391.15
705.135	419.23
705.467	432
705.8	401.36
706.132	421.79
706.464	414.13
706.797	380.93
707.129	403.91
707.461	398.81
707.793	424.34
708.125	409.02
708.457	414.13
708.789	429.45
709.121	401.36
709.453	419.23
709.785	457.53
710.117	434.55
710.449	416.68
710.781	485.62
711.112	360.51
711.444	411.57
711.775	398.81
712.107	386.04
712.438	403.91
712.77	409.02
713.101	393.7
713.433	406.47
713.764	380.93
714.095	363.06
714.426	391.15
714.757	409.02
715.089	391.15
715.42	347.74
715.751	368.17
716.082	429.45
716.412	396.25
716.743	409.02
717.074	411.57
717.405	432
717.736	370.72
718.066	396.25
718.397	391.15
718.727	398.81
719.058	357.95
719.388	439.66
719.719	462.64
720.049	434.55
720.38	386.04
720.71	334.97
721.04	345.18
721.37	434.55
721.7	449.87
722.031	457.53
722.361	370.72
722.691	426.89
723.021	373.27
723.35	426.89
723.68	432
724.01	424.34
724.34	375.83
724.67	327.31
724.999	406.47
725.329	337.52
725.658	363.06
725.988	416.68
726.317	462.64
726.647	386.04
726.976	406.47
727.306	460.09
727.635	391.15
727.964	368.17
728.293	365.61
728.622	386.04
728.952	411.57
729.281	342.63
729.61	421.79
729.939	370.72
730.267	396.25
730.596	409.02
730.925	378.38
731.254	403.91
731.583	383.49
731.911	375.83
732.24	396.25
732.568	391.15
732.897	368.17
733.225	414.13
733.554	386.04
733.882	437.11
734.21	352.84
734.539	457.53
734.867	429.45
735.195	432
735.523	442.21
735.851	419.23
736.179	334.97
736.507	375.83
736.835	409.02
737.163	393.7
737.491	345.18
737.819	386.04
738.147	396.25
738.474	375.83
738.802	337.52
739.13	391.15
739.457	447.32
739.785	391.15
740.112	391.15
740.44	437.11
740.767	378.38
741.094	401.36
741.422	424.34
741.749	383.49
742.076	360.51
742.403	411.57
742.73	378.38
743.057	424.34
743.384	460.09
743.711	460.09
744.038	424.34
744.365	488.17
744.692	424.34
745.018	411.57
745.345	386.04
745.672	434.55
745.998	411.57
746.325	388.59
746.651	383.49
746.978	386.04
747.304	444.77
747.631	414.13
747.957	416.68
748.283	424.34
748.61	396.25
748.936	429.45
749.262	454.98
749.588	462.64
749.914	409.02
750.24	340.08
750.566	406.47
750.892	424.34
751.218	424.34
751.543	391.15
751.869	347.74
752.195	401.36
752.521	363.06
752.846	403.91
753.172	332.42
753.497	380.93
753.823	393.7
754.148	378.38
754.473	419.23
754.799	424.34
755.124	434.55
755.449	352.84
755.774	396.25
756.1	411.57
756.425	311.99
756.75	409.02
757.075	373.27
757.4	544.35
757.724	439.66
758.049	398.81
758.374	380.93
758.699	419.23
759.024	419.23
759.348	483.07
759.673	370.72
759.997	409.02
760.322	401.36
760.646	391.15
760.971	383.49
761.295	388.59
761.619	437.11
761.944	383.49
762.268	419.23
762.592	398.81
762.916	355.4
763.24	472.85
763.564	332.42
763.888	421.79
764.212	503.49
764.536	472.85
764.86	475.41
765.184	398.81
765.508	465.19
765.831	444.77
766.155	740.96
766.478	526.47
766.802	498.39
767.126	546.9
767.449	506.05
767.772	567.33
768.096	613.29
768.419	559.67
768.742	613.29
769.066	597.97
769.389	659.25
769.712	707.76
770.035	692.44
770.358	692.44
770.681	776.71
771.004	817.56
771.327	761.39
771.65	738.41
771.972	748.62
772.295	866.07
772.618	871.18
772.941	792.03
773.263	858.41
773.586	914.59
773.908	1039.7
774.231	955.44
774.553	1026.94
774.875	1080.56
775.198	1113.75
775.52	1100.98
775.842	1093.32
776.164	1062.68
776.487	1060.13
776.809	1141.84
777.131	1121.41
777.453	1100.98
777.775	1223.55
778.096	1095.88
778.418	1213.33
778.74	1233.76
779.062	1182.69
779.384	1213.33
779.705	1374.2
780.027	1504.42
780.348	1463.56
780.67	1422.71
780.991	1509.53
781.313	1706.14
781.634	1813.38
781.955	1741.88
782.277	1685.71
782.598	1703.58
782.919	1637.19
783.24	1741.88
783.561	1680.6
783.882	1678.05
784.203	1769.97
784.524	1772.52
784.845	1762.31
785.166	1726.56
785.487	1731.67
785.807	1844.02
786.128	1787.84
786.449	1711.24
786.769	1805.72
787.09	1951.26
787.41	2032.97
787.731	2198.94
788.051	2339.37
788.372	2336.82
788.692	2352.14
789.012	2408.31
789.332	2446.61
789.653	2520.66
789.973	2627.9
790.293	2574.28
790.613	2357.25
790.933	2334.27
791.253	2433.85
791.573	2364.91
791.893	2239.79
792.212	2285.75
792.532	2324.05
792.852	2232.13
793.171	2272.99
793.491	2048.29
793.811	2101.91
794.13	2038.07
794.45	1971.69
794.769	1900.19
795.088	1844.02
795.408	1841.46
795.727	1925.73
796.046	2015.09
796.365	2020.2
796.684	1838.91
797.004	1828.7
797.323	2002.33
797.642	2375.12
797.96	2587.05
798.279	2510.45
798.598	2418.53
798.917	2352.14
799.236	2288.31
799.554	2221.92
799.873	2137.66
