Data from 2025-12-03_xpw_interference_micrometer_634_reference_FLMS141361__86__536.txt Node

Date: Wed Dec 03 15:52:27 MST 2025
User: james
Spectrometer: FLMS14136
Trigger mode: 0
Integration Time (sec): 1.000000E-1
Scans to average: 1
Electric dark correction enabled: true
Nonlinearity correction enabled: false
Boxcar width: 0
XAxis mode: Wavelengths
Number of Pixels in Spectrum: 2048
>>>>>Begin Spectral Data<<<<<
339.315	-47.88
339.697	-47.88
340.079	-47.88
340.461	-114.26
340.843	-101.5
341.225	-139.8
341.607	-127.03
341.989	-86.18
342.371	-86.18
342.752	-114.26
343.134	-93.84
343.516	-24.9
343.897	15.96
344.279	10.85
344.661	0.64
345.042	102.77
345.423	26.17
345.805	31.28
346.186	115.54
346.567	130.86
346.949	238.1
347.33	215.12
347.711	176.82
348.092	202.36
348.473	215.12
348.854	273.85
349.235	273.85
349.616	202.36
349.997	296.83
350.378	222.78
350.758	291.72
351.139	327.47
351.52	358.11
351.9	330.02
352.281	327.47
352.661	404.07
353.042	386.2
353.422	335.13
353.803	427.05
354.183	340.24
354.563	368.32
354.943	398.97
355.324	388.75
355.704	419.39
356.084	406.63
356.464	345.34
356.844	381.09
357.224	427.05
357.603	432.16
357.983	373.43
358.363	434.71
358.743	391.31
359.122	378.54
359.502	360.66
359.882	414.29
360.261	332.58
360.641	360.66
361.02	355.56
361.399	335.13
361.779	332.58
362.158	337.68
362.537	324.92
362.916	332.58
363.296	342.79
363.675	378.54
364.054	340.24
364.433	353
364.812	404.07
365.19	368.32
365.569	319.81
365.948	324.92
366.327	383.65
366.705	337.68
367.084	319.81
367.463	335.13
367.841	404.07
368.22	322.36
368.598	386.2
368.977	370.88
369.355	347.9
369.733	337.68
370.111	312.15
370.49	404.07
370.868	309.6
371.246	370.88
371.624	365.77
372.002	322.36
372.38	414.29
372.758	350.45
373.136	314.7
373.513	327.47
373.891	363.22
374.269	398.97
374.646	355.56
375.024	398.97
375.402	396.41
375.779	398.97
376.157	365.77
376.534	404.07
376.911	299.38
377.289	281.51
377.666	355.56
378.043	404.07
378.42	342.79
378.797	335.13
379.175	419.39
379.552	363.22
379.929	368.32
380.305	404.07
380.682	414.29
381.059	365.77
381.436	409.18
381.813	345.34
382.189	383.65
382.566	261.08
382.943	332.58
383.319	386.2
383.696	312.15
384.072	312.15
384.448	322.36
384.825	378.54
385.201	358.11
385.577	307.04
385.953	347.9
386.329	404.07
386.706	370.88
387.082	370.88
387.458	386.2
387.834	340.24
388.209	322.36
388.585	355.56
388.961	360.66
389.337	363.22
389.713	335.13
390.088	388.75
390.464	450.03
390.839	406.63
391.215	317.26
391.59	358.11
391.966	340.24
392.341	340.24
392.716	296.83
393.092	365.77
393.467	396.41
393.842	335.13
394.217	350.45
394.592	345.34
394.967	358.11
395.342	337.68
395.717	388.75
396.092	360.66
396.467	414.29
396.841	360.66
397.216	411.73
397.591	432.16
397.965	381.09
398.34	347.9
398.714	335.13
399.089	391.31
399.463	442.37
399.838	432.16
400.212	416.84
400.586	358.11
400.961	360.66
401.335	314.7
401.709	304.49
402.083	383.65
402.457	335.13
402.831	391.31
403.205	373.43
403.579	368.32
403.953	373.43
404.326	409.18
404.7	375.98
405.074	358.11
405.447	401.52
405.821	424.5
406.195	330.02
406.568	398.97
406.942	447.48
407.315	370.88
407.688	347.9
408.062	396.41
408.435	457.69
408.808	398.97
409.181	442.37
409.554	340.24
409.927	404.07
410.3	383.65
410.673	350.45
411.046	324.92
411.419	452.59
411.792	353
412.165	404.07
412.537	437.27
412.91	455.14
413.283	355.56
413.655	368.32
414.028	368.32
414.4	398.97
414.773	398.97
415.145	388.75
415.517	391.31
415.889	432.16
416.262	432.16
416.634	396.41
417.006	360.66
417.378	396.41
417.75	437.27
418.122	457.69
418.494	455.14
418.866	401.52
419.238	419.39
419.609	383.65
419.981	434.71
420.353	409.18
420.725	365.77
421.096	473.01
421.468	398.97
421.839	404.07
422.211	386.2
422.582	383.65
422.953	370.88
423.325	350.45
423.696	398.97
424.067	317.26
424.438	388.75
424.809	396.41
425.18	370.88
425.551	386.2
425.922	360.66
426.293	345.34
426.664	419.39
427.035	375.98
427.406	404.07
427.776	370.88
428.147	404.07
428.518	411.73
428.888	398.97
429.259	383.65
429.629	370.88
429.999	358.11
430.37	447.48
430.74	396.41
431.11	383.65
431.481	335.13
431.851	406.63
432.221	388.75
432.591	398.97
432.961	373.43
433.331	398.97
433.701	393.86
434.071	447.48
434.441	406.63
434.81	404.07
435.18	427.05
435.55	409.18
435.919	378.54
436.289	388.75
436.658	404.07
437.028	358.11
437.397	370.88
437.767	340.24
438.136	360.66
438.505	409.18
438.875	365.77
439.244	416.84
439.613	462.8
439.982	381.09
440.351	416.84
440.72	444.93
441.089	439.82
441.458	391.31
441.827	396.41
442.196	378.54
442.564	485.78
442.933	381.09
443.302	370.88
443.67	393.86
444.039	345.34
444.407	404.07
444.776	365.77
445.144	493.44
445.513	368.32
445.881	393.86
446.249	358.11
446.617	368.32
446.986	396.41
447.354	386.2
447.722	388.75
448.09	427.05
448.458	401.52
448.826	414.29
449.194	347.9
449.561	416.84
449.929	378.54
450.297	391.31
450.665	393.86
451.032	427.05
451.4	378.54
451.767	391.31
452.135	406.63
452.502	424.5
452.87	429.61
453.237	447.48
453.604	396.41
453.971	409.18
454.339	378.54
454.706	401.52
455.073	368.32
455.44	393.86
455.807	350.45
456.174	360.66
456.541	437.27
456.908	375.98
457.274	444.93
457.641	386.2
458.008	386.2
458.374	429.61
458.741	429.61
459.108	393.86
459.474	368.32
459.841	301.94
460.207	381.09
460.573	396.41
460.94	419.39
461.306	411.73
461.672	501.1
462.038	391.31
462.404	475.57
462.771	406.63
463.137	473.01
463.503	396.41
463.868	411.73
464.234	398.97
464.6	398.97
464.966	375.98
465.332	373.43
465.697	391.31
466.063	432.16
466.429	355.56
466.794	383.65
467.16	368.32
467.525	391.31
467.89	386.2
468.256	383.65
468.621	444.93
468.986	406.63
469.351	391.31
469.717	322.36
470.082	398.97
470.447	444.93
470.812	373.43
471.177	381.09
471.542	378.54
471.906	447.48
472.271	419.39
472.636	414.29
473.001	386.2
473.365	427.05
473.73	460.25
474.094	427.05
474.459	388.75
474.823	414.29
475.188	409.18
475.552	375.98
475.917	398.97
476.281	396.41
476.645	424.5
477.009	401.52
477.373	434.71
477.737	391.31
478.101	414.29
478.465	322.36
478.829	401.52
479.193	409.18
479.557	406.63
479.921	378.54
480.284	450.03
480.648	406.63
481.012	391.31
481.375	404.07
481.739	427.05
482.102	340.24
482.466	363.22
482.829	437.27
483.193	373.43
483.556	414.29
483.919	427.05
484.282	393.86
484.645	439.82
485.009	419.39
485.372	378.54
485.735	434.71
486.098	393.86
486.46	391.31
486.823	452.59
487.186	457.69
487.549	429.61
487.912	388.75
488.274	421.95
488.637	462.8
488.999	419.39
489.362	386.2
489.724	381.09
490.087	391.31
490.449	391.31
490.811	330.02
491.174	393.86
491.536	370.88
491.898	411.73
492.26	360.66
492.622	457.69
492.984	373.43
493.346	335.13
493.708	427.05
494.07	396.41
494.432	419.39
494.794	393.86
495.155	378.54
495.517	409.18
495.879	409.18
496.24	478.12
496.602	337.68
496.963	370.88
497.325	416.84
497.686	432.16
498.048	409.18
498.409	427.05
498.77	452.59
499.131	414.29
499.492	381.09
499.854	391.31
500.215	434.71
500.576	467.91
500.937	424.5
501.298	396.41
501.658	381.09
502.019	388.75
502.38	434.71
502.741	388.75
503.101	332.58
503.462	401.52
503.823	365.77
504.183	363.22
504.543	401.52
504.904	388.75
505.264	421.95
505.625	429.61
505.985	409.18
506.345	421.95
506.705	381.09
507.065	396.41
507.426	437.27
507.786	442.37
508.146	432.16
508.505	427.05
508.865	414.29
509.225	409.18
509.585	498.55
509.945	375.98
510.304	368.32
510.664	450.03
511.024	457.69
511.383	444.93
511.743	373.43
512.102	432.16
512.462	350.45
512.821	404.07
513.18	414.29
513.539	398.97
513.899	421.95
514.258	473.01
514.617	409.18
514.976	393.86
515.335	437.27
515.694	391.31
516.053	365.77
516.412	360.66
516.771	383.65
517.129	398.97
517.488	411.73
517.847	419.39
518.205	391.31
518.564	383.65
518.922	452.59
519.281	406.63
519.639	457.69
519.998	396.41
520.356	414.29
520.714	421.95
521.073	393.86
521.431	388.75
521.789	383.65
522.147	363.22
522.505	401.52
522.863	414.29
523.221	396.41
523.579	398.97
523.937	450.03
524.295	457.69
524.652	444.93
525.01	424.5
525.368	411.73
525.725	365.77
526.083	388.75
526.44	383.65
526.798	378.54
527.155	396.41
527.513	419.39
527.87	457.69
528.227	388.75
528.584	365.77
528.942	337.68
529.299	386.2
529.656	434.71
530.013	381.09
530.37	439.82
530.727	391.31
531.083	429.61
531.44	409.18
531.797	365.77
532.154	411.73
532.511	457.69
532.867	406.63
533.224	478.12
533.58	398.97
533.937	416.84
534.293	434.71
534.65	414.29
535.006	444.93
535.362	365.77
535.718	414.29
536.075	393.86
536.431	455.14
536.787	373.43
537.143	363.22
537.499	368.32
537.855	368.32
538.211	404.07
538.567	424.5
538.923	409.18
539.278	370.88
539.634	406.63
539.99	450.03
540.345	383.65
540.701	432.16
541.056	457.69
541.412	404.07
541.767	401.52
542.123	439.82
542.478	457.69
542.833	409.18
543.188	429.61
543.544	391.31
543.899	452.59
544.254	439.82
544.609	421.95
544.964	462.8
545.319	427.05
545.674	427.05
546.029	391.31
546.383	355.56
546.738	340.24
547.093	373.43
547.447	358.11
547.802	350.45
548.157	393.86
548.511	427.05
548.866	424.5
549.22	391.31
549.574	381.09
549.929	404.07
550.283	419.39
550.637	419.39
550.991	432.16
551.345	304.49
551.699	347.9
552.053	432.16
552.407	462.8
552.761	462.8
553.115	373.43
553.469	416.84
553.823	401.52
554.176	421.95
554.53	396.41
554.884	434.71
555.237	638.98
555.591	401.52
555.944	360.66
556.298	373.43
556.651	434.71
557.005	404.07
557.358	335.13
557.711	401.52
558.064	409.18
558.417	347.9
558.771	424.5
559.124	444.93
559.477	370.88
559.83	442.37
560.182	375.98
560.535	429.61
560.888	373.43
561.241	437.27
561.594	432.16
561.946	424.5
562.299	401.52
562.651	393.86
563.004	465.35
563.356	457.69
563.709	404.07
564.061	442.37
564.413	414.29
564.766	363.22
565.118	368.32
565.47	393.86
565.822	386.2
566.174	373.43
566.526	383.65
566.878	355.56
567.23	358.11
567.582	353
567.934	378.54
568.286	419.39
568.638	424.5
568.989	360.66
569.341	388.75
569.693	360.66
570.044	335.13
570.396	393.86
570.747	421.95
571.098	396.41
571.45	401.52
571.801	414.29
572.152	398.97
572.504	381.09
572.855	409.18
573.206	381.09
573.557	378.54
573.908	416.84
574.259	381.09
574.61	401.52
574.961	457.69
575.311	432.16
575.662	414.29
576.013	330.02
576.364	360.66
576.714	409.18
577.065	432.16
577.415	404.07
577.766	427.05
578.116	375.98
578.467	432.16
578.817	401.52
579.167	424.5
579.518	465.35
579.868	353
580.218	360.66
580.568	406.63
580.918	368.32
581.268	398.97
581.618	393.86
581.968	411.73
582.318	429.61
582.668	381.09
583.017	360.66
583.367	465.35
583.717	427.05
584.066	401.52
584.416	437.27
584.765	452.59
585.115	444.93
585.464	495.99
585.814	437.27
586.163	414.29
586.512	335.13
586.862	419.39
587.211	373.43
587.56	393.86
587.909	373.43
588.258	307.04
588.607	386.2
588.956	398.97
589.305	470.46
589.654	388.75
590.002	330.02
590.351	383.65
590.7	381.09
591.048	355.56
591.397	355.56
591.746	391.31
592.094	409.18
592.443	427.05
592.791	414.29
593.139	419.39
593.488	427.05
593.836	411.73
594.184	429.61
594.532	353
594.88	370.88
595.228	388.75
595.576	437.27
595.924	335.13
596.272	409.18
596.62	447.48
596.968	381.09
597.316	424.5
597.664	388.75
598.011	406.63
598.359	419.39
598.706	365.77
599.054	439.82
599.402	391.31
599.749	373.43
600.096	411.73
600.444	353
600.791	421.95
601.138	432.16
601.485	363.22
601.833	381.09
602.18	347.9
602.527	432.16
602.874	493.44
603.221	429.61
603.568	437.27
603.914	381.09
604.261	473.01
604.608	355.56
604.955	427.05
605.301	373.43
605.648	427.05
605.995	427.05
606.341	404.07
606.688	434.71
607.034	368.32
607.38	398.97
607.727	388.75
608.073	404.07
608.419	434.71
608.765	401.52
609.112	411.73
609.458	381.09
609.804	398.97
610.15	444.93
610.496	452.59
610.842	411.73
611.187	396.41
611.533	432.16
611.879	429.61
612.225	350.45
612.57	437.27
612.916	383.65
613.261	452.59
613.607	442.37
613.952	411.73
614.298	388.75
614.643	383.65
614.989	396.41
615.334	365.77
615.679	437.27
616.024	427.05
616.369	368.32
616.714	363.22
617.059	414.29
617.404	429.61
617.749	373.43
618.094	421.95
618.439	409.18
618.784	378.54
619.129	381.09
619.473	388.75
619.818	427.05
620.163	386.2
620.507	375.98
620.852	391.31
621.196	345.34
621.54	393.86
621.885	368.32
622.229	475.57
622.573	416.84
622.918	424.5
623.262	429.61
623.606	473.01
623.95	353
624.294	388.75
624.638	358.11
624.982	401.52
625.326	421.95
625.67	536.85
626.013	370.88
626.357	324.92
626.701	350.45
627.044	401.52
627.388	434.71
627.731	396.41
628.075	373.43
628.418	437.27
628.762	411.73
629.105	378.54
629.448	398.97
629.792	337.68
630.135	337.68
630.478	396.41
630.821	406.63
631.164	396.41
631.507	401.52
631.85	319.81
632.193	398.97
632.536	393.86
632.879	398.97
633.221	355.56
633.564	432.16
633.907	396.41
634.249	393.86
634.592	381.09
634.935	358.11
635.277	386.2
635.619	414.29
635.962	398.97
636.304	396.41
636.646	427.05
636.989	393.86
637.331	327.47
637.673	411.73
638.015	404.07
638.357	404.07
638.699	444.93
639.041	375.98
639.383	375.98
639.725	373.43
640.067	434.71
640.408	419.39
640.75	424.5
641.092	383.65
641.433	444.93
641.775	388.75
642.116	391.31
642.458	393.86
642.799	378.54
643.141	434.71
643.482	401.52
643.823	370.88
644.164	347.9
644.506	416.84
644.847	363.22
645.188	427.05
645.529	411.73
645.87	386.2
646.211	363.22
646.552	398.97
646.893	368.32
647.233	350.45
647.574	398.97
647.915	393.86
648.255	421.95
648.596	401.52
648.937	406.63
649.277	427.05
649.618	363.22
649.958	401.52
650.298	370.88
650.639	363.22
650.979	373.43
651.319	409.18
651.659	386.2
651.999	386.2
652.339	404.07
652.679	434.71
653.019	375.98
653.359	409.18
653.699	409.18
654.039	429.61
654.379	444.93
654.719	393.86
655.058	350.45
655.398	406.63
655.737	462.8
656.077	419.39
656.416	398.97
656.756	304.49
657.095	404.07
657.435	437.27
657.774	396.41
658.113	360.66
658.452	404.07
658.792	378.54
659.131	358.11
659.47	358.11
659.809	457.69
660.148	470.46
660.487	401.52
660.826	406.63
661.164	345.34
661.503	353
661.842	396.41
662.181	396.41
662.519	450.03
662.858	398.97
663.196	373.43
663.535	358.11
663.873	444.93
664.212	406.63
664.55	386.2
664.888	414.29
665.226	411.73
665.565	332.58
665.903	582.81
666.241	485.78
666.579	337.68
666.917	396.41
667.255	444.93
667.593	391.31
667.931	450.03
668.268	391.31
668.606	383.65
668.944	393.86
669.282	421.95
669.619	370.88
669.957	406.63
670.294	404.07
670.632	450.03
670.969	401.52
671.307	406.63
671.644	460.25
671.981	404.07
672.318	391.31
672.656	406.63
672.993	409.18
673.33	467.91
673.667	424.5
674.004	437.27
674.341	444.93
674.678	421.95
675.015	450.03
675.351	455.14
675.688	404.07
676.025	404.07
676.362	365.77
676.698	401.52
677.035	404.07
677.371	419.39
677.708	393.86
678.044	378.54
678.38	457.69
678.717	419.39
679.053	381.09
679.389	465.35
679.725	365.77
680.062	353
680.398	375.98
680.734	355.56
681.07	347.9
681.406	404.07
681.742	388.75
682.077	383.65
682.413	404.07
682.749	401.52
683.085	434.71
683.42	478.12
683.756	398.97
684.091	434.71
684.427	391.31
684.762	444.93
685.098	342.79
685.433	365.77
685.768	342.79
686.104	396.41
686.439	378.54
686.774	388.75
687.109	383.65
687.444	424.5
687.779	439.82
688.114	432.16
688.449	447.48
688.784	327.47
689.119	393.86
689.454	345.34
689.789	350.45
690.123	327.47
690.458	370.88
690.792	368.32
691.127	347.9
691.461	330.02
691.796	406.63
692.13	375.98
692.465	391.31
692.799	365.77
693.133	381.09
693.467	470.46
693.802	414.29
694.136	406.63
694.47	429.61
694.804	457.69
695.138	432.16
695.472	383.65
695.806	409.18
696.139	421.95
696.473	312.15
696.807	370.88
697.141	337.68
697.474	324.92
697.808	396.41
698.141	470.46
698.475	381.09
698.808	401.52
699.142	373.43
699.475	342.79
699.808	370.88
700.142	391.31
700.475	457.69
700.808	419.39
701.141	368.32
701.474	365.77
701.807	360.66
702.14	368.32
702.473	355.56
702.806	345.34
703.139	444.93
703.472	462.8
703.804	432.16
704.137	398.97
704.47	419.39
704.802	378.54
705.135	427.05
705.467	421.95
705.8	437.27
706.132	406.63
706.464	437.27
706.797	363.22
707.129	432.16
707.461	414.29
707.793	347.9
708.125	368.32
708.457	358.11
708.789	350.45
709.121	378.54
709.453	330.02
709.785	391.31
710.117	427.05
710.449	406.63
710.781	427.05
711.112	396.41
711.444	355.56
711.775	347.9
712.107	429.61
712.438	393.86
712.77	429.61
713.101	353
713.433	401.52
713.764	416.84
714.095	388.75
714.426	427.05
714.757	368.32
715.089	386.2
715.42	419.39
715.751	406.63
716.082	419.39
716.412	462.8
716.743	429.61
717.074	360.66
717.405	373.43
717.736	406.63
718.066	345.34
718.397	391.31
718.727	452.59
719.058	444.93
719.388	393.86
719.719	388.75
720.049	391.31
720.38	437.27
720.71	383.65
721.04	373.43
721.37	406.63
721.7	396.41
722.031	353
722.361	393.86
722.691	414.29
723.021	424.5
723.35	414.29
723.68	368.32
724.01	393.86
724.34	388.75
724.67	342.79
724.999	414.29
725.329	416.84
725.658	424.5
725.988	386.2
726.317	378.54
726.647	363.22
726.976	378.54
727.306	393.86
727.635	358.11
727.964	396.41
728.293	404.07
728.622	360.66
728.952	347.9
729.281	381.09
729.61	419.39
729.939	409.18
730.267	462.8
730.596	411.73
730.925	365.77
731.254	432.16
731.583	345.34
731.911	406.63
732.24	493.44
732.568	424.5
732.897	401.52
733.225	378.54
733.554	342.79
733.882	411.73
734.21	404.07
734.539	396.41
734.867	396.41
735.195	383.65
735.523	370.88
735.851	388.75
736.179	414.29
736.507	332.58
736.835	368.32
737.163	391.31
737.491	391.31
737.819	419.39
738.147	404.07
738.474	360.66
738.802	365.77
739.13	442.37
739.457	411.73
739.785	409.18
740.112	355.56
740.44	460.25
740.767	401.52
741.094	421.95
741.422	437.27
741.749	358.11
742.076	478.12
742.403	391.31
742.73	345.34
743.057	393.86
743.384	370.88
743.711	404.07
744.038	330.02
744.365	455.14
744.692	404.07
745.018	381.09
745.345	322.36
745.672	350.45
745.998	393.86
746.325	444.93
746.651	391.31
746.978	363.22
747.304	427.05
747.631	398.97
747.957	398.97
748.283	375.98
748.61	465.35
748.936	398.97
749.262	457.69
749.588	335.13
749.914	342.79
750.24	327.47
750.566	401.52
750.892	439.82
751.218	332.58
751.543	353
751.869	381.09
752.195	370.88
752.521	421.95
752.846	383.65
753.172	342.79
753.497	319.81
753.823	421.95
754.148	360.66
754.473	388.75
754.799	378.54
755.124	355.56
755.449	360.66
755.774	314.7
756.1	299.38
756.425	442.37
756.75	368.32
757.075	386.2
757.4	475.57
757.724	396.41
758.049	396.41
758.374	386.2
758.699	363.22
759.024	398.97
759.348	383.65
759.673	383.65
759.997	404.07
760.322	363.22
760.646	401.52
760.971	363.22
761.295	414.29
761.619	450.03
761.944	378.54
762.268	427.05
762.592	409.18
762.916	373.43
763.24	447.48
763.564	442.37
763.888	455.14
764.212	437.27
764.536	434.71
764.86	455.14
765.184	493.44
765.508	552.17
765.831	450.03
766.155	710.48
766.478	541.95
766.802	421.95
767.126	498.55
767.449	493.44
767.772	516.42
768.096	524.08
768.419	564.93
768.742	593.02
769.066	600.68
769.389	572.6
769.712	554.72
770.035	692.6
770.358	748.78
770.681	766.65
771.004	697.71
771.327	728.35
771.65	771.76
771.972	830.49
772.295	774.31
772.618	784.53
772.941	825.38
773.263	781.97
773.586	830.49
773.908	899.43
774.231	991.35
774.553	1011.78
774.875	1057.74
775.198	1070.5
775.52	1106.25
775.842	1009.22
776.164	1029.65
776.487	981.14
776.809	1042.42
777.131	1004.12
777.453	1083.27
777.775	1021.99
778.096	1152.21
778.418	1208.39
778.74	1101.14
779.062	1106.25
779.384	1233.92
779.705	1369.25
780.027	1448.4
780.348	1471.38
780.67	1479.04
780.991	1486.7
781.313	1611.82
781.634	1675.65
781.955	1632.25
782.277	1599.05
782.598	1604.16
782.919	1624.59
783.24	1616.93
783.561	1573.52
783.882	1609.27
784.203	1642.46
784.524	1719.06
784.845	1678.21
785.166	1581.18
785.487	1675.65
785.807	1711.4
786.128	1693.53
786.449	1744.6
786.769	1782.9
787.09	1928.44
787.41	1987.17
787.731	2079.09
788.051	2278.25
788.372	2242.5
788.692	2354.85
789.012	2329.32
789.332	2308.89
789.653	2301.23
789.973	2497.84
790.293	2446.77
790.613	2301.23
790.933	2357.41
791.253	2306.34
791.573	2165.9
791.893	2283.36
792.212	2280.8
792.532	2257.82
792.852	2191.44
793.171	2127.6
793.491	1956.53
793.811	1913.12
794.13	1953.97
794.45	1941.21
794.769	1780.34
795.088	1793.11
795.408	1739.49
795.727	1862.05
796.046	1800.77
796.365	1856.94
796.684	1813.54
797.004	1754.81
797.323	2081.64
797.642	2362.51
797.96	2462.09
798.279	2451.88
798.598	2298.68
798.917	2421.24
799.236	2316.55
799.554	2056.11
799.873	1923.33
