Data from 2025-12-03_xpw_interference_micrometer_634_reference_FLMS141361__11__461.txt Node

Date: Wed Dec 03 15:52:20 MST 2025
User: james
Spectrometer: FLMS14136
Trigger mode: 0
Integration Time (sec): 1.000000E-1
Scans to average: 1
Electric dark correction enabled: true
Nonlinearity correction enabled: false
Boxcar width: 0
XAxis mode: Wavelengths
Number of Pixels in Spectrum: 2048
>>>>>Begin Spectral Data<<<<<
339.315	-57.93
339.697	-57.93
340.079	-57.93
340.461	-129.42
340.843	-114.1
341.225	-129.42
341.607	-60.48
341.989	-106.44
342.371	-124.32
342.752	-111.55
343.134	-114.1
343.516	-27.29
343.897	-55.38
344.279	-4.31
344.661	79.95
345.042	82.51
345.423	69.74
345.805	87.61
346.186	108.04
346.567	128.47
346.949	176.98
347.33	154
347.711	123.36
348.092	169.32
348.473	138.68
348.854	187.19
349.235	258.69
349.616	294.44
349.997	286.78
350.378	296.99
350.758	263.8
351.139	309.76
351.52	348.06
351.9	335.29
352.281	365.93
352.661	317.42
353.042	304.65
353.422	294.44
353.803	399.12
354.183	388.91
354.563	376.14
354.943	409.34
355.324	424.66
355.704	335.29
356.084	396.57
356.464	434.87
356.844	345.5
357.224	358.27
357.603	302.1
357.983	378.7
358.363	419.55
358.743	460.41
359.122	371.04
359.502	378.7
359.882	401.68
360.261	330.18
360.641	355.72
361.02	258.69
361.399	381.25
361.779	319.97
362.158	360.82
362.537	404.23
362.916	381.25
363.296	360.82
363.675	325.08
364.054	381.25
364.433	404.23
364.812	299.54
365.19	350.61
365.569	353.16
365.948	319.97
366.327	302.1
366.705	360.82
367.084	304.65
367.463	286.78
367.841	319.97
368.22	286.78
368.598	350.61
368.977	322.52
369.355	289.33
369.733	330.18
370.111	325.08
370.49	360.82
370.868	332.74
371.246	371.04
371.624	350.61
372.002	358.27
372.38	319.97
372.758	322.52
373.136	335.29
373.513	330.18
373.891	350.61
374.269	350.61
374.646	281.67
375.024	322.52
375.402	355.72
375.779	284.22
376.157	330.18
376.534	291.88
376.911	317.42
377.289	353.16
377.666	337.84
378.043	289.33
378.42	368.48
378.797	360.82
379.175	342.95
379.552	396.57
379.929	391.46
380.305	325.08
380.682	289.33
381.059	342.95
381.436	322.52
381.813	391.46
382.189	291.88
382.566	325.08
382.943	404.23
383.319	394.02
383.696	365.93
384.072	337.84
384.448	353.16
384.825	307.2
385.201	271.46
385.577	373.59
385.953	325.08
386.329	337.84
386.706	376.14
387.082	378.7
387.458	353.16
387.834	363.38
388.209	360.82
388.585	317.42
388.961	294.44
389.337	383.8
389.713	388.91
390.088	340.4
390.464	319.97
390.839	337.84
391.215	312.31
391.59	360.82
391.966	350.61
392.341	325.08
392.716	391.46
393.092	312.31
393.467	243.37
393.842	330.18
394.217	332.74
394.592	325.08
394.967	327.63
395.342	332.74
395.717	376.14
396.092	409.34
396.467	399.12
396.841	355.72
397.216	307.2
397.591	363.38
397.965	330.18
398.34	355.72
398.714	291.88
399.089	360.82
399.463	353.16
399.838	360.82
400.212	317.42
400.586	378.7
400.961	381.25
401.335	363.38
401.709	391.46
402.083	360.82
402.457	360.82
402.831	319.97
403.205	399.12
403.579	391.46
403.953	360.82
404.326	330.18
404.7	376.14
405.074	411.89
405.447	371.04
405.821	345.5
406.195	386.36
406.568	404.23
406.942	452.75
407.315	360.82
407.688	368.48
408.062	414.45
408.435	368.48
408.808	376.14
409.181	411.89
409.554	314.86
409.927	358.27
410.3	391.46
410.673	373.59
411.046	381.25
411.419	419.55
411.792	391.46
412.165	381.25
412.537	429.77
412.91	365.93
413.283	330.18
413.655	319.97
414.028	381.25
414.4	355.72
414.773	404.23
415.145	376.14
415.517	345.5
415.889	376.14
416.262	353.16
416.634	358.27
417.006	404.23
417.378	383.8
417.75	404.23
418.122	383.8
418.494	340.4
418.866	399.12
419.238	327.63
419.609	419.55
419.981	394.02
420.353	371.04
420.725	360.82
421.096	314.86
421.468	381.25
421.839	429.77
422.211	365.93
422.582	325.08
422.953	394.02
423.325	396.57
423.696	340.4
424.067	399.12
424.438	378.7
424.809	455.3
425.18	327.63
425.551	350.61
425.922	427.21
426.293	360.82
426.664	353.16
427.035	427.21
427.406	376.14
427.776	439.98
428.147	376.14
428.518	399.12
428.888	368.48
429.259	378.7
429.629	350.61
429.999	317.42
430.37	360.82
430.74	304.65
431.11	396.57
431.481	401.68
431.851	386.36
432.221	427.21
432.591	394.02
432.961	394.02
433.331	411.89
433.701	409.34
434.071	429.77
434.441	450.19
434.81	322.52
435.18	350.61
435.55	376.14
435.919	365.93
436.289	381.25
436.658	363.38
437.028	401.68
437.397	302.1
437.767	409.34
438.136	360.82
438.505	368.48
438.875	335.29
439.244	342.95
439.613	432.32
439.982	371.04
440.351	432.32
440.72	394.02
441.089	419.55
441.458	437.43
441.827	427.21
442.196	396.57
442.564	450.19
442.933	417
443.302	429.77
443.67	383.8
444.039	399.12
444.407	401.68
444.776	399.12
445.144	355.72
445.513	383.8
445.881	396.57
446.249	340.4
446.617	376.14
446.986	302.1
447.354	404.23
447.722	368.48
448.09	386.36
448.458	383.8
448.826	455.3
449.194	419.55
449.561	386.36
449.929	337.84
450.297	363.38
450.665	383.8
451.032	381.25
451.4	332.74
451.767	355.72
452.135	424.66
452.502	399.12
452.87	437.43
453.237	404.23
453.604	394.02
453.971	383.8
454.339	386.36
454.706	388.91
455.073	399.12
455.44	404.23
455.807	342.95
456.174	399.12
456.541	391.46
456.908	406.79
457.274	424.66
457.641	460.41
458.008	417
458.374	365.93
458.741	378.7
459.108	368.48
459.474	319.97
459.841	378.7
460.207	332.74
460.573	386.36
460.94	391.46
461.306	452.75
461.672	396.57
462.038	419.55
462.404	378.7
462.771	457.85
463.137	406.79
463.503	378.7
463.868	396.57
464.234	371.04
464.6	312.31
464.966	419.55
465.332	396.57
465.697	358.27
466.063	391.46
466.429	419.55
466.794	360.82
467.16	353.16
467.525	376.14
467.89	411.89
468.256	427.21
468.621	437.43
468.986	409.34
469.351	434.87
469.717	391.46
470.082	378.7
470.447	399.12
470.812	381.25
471.177	424.66
471.542	493.6
471.906	371.04
472.271	365.93
472.636	396.57
473.001	332.74
473.365	427.21
473.73	355.72
474.094	409.34
474.459	404.23
474.823	337.84
475.188	394.02
475.552	434.87
475.917	411.89
476.281	399.12
476.645	371.04
477.009	419.55
477.373	358.27
477.737	365.93
478.101	330.18
478.465	406.79
478.829	462.96
479.193	355.72
479.557	399.12
479.921	432.32
480.284	368.48
480.648	335.29
481.012	373.59
481.375	432.32
481.739	340.4
482.102	396.57
482.466	399.12
482.829	394.02
483.193	427.21
483.556	462.96
483.919	358.27
484.282	396.57
484.645	363.38
485.009	388.91
485.372	340.4
485.735	365.93
486.098	368.48
486.46	414.45
486.823	427.21
487.186	406.79
487.549	383.8
487.912	401.68
488.274	373.59
488.637	394.02
488.999	353.16
489.362	378.7
489.724	457.85
490.087	409.34
490.449	409.34
490.811	394.02
491.174	381.25
491.536	399.12
491.898	427.21
492.26	309.76
492.622	383.8
492.984	391.46
493.346	417
493.708	317.42
494.07	350.61
494.432	322.52
494.794	350.61
495.155	404.23
495.517	432.32
495.879	406.79
496.24	368.48
496.602	391.46
496.963	475.73
497.325	406.79
497.686	399.12
498.048	396.57
498.409	432.32
498.77	388.91
499.131	388.91
499.492	422.11
499.854	358.27
500.215	391.46
500.576	437.43
500.937	376.14
501.298	325.08
501.658	365.93
502.019	319.97
502.38	399.12
502.741	419.55
503.101	383.8
503.462	424.66
503.823	365.93
504.183	325.08
504.543	381.25
504.904	399.12
505.264	373.59
505.625	388.91
505.985	419.55
506.345	396.57
506.705	381.25
507.065	373.59
507.426	360.82
507.786	350.61
508.146	327.63
508.505	345.5
508.865	394.02
509.225	427.21
509.585	462.96
509.945	427.21
510.304	404.23
510.664	353.16
511.024	383.8
511.383	427.21
511.743	404.23
512.102	399.12
512.462	373.59
512.821	363.38
513.18	337.84
513.539	388.91
513.899	391.46
514.258	399.12
514.617	409.34
514.976	365.93
515.335	365.93
515.694	401.68
516.053	365.93
516.412	417
516.771	332.74
517.129	312.31
517.488	376.14
517.847	399.12
518.205	388.91
518.564	373.59
518.922	368.48
519.281	409.34
519.639	381.25
519.998	355.72
520.356	388.91
520.714	401.68
521.073	391.46
521.431	376.14
521.789	342.95
522.147	422.11
522.505	411.89
522.863	396.57
523.221	353.16
523.579	388.91
523.937	371.04
524.295	442.53
524.652	414.45
525.01	327.63
525.368	401.68
525.725	386.36
526.083	376.14
526.44	429.77
526.798	473.17
527.155	473.17
527.513	394.02
527.87	363.38
528.227	391.46
528.584	330.18
528.942	335.29
529.299	363.38
529.656	383.8
530.013	360.82
530.37	365.93
530.727	337.84
531.083	404.23
531.44	388.91
531.797	365.93
532.154	342.95
532.511	437.43
532.867	399.12
533.224	401.68
533.58	388.91
533.937	434.87
534.293	399.12
534.65	345.5
535.006	396.57
535.362	396.57
535.718	414.45
536.075	391.46
536.431	332.74
536.787	399.12
537.143	394.02
537.499	414.45
537.855	427.21
538.211	409.34
538.567	365.93
538.923	394.02
539.278	342.95
539.634	414.45
539.99	360.82
540.345	424.66
540.701	383.8
541.056	342.95
541.412	394.02
541.767	406.79
542.123	368.48
542.478	434.87
542.833	388.91
543.188	414.45
543.544	409.34
543.899	406.79
544.254	358.27
544.609	406.79
544.964	363.38
545.319	411.89
545.674	404.23
546.029	365.93
546.383	388.91
546.738	388.91
547.093	355.72
547.447	419.55
547.802	322.52
548.157	330.18
548.511	401.68
548.866	394.02
549.22	442.53
549.574	368.48
549.929	406.79
550.283	411.89
550.637	394.02
550.991	376.14
551.345	396.57
551.699	414.45
552.053	406.79
552.407	404.23
552.761	419.55
553.115	409.34
553.469	409.34
553.823	348.06
554.176	399.12
554.53	376.14
554.884	371.04
555.237	626.38
555.591	386.36
555.944	386.36
556.298	378.7
556.651	411.89
557.005	401.68
557.358	419.55
557.711	378.7
558.064	330.18
558.417	365.93
558.771	473.17
559.124	468.07
559.477	360.82
559.83	401.68
560.182	409.34
560.535	365.93
560.888	404.23
561.241	427.21
561.594	401.68
561.946	340.4
562.299	404.23
562.651	337.84
563.004	358.27
563.356	432.32
563.709	447.64
564.061	368.48
564.413	325.08
564.766	335.29
565.118	360.82
565.47	388.91
565.822	381.25
566.174	373.59
566.526	388.91
566.878	406.79
567.23	325.08
567.582	401.68
567.934	322.52
568.286	355.72
568.638	414.45
568.989	434.87
569.341	376.14
569.693	383.8
570.044	378.7
570.396	409.34
570.747	470.62
571.098	332.74
571.45	394.02
571.801	350.61
572.152	406.79
572.504	350.61
572.855	286.78
573.206	363.38
573.557	376.14
573.908	394.02
574.259	391.46
574.61	365.93
574.961	378.7
575.311	388.91
575.662	358.27
576.013	411.89
576.364	383.8
576.714	381.25
577.065	391.46
577.415	432.32
577.766	396.57
578.116	465.51
578.467	365.93
578.817	365.93
579.167	355.72
579.518	368.48
579.868	419.55
580.218	363.38
580.568	358.27
580.918	399.12
581.268	427.21
581.618	355.72
581.968	455.3
582.318	401.68
582.668	396.57
583.017	409.34
583.367	424.66
583.717	337.84
584.066	417
584.416	419.55
584.765	401.68
585.115	363.38
585.464	376.14
585.814	312.31
586.163	417
586.512	350.61
586.862	358.27
587.211	414.45
587.56	383.8
587.909	450.19
588.258	371.04
588.607	401.68
588.956	388.91
589.305	383.8
589.654	376.14
590.002	417
590.351	411.89
590.7	406.79
591.048	394.02
591.397	373.59
591.746	445.09
592.094	406.79
592.443	429.77
592.791	429.77
593.139	414.45
593.488	404.23
593.836	378.7
594.184	365.93
594.532	386.36
594.88	429.77
595.228	424.66
595.576	350.61
595.924	342.95
596.272	414.45
596.62	340.4
596.968	404.23
597.316	355.72
597.664	424.66
598.011	363.38
598.359	330.18
598.706	388.91
599.054	394.02
599.402	460.41
599.749	419.55
600.096	406.79
600.444	396.57
600.791	337.84
601.138	345.5
601.485	381.25
601.833	368.48
602.18	419.55
602.527	381.25
602.874	368.48
603.221	396.57
603.568	355.72
603.914	401.68
604.261	411.89
604.608	371.04
604.955	419.55
605.301	434.87
605.648	391.46
605.995	335.29
606.341	345.5
606.688	432.32
607.034	419.55
607.38	391.46
607.727	399.12
608.073	394.02
608.419	391.46
608.765	381.25
609.112	396.57
609.458	360.82
609.804	383.8
610.15	391.46
610.496	319.97
610.842	312.31
611.187	365.93
611.533	388.91
611.879	355.72
612.225	365.93
612.57	327.63
612.916	373.59
613.261	401.68
613.607	363.38
613.952	409.34
614.298	462.96
614.643	363.38
614.989	406.79
615.334	337.84
615.679	365.93
616.024	381.25
616.369	439.98
616.714	378.7
617.059	442.53
617.404	394.02
617.749	427.21
618.094	381.25
618.439	371.04
618.784	417
619.129	429.77
619.473	409.34
619.818	411.89
620.163	350.61
620.507	317.42
620.852	376.14
621.196	325.08
621.54	457.85
621.885	422.11
622.229	381.25
622.573	434.87
622.918	429.77
623.262	388.91
623.606	386.36
623.95	340.4
624.294	322.52
624.638	371.04
624.982	396.57
625.326	332.74
625.67	340.4
626.013	363.38
626.357	350.61
626.701	419.55
627.044	450.19
627.388	355.72
627.731	348.06
628.075	391.46
628.418	345.5
628.762	365.93
629.105	373.59
629.448	365.93
629.792	355.72
630.135	358.27
630.478	368.48
630.821	327.63
631.164	378.7
631.507	409.34
631.85	386.36
632.193	396.57
632.536	365.93
632.879	381.25
633.221	391.46
633.564	378.7
633.907	404.23
634.249	368.48
634.592	335.29
634.935	365.93
635.277	340.4
635.619	337.84
635.962	422.11
636.304	342.95
636.646	383.8
636.989	381.25
637.331	401.68
637.673	386.36
638.015	383.8
638.357	291.88
638.699	330.18
639.041	381.25
639.383	414.45
639.725	394.02
640.067	322.52
640.408	427.21
640.75	447.64
641.092	383.8
641.433	383.8
641.775	348.06
642.116	404.23
642.458	399.12
642.799	358.27
643.141	302.1
643.482	304.65
643.823	424.66
644.164	386.36
644.506	473.17
644.847	332.74
645.188	327.63
645.529	373.59
645.87	322.52
646.211	417
646.552	383.8
646.893	350.61
647.233	353.16
647.574	424.66
647.915	419.55
648.255	378.7
648.596	381.25
648.937	409.34
649.277	394.02
649.618	330.18
649.958	355.72
650.298	360.82
650.639	442.53
650.979	291.88
651.319	417
651.659	348.06
651.999	376.14
652.339	381.25
652.679	445.09
653.019	414.45
653.359	350.61
653.699	373.59
654.039	381.25
654.379	342.95
654.719	348.06
655.058	462.96
655.398	378.7
655.737	396.57
656.077	363.38
656.416	401.68
656.756	386.36
657.095	319.97
657.435	383.8
657.774	383.8
658.113	411.89
658.452	378.7
658.792	376.14
659.131	388.91
659.47	368.48
659.809	365.93
660.148	406.79
660.487	388.91
660.826	319.97
661.164	432.32
661.503	424.66
661.842	332.74
662.181	345.5
662.519	422.11
662.858	406.79
663.196	353.16
663.535	332.74
663.873	388.91
664.212	350.61
664.55	363.38
664.888	424.66
665.226	348.06
665.565	371.04
665.903	611.06
666.241	388.91
666.579	399.12
666.917	401.68
667.255	309.76
667.593	434.87
667.931	411.89
668.268	365.93
668.606	345.5
668.944	365.93
669.282	302.1
669.619	437.43
669.957	383.8
670.294	378.7
670.632	388.91
670.969	353.16
671.307	394.02
671.644	353.16
671.981	422.11
672.318	365.93
672.656	450.19
672.993	363.38
673.33	358.27
673.667	381.25
674.004	358.27
674.341	345.5
674.678	450.19
675.015	406.79
675.351	391.46
675.688	427.21
676.025	388.91
676.362	355.72
676.698	378.7
677.035	340.4
677.371	368.48
677.708	417
678.044	312.31
678.38	401.68
678.717	396.57
679.053	396.57
679.389	363.38
679.725	429.77
680.062	468.07
680.398	383.8
680.734	363.38
681.07	358.27
681.406	365.93
681.742	394.02
682.077	368.48
682.413	404.23
682.749	335.29
683.085	394.02
683.42	373.59
683.756	386.36
684.091	404.23
684.427	327.63
684.762	363.38
685.098	373.59
685.433	424.66
685.768	419.55
686.104	371.04
686.439	337.84
686.774	373.59
687.109	363.38
687.444	381.25
687.779	340.4
688.114	396.57
688.449	394.02
688.784	368.48
689.119	360.82
689.454	401.68
689.789	358.27
690.123	378.7
690.458	355.72
690.792	350.61
691.127	381.25
691.461	391.46
691.796	355.72
692.13	327.63
692.465	381.25
692.799	396.57
693.133	376.14
693.467	302.1
693.802	406.79
694.136	365.93
694.47	383.8
694.804	378.7
695.138	414.45
695.472	348.06
695.806	383.8
696.139	307.2
696.473	447.64
696.807	465.51
697.141	371.04
697.474	368.48
697.808	437.43
698.141	368.48
698.475	378.7
698.808	376.14
699.142	376.14
699.475	378.7
699.808	391.46
700.142	401.68
700.475	363.38
700.808	394.02
701.141	473.17
701.474	350.61
701.807	391.46
702.14	373.59
702.473	409.34
702.806	345.5
703.139	314.86
703.472	406.79
703.804	342.95
704.137	442.53
704.47	358.27
704.802	383.8
705.135	388.91
705.467	327.63
705.8	360.82
706.132	330.18
706.464	434.87
706.797	371.04
707.129	365.93
707.461	376.14
707.793	396.57
708.125	373.59
708.457	381.25
708.789	394.02
709.121	404.23
709.453	434.87
709.785	388.91
710.117	376.14
710.449	327.63
710.781	383.8
711.112	368.48
711.444	396.57
711.775	342.95
712.107	411.89
712.438	399.12
712.77	381.25
713.101	404.23
713.433	429.77
713.764	345.5
714.095	371.04
714.426	427.21
714.757	450.19
715.089	345.5
715.42	399.12
715.751	417
716.082	378.7
716.412	391.46
716.743	394.02
717.074	365.93
717.405	368.48
717.736	396.57
718.066	396.57
718.397	332.74
718.727	342.95
719.058	381.25
719.388	388.91
719.719	455.3
720.049	363.38
720.38	353.16
720.71	340.4
721.04	386.36
721.37	394.02
721.7	394.02
722.031	363.38
722.361	386.36
722.691	363.38
723.021	363.38
723.35	394.02
723.68	399.12
724.01	368.48
724.34	434.87
724.67	419.55
724.999	337.84
725.329	371.04
725.658	355.72
725.988	307.2
726.317	365.93
726.647	335.29
726.976	401.68
727.306	383.8
727.635	355.72
727.964	404.23
728.293	388.91
728.622	330.18
728.952	342.95
729.281	419.55
729.61	337.84
729.939	381.25
730.267	350.61
730.596	409.34
730.925	325.08
731.254	355.72
731.583	432.32
731.911	360.82
732.24	371.04
732.568	404.23
732.897	322.52
733.225	401.68
733.554	396.57
733.882	340.4
734.21	388.91
734.539	378.7
734.867	391.46
735.195	394.02
735.523	437.43
735.851	417
736.179	381.25
736.507	381.25
736.835	439.98
737.163	404.23
737.491	368.48
737.819	360.82
738.147	376.14
738.474	365.93
738.802	439.98
739.13	345.5
739.457	345.5
739.785	404.23
740.112	363.38
740.44	371.04
740.767	439.98
741.094	363.38
741.422	368.48
741.749	383.8
742.076	371.04
742.403	386.36
742.73	353.16
743.057	365.93
743.384	342.95
743.711	345.5
744.038	353.16
744.365	383.8
744.692	429.77
745.018	419.55
745.345	470.62
745.672	414.45
745.998	388.91
746.325	350.61
746.651	350.61
746.978	396.57
747.304	439.98
747.631	345.5
747.957	406.79
748.283	411.89
748.61	378.7
748.936	386.36
749.262	373.59
749.588	342.95
749.914	340.4
750.24	406.79
750.566	388.91
750.892	399.12
751.218	358.27
751.543	371.04
751.869	342.95
752.195	406.79
752.521	396.57
752.846	345.5
753.172	381.25
753.497	399.12
753.823	373.59
754.148	424.66
754.473	378.7
754.799	314.86
755.124	340.4
755.449	399.12
755.774	434.87
756.1	360.82
756.425	322.52
756.75	335.29
757.075	376.14
757.4	552.33
757.724	376.14
758.049	419.55
758.374	414.45
758.699	399.12
759.024	406.79
759.348	373.59
759.673	376.14
759.997	358.27
760.322	355.72
760.646	373.59
760.971	419.55
761.295	383.8
761.619	401.68
761.944	388.91
762.268	383.8
762.592	452.75
762.916	419.55
763.24	411.89
763.564	417
763.888	439.98
764.212	457.85
764.536	478.28
764.86	432.32
765.184	414.45
765.508	468.07
765.831	404.23
766.155	710.64
766.478	462.96
766.802	516.58
767.126	404.23
767.449	439.98
767.772	521.69
768.096	524.24
768.419	511.47
768.742	537.01
769.066	636.59
769.389	626.38
769.712	565.09
770.035	616.16
770.358	618.72
770.681	692.76
771.004	667.23
771.327	713.19
771.65	789.79
771.972	736.17
772.295	695.32
772.618	687.66
772.941	720.85
773.263	738.72
773.586	845.97
773.908	891.93
774.231	840.86
774.553	899.59
774.875	1101.3
775.198	1068.11
775.52	1014.49
775.842	1009.38
776.164	973.63
776.487	991.51
776.809	986.4
777.131	1024.7
777.453	1027.26
777.775	988.96
778.096	1075.77
778.418	1144.71
778.74	1091.09
779.062	1134.5
779.384	1160.03
779.705	1320.89
780.027	1326
780.348	1389.84
780.67	1366.86
780.991	1486.86
781.313	1535.38
781.634	1578.79
781.955	1530.27
782.277	1537.93
782.598	1583.89
782.919	1494.52
783.24	1578.79
783.561	1573.68
783.882	1512.4
784.203	1596.66
784.524	1581.34
784.845	1583.89
785.166	1576.23
785.487	1673.26
785.807	1739.65
786.128	1655.39
786.449	1703.9
786.769	1744.76
787.09	1905.62
787.41	1969.45
787.731	2102.23
788.051	2237.56
788.372	2268.2
788.692	2217.13
789.012	2329.48
789.332	2099.67
789.653	2296.28
789.973	2429.06
790.293	2403.53
790.613	2158.4
790.933	2125.21
791.253	2212.02
791.573	2181.38
791.893	2127.76
792.212	2158.4
792.532	2148.19
792.852	2084.35
793.171	2033.29
793.491	1954.13
793.811	2061.37
794.13	1877.53
794.45	1821.36
794.769	1729.43
795.088	1693.69
795.408	1721.77
795.727	1874.98
796.046	1760.08
796.365	1754.97
796.684	1752.42
797.004	1701.35
797.323	1885.19
797.642	2326.93
797.96	2426.51
798.279	2457.15
798.598	2273.3
798.917	2268.2
799.236	2212.02
799.554	1956.69
799.873	1972.01
800.192	1961.79
800.51	2056.27
800.829	2017.97
801.147	2038.39
