Data from 2025-12-03_xpw_interference_micrometer_634_reference_FLMS141361__59__509.txt Node

Date: Wed Dec 03 15:52:25 MST 2025
User: james
Spectrometer: FLMS14136
Trigger mode: 0
Integration Time (sec): 1.000000E-1
Scans to average: 1
Electric dark correction enabled: true
Nonlinearity correction enabled: false
Boxcar width: 0
XAxis mode: Wavelengths
Number of Pixels in Spectrum: 2048
>>>>>Begin Spectral Data<<<<<
339.315	-50.11
339.697	-50.11
340.079	-50.11
340.461	-96.07
340.843	-157.35
341.225	-134.37
341.607	-162.46
341.989	-147.14
342.371	-85.86
342.752	-29.68
343.134	-55.22
343.516	-6.7
343.897	-29.68
344.279	-29.68
344.661	54.58
345.042	41.81
345.423	64.79
345.805	136.29
346.186	131.18
346.567	105.65
346.949	146.5
347.33	161.82
347.711	212.89
348.092	266.51
348.473	228.21
348.854	243.53
349.235	225.65
349.616	266.51
349.997	304.81
350.378	289.49
350.758	338
351.139	340.56
351.52	248.64
351.9	343.11
352.281	320.13
352.661	366.09
353.042	330.34
353.422	360.98
353.803	378.86
354.183	340.56
354.563	353.32
354.943	299.7
355.324	432.48
355.704	412.05
356.084	406.94
356.464	378.86
356.844	376.3
357.224	442.69
357.603	401.84
357.983	368.64
358.363	371.2
358.743	419.71
359.122	371.2
359.502	417.16
359.882	320.13
360.261	386.52
360.641	360.98
361.02	386.52
361.399	281.83
361.779	289.49
362.158	445.25
362.537	340.56
362.916	373.75
363.296	378.86
363.675	350.77
364.054	353.32
364.433	396.73
364.812	399.28
365.19	355.88
365.569	366.09
365.948	358.43
366.327	394.18
366.705	381.41
367.084	338
367.463	317.58
367.841	376.3
368.22	429.93
368.598	355.88
368.977	284.38
369.355	325.24
369.733	389.07
370.111	381.41
370.49	338
370.868	332.9
371.246	302.26
371.624	355.88
372.002	320.13
372.38	320.13
372.758	322.68
373.136	399.28
373.513	307.36
373.891	412.05
374.269	320.13
374.646	338
375.024	325.24
375.402	350.77
375.779	335.45
376.157	325.24
376.534	422.26
376.911	292.04
377.289	350.77
377.666	343.11
378.043	404.39
378.42	376.3
378.797	312.47
379.175	355.88
379.552	312.47
379.929	394.18
380.305	363.54
380.682	373.75
381.059	338
381.436	317.58
381.813	399.28
382.189	383.96
382.566	389.07
382.943	309.92
383.319	335.45
383.696	371.2
384.072	353.32
384.448	381.41
384.825	350.77
385.201	327.79
385.577	386.52
385.953	332.9
386.329	279.28
386.706	366.09
387.082	330.34
387.458	338
387.834	368.64
388.209	360.98
388.585	378.86
388.961	360.98
389.337	355.88
389.713	386.52
390.088	376.3
390.464	366.09
390.839	350.77
391.215	317.58
391.59	358.43
391.966	286.94
392.341	373.75
392.716	355.88
393.092	340.56
393.467	345.66
393.842	376.3
394.217	363.54
394.592	419.71
394.967	360.98
395.342	332.9
395.717	348.22
396.092	373.75
396.467	360.98
396.841	360.98
397.216	358.43
397.591	376.3
397.965	414.6
398.34	366.09
398.714	371.2
399.089	386.52
399.463	363.54
399.838	343.11
400.212	307.36
400.586	335.45
400.961	383.96
401.335	368.64
401.709	389.07
402.083	320.13
402.457	363.54
402.831	383.96
403.205	437.59
403.579	350.77
403.953	330.34
404.326	353.32
404.7	302.26
405.074	368.64
405.447	386.52
405.821	325.24
406.195	373.75
406.568	363.54
406.942	355.88
407.315	378.86
407.688	368.64
408.062	394.18
408.435	343.11
408.808	378.86
409.181	391.62
409.554	350.77
409.927	435.03
410.3	373.75
410.673	325.24
411.046	376.3
411.419	345.66
411.792	353.32
412.165	363.54
412.537	378.86
412.91	363.54
413.283	389.07
413.655	348.22
414.028	368.64
414.4	325.24
414.773	348.22
415.145	371.2
415.517	355.88
415.889	366.09
416.262	358.43
416.634	406.94
417.006	350.77
417.378	353.32
417.75	332.9
418.122	325.24
418.494	435.03
418.866	355.88
419.238	368.64
419.609	327.79
419.981	399.28
420.353	389.07
420.725	383.96
421.096	340.56
421.468	417.16
421.839	442.69
422.211	386.52
422.582	424.82
422.953	391.62
423.325	389.07
423.696	381.41
424.067	445.25
424.438	327.79
424.809	371.2
425.18	406.94
425.551	376.3
425.922	378.86
426.293	427.37
426.664	401.84
427.035	470.78
427.406	394.18
427.776	366.09
428.147	383.96
428.518	371.2
428.888	386.52
429.259	399.28
429.629	414.6
429.999	404.39
430.37	417.16
430.74	409.5
431.11	381.41
431.481	363.54
431.851	404.39
432.221	383.96
432.591	422.26
432.961	381.41
433.331	409.5
433.701	353.32
434.071	419.71
434.441	442.69
434.81	376.3
435.18	371.2
435.55	429.93
435.919	386.52
436.289	345.66
436.658	394.18
437.028	442.69
437.397	366.09
437.767	394.18
438.136	348.22
438.505	383.96
438.875	427.37
439.244	455.46
439.613	409.5
439.982	386.52
440.351	373.75
440.72	363.54
441.089	363.54
441.458	386.52
441.827	435.03
442.196	348.22
442.564	419.71
442.933	389.07
443.302	338
443.67	368.64
444.039	412.05
444.407	478.44
444.776	376.3
445.144	325.24
445.513	360.98
445.881	330.34
446.249	399.28
446.617	440.14
446.986	378.86
447.354	386.52
447.722	325.24
448.09	371.2
448.458	371.2
448.826	447.8
449.194	348.22
449.561	368.64
449.929	401.84
450.297	427.37
450.665	363.54
451.032	366.09
451.4	360.98
451.767	401.84
452.135	389.07
452.502	312.47
452.87	343.11
453.237	396.73
453.604	366.09
453.971	406.94
454.339	383.96
454.706	429.93
455.073	409.5
455.44	414.6
455.807	445.25
456.174	440.14
456.541	366.09
456.908	381.41
457.274	440.14
457.641	470.78
458.008	437.59
458.374	353.32
458.741	376.3
459.108	406.94
459.474	498.87
459.841	363.54
460.207	414.6
460.573	404.39
460.94	394.18
461.306	394.18
461.672	399.28
462.038	378.86
462.404	399.28
462.771	404.39
463.137	394.18
463.503	371.2
463.868	437.59
464.234	401.84
464.6	378.86
464.966	404.39
465.332	391.62
465.697	353.32
466.063	376.3
466.429	458.01
466.794	394.18
467.16	473.33
467.525	378.86
467.89	327.79
468.256	307.36
468.621	399.28
468.986	371.2
469.351	442.69
469.717	406.94
470.082	396.73
470.447	396.73
470.812	355.88
471.177	366.09
471.542	491.21
471.906	358.43
472.271	414.6
472.636	399.28
473.001	389.07
473.365	463.12
473.73	427.37
474.094	368.64
474.459	396.73
474.823	371.2
475.188	406.94
475.552	424.82
475.917	427.37
476.281	440.14
476.645	422.26
477.009	358.43
477.373	429.93
477.737	383.96
478.101	417.16
478.465	447.8
478.829	391.62
479.193	412.05
479.557	475.89
479.921	465.67
480.284	378.86
480.648	473.33
481.012	391.62
481.375	414.6
481.739	435.03
482.102	412.05
482.466	396.73
482.829	447.8
483.193	424.82
483.556	389.07
483.919	345.66
484.282	394.18
484.645	424.82
485.009	394.18
485.372	330.34
485.735	373.75
486.098	465.67
486.46	373.75
486.823	373.75
487.186	417.16
487.549	389.07
487.912	394.18
488.274	389.07
488.637	363.54
488.999	373.75
489.362	335.45
489.724	383.96
490.087	401.84
490.449	389.07
490.811	389.07
491.174	343.11
491.536	353.32
491.898	401.84
492.26	442.69
492.622	417.16
492.984	429.93
493.346	363.54
493.708	360.98
494.07	432.48
494.432	465.67
494.794	381.41
495.155	389.07
495.517	386.52
495.879	391.62
496.24	404.39
496.602	447.8
496.963	360.98
497.325	424.82
497.686	422.26
498.048	394.18
498.409	455.46
498.77	488.65
499.131	445.25
499.492	396.73
499.854	338
500.215	322.68
500.576	348.22
500.937	358.43
501.298	383.96
501.658	417.16
502.019	419.71
502.38	371.2
502.741	360.98
503.101	501.42
503.462	399.28
503.823	360.98
504.183	458.01
504.543	422.26
504.904	432.48
505.264	381.41
505.625	355.88
505.985	373.75
506.345	401.84
506.705	335.45
507.065	320.13
507.426	338
507.786	343.11
508.146	360.98
508.505	435.03
508.865	432.48
509.225	452.91
509.585	414.6
509.945	422.26
510.304	353.32
510.664	468.23
511.024	412.05
511.383	429.93
511.743	412.05
512.102	424.82
512.462	389.07
512.821	381.41
513.18	335.45
513.539	458.01
513.899	394.18
514.258	340.56
514.617	432.48
514.976	435.03
515.335	399.28
515.694	368.64
516.053	442.69
516.412	447.8
516.771	383.96
517.129	350.77
517.488	340.56
517.847	401.84
518.205	424.82
518.564	419.71
518.922	401.84
519.281	376.3
519.639	437.59
519.998	343.11
520.356	360.98
520.714	391.62
521.073	378.86
521.431	394.18
521.789	353.32
522.147	355.88
522.505	386.52
522.863	340.56
523.221	378.86
523.579	460.57
523.937	424.82
524.295	414.6
524.652	355.88
525.01	401.84
525.368	406.94
525.725	414.6
526.083	394.18
526.44	378.86
526.798	463.12
527.155	378.86
527.513	363.54
527.87	424.82
528.227	417.16
528.584	468.23
528.942	488.65
529.299	455.46
529.656	332.9
530.013	414.6
530.37	409.5
530.727	435.03
531.083	414.6
531.44	414.6
531.797	394.18
532.154	417.16
532.511	435.03
532.867	363.54
533.224	327.79
533.58	409.5
533.937	343.11
534.293	445.25
534.65	383.96
535.006	396.73
535.362	417.16
535.718	445.25
536.075	435.03
536.431	389.07
536.787	450.35
537.143	409.5
537.499	450.35
537.855	419.71
538.211	376.3
538.567	463.12
538.923	371.2
539.278	406.94
539.634	452.91
539.99	470.78
540.345	381.41
540.701	422.26
541.056	435.03
541.412	396.73
541.767	422.26
542.123	406.94
542.478	396.73
542.833	470.78
543.188	419.71
543.544	391.62
543.899	399.28
544.254	435.03
544.609	427.37
544.964	335.45
545.319	391.62
545.674	401.84
546.029	363.54
546.383	419.71
546.738	338
547.093	350.77
547.447	391.62
547.802	358.43
548.157	366.09
548.511	350.77
548.866	396.73
549.22	376.3
549.574	391.62
549.929	429.93
550.283	371.2
550.637	409.5
550.991	414.6
551.345	427.37
551.699	371.2
552.053	386.52
552.407	366.09
552.761	363.54
553.115	363.54
553.469	437.59
553.823	389.07
554.176	440.14
554.53	378.86
554.884	445.25
555.237	705.69
555.591	422.26
555.944	437.59
556.298	360.98
556.651	404.39
557.005	391.62
557.358	432.48
557.711	394.18
558.064	376.3
558.417	399.28
558.771	478.44
559.124	437.59
559.477	450.35
559.83	409.5
560.182	493.76
560.535	404.39
560.888	440.14
561.241	473.33
561.594	406.94
561.946	396.73
562.299	373.75
562.651	406.94
563.004	381.41
563.356	399.28
563.709	389.07
564.061	389.07
564.413	383.96
564.766	386.52
565.118	350.77
565.47	360.98
565.822	355.88
566.174	419.71
566.526	358.43
566.878	320.13
567.23	350.77
567.582	373.75
567.934	355.88
568.286	427.37
568.638	350.77
568.989	412.05
569.341	419.71
569.693	424.82
570.044	363.54
570.396	452.91
570.747	345.66
571.098	335.45
571.45	455.46
571.801	429.93
572.152	406.94
572.504	435.03
572.855	419.71
573.206	445.25
573.557	371.2
573.908	409.5
574.259	409.5
574.61	437.59
574.961	419.71
575.311	437.59
575.662	335.45
576.013	437.59
576.364	424.82
576.714	437.59
577.065	353.32
577.415	363.54
577.766	394.18
578.116	440.14
578.467	429.93
578.817	440.14
579.167	435.03
579.518	383.96
579.868	381.41
580.218	412.05
580.568	412.05
580.918	389.07
581.268	414.6
581.618	391.62
581.968	417.16
582.318	417.16
582.668	442.69
583.017	435.03
583.367	442.69
583.717	394.18
584.066	307.36
584.416	360.98
584.765	440.14
585.115	401.84
585.464	409.5
585.814	366.09
586.163	386.52
586.512	417.16
586.862	366.09
587.211	355.88
587.56	378.86
587.909	383.96
588.258	373.75
588.607	358.43
588.956	404.39
589.305	401.84
589.654	322.68
590.002	338
590.351	432.48
590.7	419.71
591.048	447.8
591.397	455.46
591.746	406.94
592.094	360.98
592.443	396.73
592.791	389.07
593.139	450.35
593.488	404.39
593.836	396.73
594.184	445.25
594.532	391.62
594.88	422.26
595.228	455.46
595.576	440.14
595.924	429.93
596.272	432.48
596.62	381.41
596.968	424.82
597.316	355.88
597.664	396.73
598.011	422.26
598.359	376.3
598.706	383.96
599.054	394.18
599.402	394.18
599.749	376.3
600.096	378.86
600.444	435.03
600.791	378.86
601.138	409.5
601.485	414.6
601.833	406.94
602.18	394.18
602.527	417.16
602.874	371.2
603.221	399.28
603.568	440.14
603.914	465.67
604.261	409.5
604.608	345.66
604.955	406.94
605.301	335.45
605.648	383.96
605.995	391.62
606.341	389.07
606.688	394.18
607.034	440.14
607.38	389.07
607.727	468.23
608.073	381.41
608.419	404.39
608.765	473.33
609.112	401.84
609.458	394.18
609.804	417.16
610.15	419.71
610.496	386.52
610.842	396.73
611.187	322.68
611.533	394.18
611.879	412.05
612.225	394.18
612.57	440.14
612.916	343.11
613.261	338
613.607	345.66
613.952	363.54
614.298	432.48
614.643	440.14
614.989	381.41
615.334	440.14
615.679	419.71
616.024	427.37
616.369	355.88
616.714	381.41
617.059	452.91
617.404	417.16
617.749	409.5
618.094	429.93
618.439	381.41
618.784	376.3
619.129	358.43
619.473	386.52
619.818	412.05
620.163	366.09
620.507	383.96
620.852	386.52
621.196	373.75
621.54	371.2
621.885	368.64
622.229	394.18
622.573	414.6
622.918	399.28
623.262	422.26
623.606	325.24
623.95	394.18
624.294	368.64
624.638	427.37
624.982	350.77
625.326	419.71
625.67	429.93
626.013	437.59
626.357	424.82
626.701	391.62
627.044	335.45
627.388	417.16
627.731	414.6
628.075	409.5
628.418	345.66
628.762	358.43
629.105	332.9
629.448	383.96
629.792	371.2
630.135	363.54
630.478	371.2
630.821	394.18
631.164	450.35
631.507	376.3
631.85	358.43
632.193	422.26
632.536	424.82
632.879	432.48
633.221	383.96
633.564	366.09
633.907	396.73
634.249	368.64
634.592	432.48
634.935	440.14
635.277	455.46
635.619	414.6
635.962	381.41
636.304	345.66
636.646	427.37
636.989	399.28
637.331	399.28
637.673	340.56
638.015	383.96
638.357	414.6
638.699	386.52
639.041	406.94
639.383	386.52
639.725	378.86
640.067	419.71
640.408	358.43
640.75	353.32
641.092	389.07
641.433	355.88
641.775	355.88
642.116	406.94
642.458	475.89
642.799	345.66
643.141	455.46
643.482	378.86
643.823	419.71
644.164	450.35
644.506	470.78
644.847	424.82
645.188	386.52
645.529	417.16
645.87	406.94
646.211	345.66
646.552	399.28
646.893	409.5
647.233	343.11
647.574	404.39
647.915	394.18
648.255	345.66
648.596	360.98
648.937	404.39
649.277	399.28
649.618	343.11
649.958	368.64
650.298	412.05
650.639	327.79
650.979	335.45
651.319	312.47
651.659	376.3
651.999	340.56
652.339	437.59
652.679	373.75
653.019	445.25
653.359	389.07
653.699	422.26
654.039	373.75
654.379	404.39
654.719	378.86
655.058	355.88
655.398	458.01
655.737	440.14
656.077	414.6
656.416	422.26
656.756	363.54
657.095	373.75
657.435	396.73
657.774	327.79
658.113	376.3
658.452	445.25
658.792	394.18
659.131	302.26
659.47	406.94
659.809	440.14
660.148	419.71
660.487	414.6
660.826	332.9
661.164	383.96
661.503	340.56
661.842	406.94
662.181	327.79
662.519	409.5
662.858	419.71
663.196	371.2
663.535	399.28
663.873	437.59
664.212	437.59
664.55	381.41
664.888	376.3
665.226	406.94
665.565	358.43
665.903	613.77
666.241	447.8
666.579	409.5
666.917	440.14
667.255	427.37
667.593	386.52
667.931	419.71
668.268	396.73
668.606	417.16
668.944	343.11
669.282	440.14
669.619	396.73
669.957	378.86
670.294	363.54
670.632	378.86
670.969	401.84
671.307	394.18
671.644	437.59
671.981	419.71
672.318	473.33
672.656	442.69
672.993	358.43
673.33	373.75
673.667	422.26
674.004	381.41
674.341	422.26
674.678	391.62
675.015	404.39
675.351	493.76
675.688	422.26
676.025	350.77
676.362	386.52
676.698	404.39
677.035	401.84
677.371	417.16
677.708	437.59
678.044	414.6
678.38	378.86
678.717	401.84
679.053	404.39
679.389	429.93
679.725	414.6
680.062	437.59
680.398	360.98
680.734	353.32
681.07	401.84
681.406	368.64
681.742	404.39
682.077	350.77
682.413	383.96
682.749	350.77
683.085	381.41
683.42	373.75
683.756	406.94
684.091	414.6
684.427	452.91
684.762	432.48
685.098	317.58
685.433	414.6
685.768	353.32
686.104	417.16
686.439	360.98
686.774	340.56
687.109	373.75
687.444	399.28
687.779	317.58
688.114	340.56
688.449	376.3
688.784	399.28
689.119	381.41
689.454	401.84
689.789	366.09
690.123	383.96
690.458	391.62
690.792	391.62
691.127	345.66
691.461	363.54
691.796	424.82
692.13	406.94
692.465	304.81
692.799	373.75
693.133	373.75
693.467	353.32
693.802	373.75
694.136	373.75
694.47	348.22
694.804	338
695.138	358.43
695.472	414.6
695.806	353.32
696.139	381.41
696.473	432.48
696.807	386.52
697.141	363.54
697.474	404.39
697.808	401.84
698.141	406.94
698.475	358.43
698.808	383.96
699.142	353.32
699.475	391.62
699.808	450.35
700.142	350.77
700.475	358.43
700.808	378.86
701.141	391.62
701.474	371.2
701.807	406.94
702.14	406.94
702.473	366.09
702.806	366.09
703.139	376.3
703.472	389.07
703.804	343.11
704.137	389.07
704.47	475.89
704.802	383.96
705.135	366.09
705.467	450.35
705.8	417.16
706.132	414.6
706.464	399.28
706.797	409.5
707.129	345.66
707.461	465.67
707.793	378.86
708.125	391.62
708.457	320.13
708.789	399.28
709.121	383.96
709.453	345.66
709.785	335.45
710.117	412.05
710.449	401.84
710.781	383.96
711.112	419.71
711.444	435.03
711.775	406.94
712.107	422.26
712.438	414.6
712.77	396.73
713.101	399.28
713.433	389.07
713.764	422.26
714.095	435.03
714.426	419.71
714.757	447.8
715.089	412.05
715.42	437.59
715.751	383.96
716.082	401.84
716.412	414.6
716.743	315.02
717.074	414.6
717.405	414.6
717.736	366.09
718.066	409.5
718.397	409.5
718.727	455.46
719.058	399.28
719.388	389.07
719.719	371.2
720.049	381.41
720.38	399.28
720.71	437.59
721.04	396.73
721.37	376.3
721.7	412.05
722.031	345.66
722.361	332.9
722.691	363.54
723.021	348.22
723.35	401.84
723.68	389.07
724.01	440.14
724.34	394.18
724.67	412.05
724.999	381.41
725.329	447.8
725.658	366.09
725.988	358.43
726.317	412.05
726.647	442.69
726.976	353.32
727.306	399.28
727.635	371.2
727.964	335.45
728.293	417.16
728.622	373.75
728.952	396.73
729.281	422.26
729.61	368.64
729.939	383.96
730.267	302.26
730.596	312.47
730.925	366.09
731.254	381.41
731.583	414.6
731.911	419.71
732.24	358.43
732.568	389.07
732.897	325.24
733.225	358.43
733.554	406.94
733.882	386.52
734.21	447.8
734.539	368.64
734.867	401.84
735.195	389.07
735.523	404.39
735.851	394.18
736.179	422.26
736.507	417.16
736.835	345.66
737.163	348.22
737.491	394.18
737.819	366.09
738.147	297.15
738.474	353.32
738.802	412.05
739.13	373.75
739.457	348.22
739.785	396.73
740.112	363.54
740.44	371.2
740.767	394.18
741.094	371.2
741.422	363.54
741.749	394.18
742.076	376.3
742.403	373.75
742.73	396.73
743.057	383.96
743.384	399.28
743.711	348.22
744.038	429.93
744.365	450.35
744.692	348.22
745.018	422.26
745.345	391.62
745.672	360.98
745.998	376.3
746.325	376.3
746.651	366.09
746.978	366.09
747.304	412.05
747.631	378.86
747.957	378.86
748.283	445.25
748.61	404.39
748.936	320.13
749.262	376.3
749.588	412.05
749.914	358.43
750.24	409.5
750.566	396.73
750.892	383.96
751.218	406.94
751.543	412.05
751.869	401.84
752.195	338
752.521	368.64
752.846	368.64
753.172	386.52
753.497	345.66
753.823	355.88
754.148	360.98
754.473	315.02
754.799	414.6
755.124	363.54
755.449	455.46
755.774	417.16
756.1	399.28
756.425	348.22
756.75	332.9
757.075	378.86
757.4	506.53
757.724	355.88
758.049	284.38
758.374	353.32
758.699	335.45
759.024	332.9
759.348	343.11
759.673	440.14
759.997	440.14
760.322	353.32
760.646	373.75
760.971	404.39
761.295	406.94
761.619	391.62
761.944	368.64
762.268	394.18
762.592	368.64
762.916	409.5
763.24	366.09
763.564	376.3
763.888	480.99
764.212	473.33
764.536	458.01
764.86	552.49
765.184	557.59
765.508	483.55
765.831	422.26
766.155	695.48
766.478	544.83
766.802	496.31
767.126	519.29
767.449	534.61
767.772	621.43
768.096	631.64
768.419	603.55
768.742	598.45
769.066	580.57
769.389	572.91
769.712	572.91
770.035	646.96
770.358	644.41
770.681	731.22
771.004	728.67
771.327	754.2
771.65	698.03
771.972	759.31
772.295	741.44
772.618	774.63
772.941	766.97
773.263	856.34
773.586	841.02
773.908	966.13
774.231	925.28
774.553	973.79
774.875	1063.16
775.198	1055.5
775.52	1012.1
775.842	1012.1
776.164	912.51
776.487	1004.44
776.809	1060.61
777.131	1050.4
777.453	1075.93
777.775	1009.54
778.096	1178.06
778.418	1180.62
778.74	1221.47
779.062	1065.72
779.384	1155.08
779.705	1326.16
780.027	1461.49
780.348	1441.06
780.67	1346.59
780.991	1591.71
781.313	1624.91
781.634	1627.46
781.955	1571.28
782.277	1558.52
782.598	1614.69
782.919	1474.26
783.24	1515.11
783.561	1665.76
783.882	1670.87
784.203	1663.21
784.524	1566.18
784.845	1688.74
785.166	1673.42
785.487	1619.8
785.807	1614.69
786.128	1637.67
786.449	1622.35
786.769	1696.4
787.09	1921.1
787.41	2066.64
787.731	2127.92
788.051	2304.1
788.372	2301.55
788.692	2357.73
789.012	2332.19
789.332	2224.95
789.653	2339.85
789.973	2592.64
790.293	2498.16
790.613	2189.2
790.933	2232.61
791.253	2286.23
791.573	2247.93
791.893	2283.68
792.212	2311.76
792.532	2201.97
792.852	2166.22
793.171	2071.75
793.491	2033.45
793.811	1964.51
794.13	2002.81
794.45	1836.84
794.769	1767.9
795.088	1857.26
795.408	1678.53
795.727	1867.48
796.046	1895.56
796.365	1857.26
796.684	1752.57
797.004	1755.13
797.323	1961.95
797.642	2380.71
797.96	2452.2
798.279	2401.13
798.598	2237.72
798.917	2270.91
799.236	2153.46
799.554	2020.68
799.873	2000.25
800.192	2112.6
800.51	2204.52
800.829	2053.87
801.147	1987.49
801.466	1824.07
