Data from 2025-12-03_xpw_interference_micrometer_634_reference_FLMS141361__66__516.txt Node

Date: Wed Dec 03 15:52:25 MST 2025
User: james
Spectrometer: FLMS14136
Trigger mode: 0
Integration Time (sec): 1.000000E-1
Scans to average: 1
Electric dark correction enabled: true
Nonlinearity correction enabled: false
Boxcar width: 0
XAxis mode: Wavelengths
Number of Pixels in Spectrum: 2048
>>>>>Begin Spectral Data<<<<<
339.315	-99.74
339.697	-99.74
340.079	-99.74
340.461	-158.47
340.843	-48.67
341.225	-86.97
341.607	-66.55
341.989	-125.28
342.371	-56.33
342.752	-81.87
343.134	-92.08
343.516	-41.01
343.897	-58.89
344.279	56.01
344.661	48.35
345.042	38.14
345.423	63.67
345.805	50.91
346.186	56.01
346.567	135.17
346.949	160.7
347.33	163.26
347.711	186.24
348.092	199
348.473	280.71
348.854	319.01
349.235	359.87
349.616	275.61
349.997	290.93
350.378	275.61
350.758	301.14
351.139	275.61
351.52	339.44
351.9	285.82
352.281	283.27
352.661	357.31
353.042	380.29
353.422	367.53
353.803	421.15
354.183	349.65
354.563	426.25
354.943	362.42
355.324	421.15
355.704	490.09
356.084	393.06
356.464	385.4
356.844	418.59
357.224	352.21
357.603	359.87
357.983	408.38
358.363	441.57
358.743	334.33
359.122	377.74
359.502	387.95
359.882	416.04
360.261	336.89
360.641	380.29
361.02	364.97
361.399	364.97
361.779	319.01
362.158	364.97
362.537	341.99
362.916	329.23
363.296	308.8
363.675	393.06
364.054	339.44
364.433	382.85
364.812	398.17
365.19	362.42
365.569	362.42
365.948	377.74
366.327	393.06
366.705	349.65
367.084	316.46
367.463	393.06
367.841	334.33
368.22	321.57
368.598	362.42
368.977	385.4
369.355	372.63
369.733	308.8
370.111	382.85
370.49	382.85
370.868	324.12
371.246	301.14
371.624	398.17
372.002	321.57
372.38	290.93
372.758	319.01
373.136	357.31
373.513	359.87
373.891	321.57
374.269	331.78
374.646	352.21
375.024	421.15
375.402	331.78
375.779	301.14
376.157	336.89
376.534	316.46
376.911	280.71
377.289	331.78
377.666	403.27
378.043	380.29
378.42	334.33
378.797	413.49
379.175	439.02
379.552	362.42
379.929	326.67
380.305	313.91
380.682	362.42
381.059	364.97
381.436	367.53
381.813	359.87
382.189	390.51
382.566	367.53
382.943	380.29
383.319	359.87
383.696	331.78
384.072	341.99
384.448	395.61
384.825	387.95
385.201	372.63
385.577	428.81
385.953	408.38
386.329	400.72
386.706	416.04
387.082	352.21
387.458	344.55
387.834	324.12
388.209	367.53
388.585	370.08
388.961	372.63
389.337	431.36
389.713	319.01
390.088	400.72
390.464	398.17
390.839	301.14
391.215	362.42
391.59	341.99
391.966	357.31
392.341	380.29
392.716	377.74
393.092	347.1
393.467	362.42
393.842	339.44
394.217	352.21
394.592	349.65
394.967	278.16
395.342	326.67
395.717	357.31
396.092	413.49
396.467	387.95
396.841	367.53
397.216	354.76
397.591	313.91
397.965	382.85
398.34	421.15
398.714	344.55
399.089	349.65
399.463	319.01
399.838	367.53
400.212	357.31
400.586	410.93
400.961	398.17
401.335	423.7
401.709	370.08
402.083	405.83
402.457	336.89
402.831	370.08
403.205	393.06
403.579	357.31
403.953	303.69
404.326	400.72
404.7	413.49
405.074	331.78
405.447	334.33
405.821	410.93
406.195	398.17
406.568	398.17
406.942	474.77
407.315	400.72
407.688	474.77
408.062	400.72
408.435	385.4
408.808	352.21
409.181	311.35
409.554	418.59
409.927	362.42
410.3	410.93
410.673	398.17
411.046	382.85
411.419	467.11
411.792	372.63
412.165	357.31
412.537	339.44
412.91	336.89
413.283	313.91
413.655	377.74
414.028	359.87
414.4	357.31
414.773	370.08
415.145	451.79
415.517	436.47
415.889	428.81
416.262	380.29
416.634	418.59
417.006	393.06
417.378	441.57
417.75	431.36
418.122	403.27
418.494	410.93
418.866	362.42
419.238	454.34
419.609	449.23
419.981	398.17
420.353	336.89
420.725	418.59
421.096	408.38
421.468	400.72
421.839	477.32
422.211	375.19
422.582	410.93
422.953	324.12
423.325	352.21
423.696	380.29
424.067	354.76
424.438	372.63
424.809	370.08
425.18	408.38
425.551	362.42
425.922	354.76
426.293	403.27
426.664	393.06
427.035	482.43
427.406	454.34
427.776	446.68
428.147	398.17
428.518	357.31
428.888	413.49
429.259	341.99
429.629	405.83
429.999	370.08
430.37	400.72
430.74	433.91
431.11	393.06
431.481	395.61
431.851	393.06
432.221	423.7
432.591	393.06
432.961	362.42
433.331	390.51
433.701	423.7
434.071	398.17
434.441	367.53
434.81	444.13
435.18	428.81
435.55	454.34
435.919	334.33
436.289	385.4
436.658	387.95
437.028	426.25
437.397	469.66
437.767	390.51
438.136	380.29
438.505	441.57
438.875	405.83
439.244	451.79
439.613	398.17
439.982	382.85
440.351	474.77
440.72	385.4
441.089	454.34
441.458	339.44
441.827	393.06
442.196	428.81
442.564	518.18
442.933	413.49
443.302	372.63
443.67	479.88
444.039	395.61
444.407	380.29
444.776	398.17
445.144	382.85
445.513	410.93
445.881	456.9
446.249	387.95
446.617	446.68
446.986	387.95
447.354	403.27
447.722	354.76
448.09	395.61
448.458	421.15
448.826	431.36
449.194	413.49
449.561	431.36
449.929	395.61
450.297	398.17
450.665	387.95
451.032	382.85
451.4	398.17
451.767	441.57
452.135	497.75
452.502	380.29
452.87	403.27
453.237	395.61
453.604	311.35
453.971	370.08
454.339	347.1
454.706	367.53
455.073	451.79
455.44	428.81
455.807	413.49
456.174	400.72
456.541	390.51
456.908	439.02
457.274	436.47
457.641	341.99
458.008	377.74
458.374	490.09
458.741	467.11
459.108	477.32
459.474	362.42
459.841	385.4
460.207	446.68
460.573	375.19
460.94	431.36
461.306	413.49
461.672	462
462.038	359.87
462.404	431.36
462.771	449.23
463.137	403.27
463.503	393.06
463.868	408.38
464.234	331.78
464.6	293.48
464.966	377.74
465.332	439.02
465.697	380.29
466.063	413.49
466.429	451.79
466.794	416.04
467.16	421.15
467.525	408.38
467.89	352.21
468.256	413.49
468.621	385.4
468.986	428.81
469.351	436.47
469.717	418.59
470.082	464.56
470.447	441.57
470.812	405.83
471.177	380.29
471.542	410.93
471.906	413.49
472.271	372.63
472.636	405.83
473.001	393.06
473.365	387.95
473.73	439.02
474.094	367.53
474.459	405.83
474.823	418.59
475.188	482.43
475.552	436.47
475.917	395.61
476.281	380.29
476.645	339.44
477.009	387.95
477.373	436.47
477.737	451.79
478.101	357.31
478.465	398.17
478.829	390.51
479.193	431.36
479.557	423.7
479.921	405.83
480.284	410.93
480.648	439.02
481.012	352.21
481.375	398.17
481.739	380.29
482.102	408.38
482.466	370.08
482.829	454.34
483.193	426.25
483.556	464.56
483.919	421.15
484.282	413.49
484.645	428.81
485.009	421.15
485.372	449.23
485.735	433.91
486.098	393.06
486.46	349.65
486.823	403.27
487.186	416.04
487.549	408.38
487.912	398.17
488.274	454.34
488.637	387.95
488.999	456.9
489.362	405.83
489.724	456.9
490.087	479.88
490.449	416.04
490.811	319.01
491.174	451.79
491.536	410.93
491.898	380.29
492.26	375.19
492.622	408.38
492.984	393.06
493.346	377.74
493.708	357.31
494.07	359.87
494.432	477.32
494.794	393.06
495.155	364.97
495.517	436.47
495.879	439.02
496.24	436.47
496.602	413.49
496.963	380.29
497.325	416.04
497.686	441.57
498.048	431.36
498.409	433.91
498.77	449.23
499.131	426.25
499.492	418.59
499.854	393.06
500.215	418.59
500.576	344.55
500.937	339.44
501.298	390.51
501.658	444.13
502.019	421.15
502.38	339.44
502.741	336.89
503.101	398.17
503.462	423.7
503.823	449.23
504.183	433.91
504.543	456.9
504.904	334.33
505.264	362.42
505.625	359.87
505.985	413.49
506.345	456.9
506.705	446.68
507.065	408.38
507.426	449.23
507.786	398.17
508.146	482.43
508.505	421.15
508.865	349.65
509.225	385.4
509.585	467.11
509.945	403.27
510.304	454.34
510.664	469.66
511.024	436.47
511.383	410.93
511.743	372.63
512.102	398.17
512.462	364.97
512.821	359.87
513.18	382.85
513.539	387.95
513.899	436.47
514.258	456.9
514.617	428.81
514.976	428.81
515.335	451.79
515.694	421.15
516.053	467.11
516.412	344.55
516.771	385.4
517.129	428.81
517.488	408.38
517.847	339.44
518.205	456.9
518.564	380.29
518.922	364.97
519.281	370.08
519.639	336.89
519.998	400.72
520.356	377.74
520.714	390.51
521.073	408.38
521.431	349.65
521.789	377.74
522.147	405.83
522.505	413.49
522.863	370.08
523.221	439.02
523.579	426.25
523.937	410.93
524.295	418.59
524.652	387.95
525.01	441.57
525.368	462
525.725	449.23
526.083	431.36
526.44	436.47
526.798	367.53
527.155	398.17
527.513	405.83
527.87	387.95
528.227	395.61
528.584	426.25
528.942	395.61
529.299	375.19
529.656	405.83
530.013	462
530.37	441.57
530.727	477.32
531.083	410.93
531.44	405.83
531.797	382.85
532.154	413.49
532.511	410.93
532.867	341.99
533.224	395.61
533.58	484.98
533.937	433.91
534.293	469.66
534.65	403.27
535.006	416.04
535.362	382.85
535.718	372.63
536.075	410.93
536.431	403.27
536.787	421.15
537.143	403.27
537.499	423.7
537.855	408.38
538.211	357.31
538.567	372.63
538.923	372.63
539.278	428.81
539.634	426.25
539.99	400.72
540.345	439.02
540.701	444.13
541.056	426.25
541.412	441.57
541.767	382.85
542.123	492.64
542.478	433.91
542.833	416.04
543.188	408.38
543.544	362.42
543.899	459.45
544.254	433.91
544.609	431.36
544.964	380.29
545.319	413.49
545.674	456.9
546.029	439.02
546.383	352.21
546.738	387.95
547.093	403.27
547.447	405.83
547.802	451.79
548.157	413.49
548.511	334.33
548.866	408.38
549.22	405.83
549.574	423.7
549.929	418.59
550.283	421.15
550.637	416.04
550.991	395.61
551.345	372.63
551.699	421.15
552.053	387.95
552.407	431.36
552.761	395.61
553.115	454.34
553.469	377.74
553.823	416.04
554.176	352.21
554.53	400.72
554.884	398.17
555.237	599.88
555.591	416.04
555.944	464.56
556.298	403.27
556.651	446.68
557.005	416.04
557.358	446.68
557.711	444.13
558.064	398.17
558.417	375.19
558.771	472.22
559.124	502.86
559.477	469.66
559.83	441.57
560.182	410.93
560.535	408.38
560.888	347.1
561.241	385.4
561.594	362.42
561.946	362.42
562.299	416.04
562.651	410.93
563.004	385.4
563.356	418.59
563.709	398.17
564.061	426.25
564.413	464.56
564.766	416.04
565.118	364.97
565.47	416.04
565.822	370.08
566.174	423.7
566.526	370.08
566.878	467.11
567.23	462
567.582	433.91
567.934	362.42
568.286	413.49
568.638	426.25
568.989	398.17
569.341	418.59
569.693	439.02
570.044	433.91
570.396	390.51
570.747	467.11
571.098	380.29
571.45	416.04
571.801	393.06
572.152	459.45
572.504	431.36
572.855	423.7
573.206	405.83
573.557	377.74
573.908	364.97
574.259	398.17
574.61	408.38
574.961	400.72
575.311	421.15
575.662	385.4
576.013	380.29
576.364	395.61
576.714	449.23
577.065	398.17
577.415	329.23
577.766	408.38
578.116	426.25
578.467	380.29
578.817	390.51
579.167	367.53
579.518	416.04
579.868	426.25
580.218	408.38
580.568	444.13
580.918	380.29
581.268	416.04
581.618	405.83
581.968	400.72
582.318	352.21
582.668	387.95
583.017	416.04
583.367	462
583.717	362.42
584.066	387.95
584.416	431.36
584.765	426.25
585.115	336.89
585.464	403.27
585.814	400.72
586.163	403.27
586.512	436.47
586.862	380.29
587.211	367.53
587.56	418.59
587.909	382.85
588.258	416.04
588.607	449.23
588.956	359.87
589.305	456.9
589.654	403.27
590.002	426.25
590.351	421.15
590.7	408.38
591.048	380.29
591.397	439.02
591.746	308.8
592.094	433.91
592.443	375.19
592.791	393.06
593.139	400.72
593.488	377.74
593.836	439.02
594.184	385.4
594.532	444.13
594.88	490.09
595.228	349.65
595.576	370.08
595.924	441.57
596.272	352.21
596.62	410.93
596.968	484.98
597.316	387.95
597.664	439.02
598.011	347.1
598.359	387.95
598.706	418.59
599.054	426.25
599.402	375.19
599.749	421.15
600.096	390.51
600.444	410.93
600.791	390.51
601.138	380.29
601.485	377.74
601.833	428.81
602.18	459.45
602.527	393.06
602.874	418.59
603.221	410.93
603.568	416.04
603.914	359.87
604.261	362.42
604.608	267.95
604.955	316.46
605.301	385.4
605.648	387.95
605.995	393.06
606.341	341.99
606.688	421.15
607.034	421.15
607.38	385.4
607.727	377.74
608.073	398.17
608.419	423.7
608.765	413.49
609.112	385.4
609.458	395.61
609.804	313.91
610.15	347.1
610.496	341.99
610.842	446.68
611.187	446.68
611.533	375.19
611.879	441.57
612.225	459.45
612.57	416.04
612.916	467.11
613.261	405.83
613.607	418.59
613.952	456.9
614.298	354.76
614.643	339.44
614.989	446.68
615.334	364.97
615.679	405.83
616.024	426.25
616.369	408.38
616.714	400.72
617.059	385.4
617.404	385.4
617.749	400.72
618.094	354.76
618.439	403.27
618.784	400.72
619.129	385.4
619.473	347.1
619.818	390.51
620.163	362.42
620.507	398.17
620.852	410.93
621.196	410.93
621.54	403.27
621.885	403.27
622.229	385.4
622.573	382.85
622.918	484.98
623.262	398.17
623.606	505.41
623.95	462
624.294	398.17
624.638	423.7
624.982	380.29
625.326	403.27
625.67	382.85
626.013	385.4
626.357	372.63
626.701	413.49
627.044	387.95
627.388	433.91
627.731	375.19
628.075	413.49
628.418	403.27
628.762	370.08
629.105	398.17
629.448	441.57
629.792	479.88
630.135	423.7
630.478	382.85
630.821	370.08
631.164	341.99
631.507	431.36
631.85	413.49
632.193	413.49
632.536	423.7
632.879	408.38
633.221	413.49
633.564	418.59
633.907	444.13
634.249	403.27
634.592	421.15
634.935	413.49
635.277	364.97
635.619	398.17
635.962	352.21
636.304	367.53
636.646	398.17
636.989	410.93
637.331	426.25
637.673	408.38
638.015	359.87
638.357	395.61
638.699	444.13
639.041	370.08
639.383	410.93
639.725	403.27
640.067	421.15
640.408	408.38
640.75	403.27
641.092	398.17
641.433	387.95
641.775	413.49
642.116	375.19
642.458	433.91
642.799	416.04
643.141	385.4
643.482	423.7
643.823	400.72
644.164	423.7
644.506	410.93
644.847	482.43
645.188	423.7
645.529	444.13
645.87	413.49
646.211	387.95
646.552	423.7
646.893	387.95
647.233	403.27
647.574	352.21
647.915	344.55
648.255	393.06
648.596	364.97
648.937	413.49
649.277	403.27
649.618	370.08
649.958	398.17
650.298	354.76
650.639	352.21
650.979	444.13
651.319	367.53
651.659	385.4
651.999	410.93
652.339	393.06
652.679	362.42
653.019	431.36
653.359	472.22
653.699	387.95
654.039	372.63
654.379	439.02
654.719	428.81
655.058	362.42
655.398	410.93
655.737	423.7
656.077	477.32
656.416	426.25
656.756	423.7
657.095	408.38
657.435	367.53
657.774	436.47
658.113	400.72
658.452	377.74
658.792	410.93
659.131	456.9
659.47	359.87
659.809	439.02
660.148	416.04
660.487	331.78
660.826	431.36
661.164	428.81
661.503	319.01
661.842	436.47
662.181	393.06
662.519	423.7
662.858	416.04
663.196	428.81
663.535	344.55
663.873	398.17
664.212	433.91
664.55	533.5
664.888	400.72
665.226	426.25
665.565	375.19
665.903	607.54
666.241	449.23
666.579	377.74
666.917	385.4
667.255	395.61
667.593	382.85
667.931	441.57
668.268	405.83
668.606	400.72
668.944	400.72
669.282	428.81
669.619	316.46
669.957	431.36
670.294	382.85
670.632	428.81
670.969	375.19
671.307	329.23
671.644	428.81
671.981	408.38
672.318	405.83
672.656	426.25
672.993	418.59
673.33	359.87
673.667	370.08
674.004	390.51
674.341	446.68
674.678	421.15
675.015	408.38
675.351	418.59
675.688	413.49
676.025	400.72
676.362	413.49
676.698	390.51
677.035	416.04
677.371	382.85
677.708	387.95
678.044	372.63
678.38	387.95
678.717	339.44
679.053	433.91
679.389	421.15
679.725	418.59
680.062	410.93
680.398	341.99
680.734	398.17
681.07	357.31
681.406	436.47
681.742	387.95
682.077	464.56
682.413	324.12
682.749	329.23
683.085	431.36
683.42	416.04
683.756	387.95
684.091	380.29
684.427	357.31
684.762	393.06
685.098	364.97
685.433	344.55
685.768	408.38
686.104	313.91
686.439	382.85
686.774	375.19
687.109	395.61
687.444	349.65
687.779	410.93
688.114	352.21
688.449	385.4
688.784	405.83
689.119	382.85
689.454	377.74
689.789	352.21
690.123	395.61
690.458	380.29
690.792	413.49
691.127	375.19
691.461	423.7
691.796	349.65
692.13	459.45
692.465	418.59
692.799	390.51
693.133	439.02
693.467	403.27
693.802	416.04
694.136	441.57
694.47	382.85
694.804	410.93
695.138	398.17
695.472	262.84
695.806	347.1
696.139	408.38
696.473	413.49
696.807	472.22
697.141	436.47
697.474	354.76
697.808	354.76
698.141	352.21
698.475	341.99
698.808	380.29
699.142	410.93
699.475	380.29
699.808	377.74
700.142	372.63
700.475	413.49
700.808	367.53
701.141	377.74
701.474	395.61
701.807	403.27
702.14	377.74
702.473	324.12
702.806	344.55
703.139	344.55
703.472	393.06
703.804	354.76
704.137	344.55
704.47	400.72
704.802	426.25
705.135	428.81
705.467	344.55
705.8	375.19
706.132	357.31
706.464	441.57
706.797	390.51
707.129	364.97
707.461	400.72
707.793	370.08
708.125	423.7
708.457	377.74
708.789	334.33
709.121	347.1
709.453	403.27
709.785	393.06
710.117	416.04
710.449	349.65
710.781	416.04
711.112	393.06
711.444	403.27
711.775	349.65
712.107	382.85
712.438	410.93
712.77	387.95
713.101	433.91
713.433	341.99
713.764	367.53
714.095	439.02
714.426	390.51
714.757	393.06
715.089	413.49
715.42	456.9
715.751	385.4
716.082	408.38
716.412	377.74
716.743	418.59
717.074	334.33
717.405	288.37
717.736	370.08
718.066	354.76
718.397	354.76
718.727	431.36
719.058	377.74
719.388	362.42
719.719	390.51
720.049	416.04
720.38	382.85
720.71	349.65
721.04	382.85
721.37	326.67
721.7	410.93
722.031	398.17
722.361	357.31
722.691	367.53
723.021	416.04
723.35	418.59
723.68	370.08
724.01	359.87
724.34	329.23
724.67	395.61
724.999	385.4
725.329	444.13
725.658	439.02
725.988	423.7
726.317	400.72
726.647	405.83
726.976	341.99
727.306	390.51
727.635	311.35
727.964	362.42
728.293	405.83
728.622	428.81
728.952	362.42
729.281	316.46
729.61	393.06
729.939	385.4
730.267	421.15
730.596	433.91
730.925	313.91
731.254	408.38
731.583	456.9
731.911	347.1
732.24	357.31
732.568	410.93
732.897	370.08
733.225	364.97
733.554	359.87
733.882	410.93
734.21	382.85
734.539	362.42
734.867	385.4
735.195	382.85
735.523	367.53
735.851	418.59
736.179	372.63
736.507	359.87
736.835	398.17
737.163	416.04
737.491	324.12
737.819	352.21
738.147	362.42
738.474	375.19
738.802	446.68
739.13	421.15
739.457	403.27
739.785	428.81
740.112	334.33
740.44	359.87
740.767	341.99
741.094	454.34
741.422	426.25
741.749	380.29
742.076	398.17
742.403	444.13
742.73	377.74
743.057	431.36
743.384	413.49
743.711	426.25
744.038	393.06
744.365	416.04
744.692	428.81
745.018	367.53
745.345	395.61
745.672	372.63
745.998	436.47
746.325	421.15
746.651	456.9
746.978	370.08
747.304	367.53
747.631	462
747.957	428.81
748.283	385.4
748.61	449.23
748.936	400.72
749.262	398.17
749.588	385.4
749.914	395.61
750.24	334.33
750.566	382.85
750.892	329.23
751.218	349.65
751.543	385.4
751.869	380.29
752.195	377.74
752.521	423.7
752.846	357.31
753.172	349.65
753.497	398.17
753.823	405.83
754.148	418.59
754.473	436.47
754.799	377.74
755.124	364.97
755.449	339.44
755.774	416.04
756.1	354.76
756.425	359.87
756.75	370.08
757.075	377.74
757.4	543.71
757.724	487.54
758.049	347.1
758.374	387.95
758.699	344.55
759.024	331.78
759.348	375.19
759.673	405.83
759.997	416.04
760.322	446.68
760.646	387.95
760.971	410.93
761.295	416.04
761.619	339.44
761.944	462
762.268	482.43
762.592	398.17
762.916	390.51
763.24	393.06
763.564	393.06
763.888	398.17
764.212	410.93
764.536	372.63
764.86	479.88
765.184	423.7
765.508	528.39
765.831	474.77
766.155	694.36
766.478	584.56
766.802	566.69
767.126	548.82
767.449	484.98
767.772	513.07
768.096	551.37
768.419	627.97
768.742	589.67
769.066	587.12
769.389	684.15
769.712	661.17
770.035	668.83
770.358	666.27
770.681	735.21
771.004	712.23
771.327	707.13
771.65	730.11
771.972	658.61
772.295	717.34
772.618	773.51
772.941	796.49
773.263	827.13
773.586	908.84
773.908	903.74
774.231	972.68
774.553	972.68
774.875	1013.53
775.198	1044.17
775.52	985.44
775.842	939.48
776.164	1010.98
776.487	980.34
776.809	954.8
777.131	1067.15
777.453	1059.49
777.775	1044.17
778.096	1130.99
778.418	1118.22
778.74	1133.54
779.062	1039.07
779.384	1210.14
779.705	1243.34
780.027	1276.53
780.348	1478.25
780.67	1452.71
780.991	1460.37
781.313	1498.67
781.634	1631.45
781.955	1544.63
782.277	1516.55
782.598	1605.92
782.919	1559.95
783.24	1570.17
783.561	1664.64
783.882	1562.51
784.203	1593.15
784.524	1626.34
784.845	1718.26
785.166	1529.31
785.487	1662.09
785.807	1600.81
786.128	1639.11
786.449	1577.83
786.769	1718.26
787.09	1820.4
787.41	1856.15
787.731	2042.54
788.051	2190.64
788.372	2221.28
788.692	2369.38
789.012	2254.47
789.332	2223.83
789.653	2328.52
789.973	2369.38
790.293	2397.46
790.613	2254.47
790.933	2065.52
791.253	2239.15
791.573	2274.9
791.893	2080.84
792.212	2137.02
792.532	2195.75
792.852	2093.61
793.171	1999.14
793.491	1988.92
793.811	2042.54
794.13	1891.89
794.45	1835.72
794.769	1682.52
795.088	1738.69
795.408	1825.51
795.727	1822.95
796.046	1876.57
796.365	1845.93
796.684	1731.03
797.004	1697.84
797.323	1955.73
797.642	2249.37
797.96	2305.54
798.279	2369.38
798.598	2251.92
798.917	2216.17
799.236	2108.93
799.554	2065.52
799.873	1973.6
