Data from 2025-12-03_xpw_interference_micrometer_634_reference_FLMS141361__8__458.txt Node

Date: Wed Dec 03 15:52:20 MST 2025
User: james
Spectrometer: FLMS14136
Trigger mode: 0
Integration Time (sec): 1.000000E-1
Scans to average: 1
Electric dark correction enabled: true
Nonlinearity correction enabled: false
Boxcar width: 0
XAxis mode: Wavelengths
Number of Pixels in Spectrum: 2048
>>>>>Begin Spectral Data<<<<<
339.315	-110.59
339.697	-110.59
340.079	-110.59
340.461	-123.36
340.843	-97.83
341.225	-85.06
341.607	-44.21
341.989	-131.02
342.371	-31.44
342.752	-100.38
343.134	-87.61
343.516	-108.04
343.897	-54.42
344.279	-41.65
344.661	103.89
345.042	78.36
345.423	11.97
345.805	101.34
346.186	111.55
346.567	139.64
346.949	137.08
347.33	195.81
347.711	198.37
348.092	198.37
348.473	280.07
348.854	226.45
349.235	221.35
349.616	287.73
349.997	272.41
350.378	313.27
350.758	282.63
351.139	300.5
351.52	354.12
351.9	351.57
352.281	331.14
352.661	341.35
353.042	425.62
353.422	366.89
353.803	410.3
354.183	318.37
354.563	394.98
354.943	372
355.324	382.21
355.704	420.51
356.084	379.66
356.464	428.17
356.844	415.4
357.224	354.12
357.603	318.37
357.983	384.76
358.363	463.92
358.743	387.32
359.122	351.57
359.502	440.94
359.882	336.25
360.261	359.23
360.641	387.32
361.02	359.23
361.399	328.59
361.779	310.71
362.158	374.55
362.537	392.42
362.916	333.69
363.296	364.34
363.675	364.34
364.054	392.42
364.433	333.69
364.812	361.78
365.19	331.14
365.569	412.85
365.948	420.51
366.327	356.67
366.705	420.51
367.084	420.51
367.463	400.08
367.841	415.4
368.22	336.25
368.598	364.34
368.977	359.23
369.355	349.01
369.733	305.61
370.111	372
370.49	372
370.868	364.34
371.246	359.23
371.624	326.03
372.002	349.01
372.38	379.66
372.758	356.67
373.136	328.59
373.513	315.82
373.891	328.59
374.269	303.05
374.646	331.14
375.024	405.19
375.402	356.67
375.779	359.23
376.157	300.5
376.534	359.23
376.911	372
377.289	341.35
377.666	369.44
378.043	343.91
378.42	354.12
378.797	394.98
379.175	343.91
379.552	354.12
379.929	372
380.305	372
380.682	428.17
381.059	397.53
381.436	377.1
381.813	400.08
382.189	420.51
382.566	372
382.943	433.28
383.319	392.42
383.696	292.84
384.072	394.98
384.448	430.72
384.825	451.15
385.201	374.55
385.577	407.74
385.953	366.89
386.329	338.8
386.706	328.59
387.082	290.29
387.458	377.1
387.834	336.25
388.209	410.3
388.585	369.44
388.961	415.4
389.337	412.85
389.713	320.93
390.088	318.37
390.464	389.87
390.839	433.28
391.215	394.98
391.59	384.76
391.966	389.87
392.341	349.01
392.716	425.62
393.092	351.57
393.467	346.46
393.842	389.87
394.217	359.23
394.592	392.42
394.967	420.51
395.342	300.5
395.717	349.01
396.092	359.23
396.467	446.04
396.841	379.66
397.216	364.34
397.591	435.83
397.965	333.69
398.34	392.42
398.714	435.83
399.089	387.32
399.463	310.71
399.838	351.57
400.212	384.76
400.586	402.64
400.961	315.82
401.335	333.69
401.709	430.72
402.083	351.57
402.457	354.12
402.831	402.64
403.205	438.38
403.579	354.12
403.953	415.4
404.326	479.24
404.7	400.08
405.074	397.53
405.447	372
405.821	346.46
406.195	382.21
406.568	400.08
406.942	417.96
407.315	374.55
407.688	397.53
408.062	410.3
408.435	374.55
408.808	448.6
409.181	433.28
409.554	387.32
409.927	456.26
410.3	423.06
410.673	336.25
411.046	415.4
411.419	443.49
411.792	366.89
412.165	410.3
412.537	397.53
412.91	402.64
413.283	374.55
413.655	392.42
414.028	400.08
414.4	392.42
414.773	394.98
415.145	438.38
415.517	410.3
415.889	379.66
416.262	389.87
416.634	397.53
417.006	387.32
417.378	425.62
417.75	364.34
418.122	364.34
418.494	407.74
418.866	387.32
419.238	397.53
419.609	407.74
419.981	397.53
420.353	433.28
420.725	392.42
421.096	392.42
421.468	443.49
421.839	433.28
422.211	446.04
422.582	430.72
422.953	379.66
423.325	389.87
423.696	425.62
424.067	443.49
424.438	400.08
424.809	400.08
425.18	369.44
425.551	392.42
425.922	343.91
426.293	384.76
426.664	374.55
427.035	394.98
427.406	415.4
427.776	366.89
428.147	387.32
428.518	433.28
428.888	433.28
429.259	392.42
429.629	336.25
429.999	458.81
430.37	369.44
430.74	364.34
431.11	364.34
431.481	372
431.851	412.85
432.221	405.19
432.591	387.32
432.961	392.42
433.331	343.91
433.701	446.04
434.071	412.85
434.441	351.57
434.81	359.23
435.18	397.53
435.55	417.96
435.919	415.4
436.289	446.04
436.658	389.87
437.028	372
437.397	433.28
437.767	453.7
438.136	402.64
438.505	446.04
438.875	384.76
439.244	466.47
439.613	456.26
439.982	379.66
440.351	448.6
440.72	392.42
441.089	315.82
441.458	417.96
441.827	384.76
442.196	377.1
442.564	543.07
442.933	504.77
443.302	412.85
443.67	382.21
444.039	372
444.407	405.19
444.776	379.66
445.144	379.66
445.513	440.94
445.881	425.62
446.249	397.53
446.617	328.59
446.986	410.3
447.354	400.08
447.722	377.1
448.09	423.06
448.458	394.98
448.826	492
449.194	420.51
449.561	387.32
449.929	410.3
450.297	458.81
450.665	410.3
451.032	451.15
451.4	433.28
451.767	405.19
452.135	407.74
452.502	400.08
452.87	374.55
453.237	303.05
453.604	382.21
453.971	351.57
454.339	389.87
454.706	377.1
455.073	351.57
455.44	461.36
455.807	400.08
456.174	456.26
456.541	382.21
456.908	471.58
457.274	405.19
457.641	415.4
458.008	407.74
458.374	440.94
458.741	389.87
459.108	356.67
459.474	402.64
459.841	351.57
460.207	410.3
460.573	476.68
460.94	458.81
461.306	405.19
461.672	384.76
462.038	410.3
462.404	382.21
462.771	382.21
463.137	377.1
463.503	438.38
463.868	400.08
464.234	400.08
464.6	374.55
464.966	387.32
465.332	377.1
465.697	410.3
466.063	379.66
466.429	412.85
466.794	412.85
467.16	366.89
467.525	446.04
467.89	364.34
468.256	440.94
468.621	440.94
468.986	433.28
469.351	402.64
469.717	397.53
470.082	349.01
470.447	400.08
470.812	481.79
471.177	349.01
471.542	433.28
471.906	435.83
472.271	338.8
472.636	425.62
473.001	379.66
473.365	430.72
473.73	433.28
474.094	420.51
474.459	392.42
474.823	456.26
475.188	389.87
475.552	369.44
475.917	389.87
476.281	451.15
476.645	412.85
477.009	338.8
477.373	415.4
477.737	389.87
478.101	374.55
478.465	425.62
478.829	389.87
479.193	407.74
479.557	456.26
479.921	474.13
480.284	397.53
480.648	420.51
481.012	423.06
481.375	448.6
481.739	420.51
482.102	438.38
482.466	415.4
482.829	461.36
483.193	458.81
483.556	425.62
483.919	423.06
484.282	428.17
484.645	425.62
485.009	458.81
485.372	402.64
485.735	435.83
486.098	463.92
486.46	417.96
486.823	387.32
487.186	405.19
487.549	387.32
487.912	425.62
488.274	458.81
488.637	392.42
488.999	458.81
489.362	366.89
489.724	387.32
490.087	412.85
490.449	507.32
490.811	397.53
491.174	438.38
491.536	407.74
491.898	415.4
492.26	377.1
492.622	377.1
492.984	423.06
493.346	402.64
493.708	407.74
494.07	423.06
494.432	433.28
494.794	354.12
495.155	430.72
495.517	417.96
495.879	405.19
496.24	466.47
496.602	392.42
496.963	364.34
497.325	499.66
497.686	423.06
498.048	392.42
498.409	466.47
498.77	397.53
499.131	341.35
499.492	425.62
499.854	415.4
500.215	387.32
500.576	428.17
500.937	410.3
501.298	392.42
501.658	530.3
502.019	499.66
502.38	428.17
502.741	415.4
503.101	456.26
503.462	402.64
503.823	448.6
504.183	361.78
504.543	433.28
504.904	366.89
505.264	435.83
505.625	397.53
505.985	481.79
506.345	415.4
506.705	474.13
507.065	448.6
507.426	346.46
507.786	415.4
508.146	372
508.505	435.83
508.865	433.28
509.225	474.13
509.585	417.96
509.945	410.3
510.304	423.06
510.664	435.83
511.024	476.68
511.383	433.28
511.743	415.4
512.102	389.87
512.462	377.1
512.821	387.32
513.18	420.51
513.539	392.42
513.899	359.23
514.258	387.32
514.617	402.64
514.976	461.36
515.335	415.4
515.694	400.08
516.053	433.28
516.412	364.34
516.771	420.51
517.129	387.32
517.488	415.4
517.847	446.04
518.205	356.67
518.564	374.55
518.922	310.71
519.281	356.67
519.639	417.96
519.998	433.28
520.356	453.7
520.714	446.04
521.073	417.96
521.431	412.85
521.789	420.51
522.147	430.72
522.505	469.02
522.863	407.74
523.221	343.91
523.579	394.98
523.937	486.9
524.295	428.17
524.652	377.1
525.01	402.64
525.368	366.89
525.725	382.21
526.083	407.74
526.44	448.6
526.798	430.72
527.155	479.24
527.513	466.47
527.87	428.17
528.227	443.49
528.584	425.62
528.942	382.21
529.299	428.17
529.656	402.64
530.013	379.66
530.37	504.77
530.727	420.51
531.083	382.21
531.44	435.83
531.797	415.4
532.154	446.04
532.511	425.62
532.867	369.44
533.224	397.53
533.58	382.21
533.937	433.28
534.293	377.1
534.65	354.12
535.006	428.17
535.362	435.83
535.718	400.08
536.075	453.7
536.431	356.67
536.787	382.21
537.143	310.71
537.499	349.01
537.855	343.91
538.211	392.42
538.567	415.4
538.923	476.68
539.278	461.36
539.634	402.64
539.99	400.08
540.345	448.6
540.701	423.06
541.056	425.62
541.412	359.23
541.767	384.76
542.123	387.32
542.478	430.72
542.833	463.92
543.188	374.55
543.544	423.06
543.899	392.42
544.254	425.62
544.609	446.04
544.964	448.6
545.319	440.94
545.674	430.72
546.029	448.6
546.383	412.85
546.738	387.32
547.093	456.26
547.447	420.51
547.802	351.57
548.157	451.15
548.511	438.38
548.866	382.21
549.22	369.44
549.574	379.66
549.929	425.62
550.283	366.89
550.637	430.72
550.991	435.83
551.345	425.62
551.699	387.32
552.053	356.67
552.407	400.08
552.761	392.42
553.115	433.28
553.469	392.42
553.823	387.32
554.176	405.19
554.53	389.87
554.884	435.83
555.237	680.95
555.591	484.34
555.944	453.7
556.298	420.51
556.651	428.17
557.005	428.17
557.358	420.51
557.711	461.36
558.064	430.72
558.417	387.32
558.771	489.45
559.124	476.68
559.477	389.87
559.83	415.4
560.182	423.06
560.535	412.85
560.888	402.64
561.241	374.55
561.594	361.78
561.946	369.44
562.299	405.19
562.651	394.98
563.004	489.45
563.356	415.4
563.709	451.15
564.061	474.13
564.413	412.85
564.766	433.28
565.118	407.74
565.47	369.44
565.822	410.3
566.174	379.66
566.526	338.8
566.878	412.85
567.23	359.23
567.582	435.83
567.934	379.66
568.286	394.98
568.638	410.3
568.989	430.72
569.341	479.24
569.693	456.26
570.044	417.96
570.396	389.87
570.747	430.72
571.098	417.96
571.45	423.06
571.801	463.92
572.152	410.3
572.504	415.4
572.855	392.42
573.206	456.26
573.557	466.47
573.908	400.08
574.259	417.96
574.61	456.26
574.961	428.17
575.311	443.49
575.662	466.47
576.013	453.7
576.364	423.06
576.714	377.1
577.065	435.83
577.415	453.7
577.766	389.87
578.116	420.51
578.467	412.85
578.817	326.03
579.167	405.19
579.518	446.04
579.868	420.51
580.218	430.72
580.568	346.46
580.918	402.64
581.268	458.81
581.618	425.62
581.968	384.76
582.318	448.6
582.668	400.08
583.017	453.7
583.367	479.24
583.717	412.85
584.066	448.6
584.416	384.76
584.765	410.3
585.115	346.46
585.464	349.01
585.814	382.21
586.163	428.17
586.512	410.3
586.862	331.14
587.211	389.87
587.56	400.08
587.909	412.85
588.258	384.76
588.607	374.55
588.956	400.08
589.305	425.62
589.654	400.08
590.002	397.53
590.351	504.77
590.7	379.66
591.048	509.88
591.397	456.26
591.746	443.49
592.094	323.48
592.443	384.76
592.791	407.74
593.139	372
593.488	405.19
593.836	417.96
594.184	438.38
594.532	366.89
594.88	410.3
595.228	387.32
595.576	448.6
595.924	463.92
596.272	361.78
596.62	435.83
596.968	397.53
597.316	372
597.664	410.3
598.011	389.87
598.359	448.6
598.706	407.74
599.054	400.08
599.402	405.19
599.749	405.19
600.096	377.1
600.444	423.06
600.791	379.66
601.138	448.6
601.485	356.67
601.833	392.42
602.18	384.76
602.527	379.66
602.874	417.96
603.221	346.46
603.568	394.98
603.914	463.92
604.261	405.19
604.608	433.28
604.955	438.38
605.301	443.49
605.648	481.79
605.995	443.49
606.341	430.72
606.688	397.53
607.034	435.83
607.38	476.68
607.727	400.08
608.073	440.94
608.419	402.64
608.765	366.89
609.112	453.7
609.458	415.4
609.804	405.19
610.15	420.51
610.496	392.42
610.842	384.76
611.187	382.21
611.533	453.7
611.879	425.62
612.225	349.01
612.57	392.42
612.916	379.66
613.261	405.19
613.607	382.21
613.952	425.62
614.298	369.44
614.643	389.87
614.989	351.57
615.334	400.08
615.679	423.06
616.024	420.51
616.369	379.66
616.714	374.55
617.059	430.72
617.404	394.98
617.749	425.62
618.094	420.51
618.439	366.89
618.784	415.4
619.129	438.38
619.473	346.46
619.818	384.76
620.163	397.53
620.507	392.42
620.852	351.57
621.196	377.1
621.54	433.28
621.885	382.21
622.229	384.76
622.573	359.23
622.918	387.32
623.262	466.47
623.606	394.98
623.95	387.32
624.294	420.51
624.638	438.38
624.982	361.78
625.326	397.53
625.67	417.96
626.013	435.83
626.357	428.17
626.701	420.51
627.044	407.74
627.388	458.81
627.731	397.53
628.075	372
628.418	379.66
628.762	417.96
629.105	377.1
629.448	417.96
629.792	394.98
630.135	415.4
630.478	372
630.821	417.96
631.164	402.64
631.507	407.74
631.85	443.49
632.193	435.83
632.536	351.57
632.879	451.15
633.221	397.53
633.564	389.87
633.907	438.38
634.249	440.94
634.592	466.47
634.935	407.74
635.277	379.66
635.619	423.06
635.962	349.01
636.304	387.32
636.646	382.21
636.989	338.8
637.331	425.62
637.673	405.19
638.015	443.49
638.357	394.98
638.699	451.15
639.041	402.64
639.383	372
639.725	328.59
640.067	453.7
640.408	405.19
640.75	394.98
641.092	425.62
641.433	420.51
641.775	420.51
642.116	433.28
642.458	458.81
642.799	377.1
643.141	400.08
643.482	400.08
643.823	410.3
644.164	407.74
644.506	407.74
644.847	405.19
645.188	338.8
645.529	364.34
645.87	387.32
646.211	433.28
646.552	397.53
646.893	400.08
647.233	397.53
647.574	397.53
647.915	420.51
648.255	412.85
648.596	389.87
648.937	474.13
649.277	372
649.618	349.01
649.958	471.58
650.298	400.08
650.639	394.98
650.979	430.72
651.319	389.87
651.659	287.73
651.999	379.66
652.339	433.28
652.679	389.87
653.019	394.98
653.359	333.69
653.699	364.34
654.039	384.76
654.379	379.66
654.719	331.14
655.058	366.89
655.398	417.96
655.737	484.34
656.077	440.94
656.416	303.05
656.756	397.53
657.095	448.6
657.435	435.83
657.774	343.91
658.113	412.85
658.452	407.74
658.792	387.32
659.131	402.64
659.47	407.74
659.809	405.19
660.148	438.38
660.487	382.21
660.826	400.08
661.164	433.28
661.503	346.46
661.842	402.64
662.181	359.23
662.519	425.62
662.858	389.87
663.196	346.46
663.535	420.51
663.873	384.76
664.212	402.64
664.55	420.51
664.888	377.1
665.226	415.4
665.565	341.35
665.903	558.39
666.241	415.4
666.579	407.74
666.917	377.1
667.255	333.69
667.593	392.42
667.931	453.7
668.268	392.42
668.606	433.28
668.944	453.7
669.282	333.69
669.619	415.4
669.957	415.4
670.294	394.98
670.632	451.15
670.969	392.42
671.307	433.28
671.644	392.42
671.981	438.38
672.318	425.62
672.656	400.08
672.993	425.62
673.33	415.4
673.667	407.74
674.004	351.57
674.341	435.83
674.678	387.32
675.015	412.85
675.351	361.78
675.688	379.66
676.025	356.67
676.362	407.74
676.698	349.01
677.035	389.87
677.371	410.3
677.708	387.32
678.044	412.85
678.38	410.3
678.717	369.44
679.053	364.34
679.389	443.49
679.725	430.72
680.062	435.83
680.398	405.19
680.734	479.24
681.07	410.3
681.406	328.59
681.742	377.1
682.077	417.96
682.413	356.67
682.749	400.08
683.085	410.3
683.42	423.06
683.756	361.78
684.091	336.25
684.427	389.87
684.762	400.08
685.098	410.3
685.433	364.34
685.768	458.81
686.104	400.08
686.439	379.66
686.774	333.69
687.109	438.38
687.444	407.74
687.779	389.87
688.114	349.01
688.449	372
688.784	402.64
689.119	407.74
689.454	420.51
689.789	492
690.123	379.66
690.458	430.72
690.792	382.21
691.127	435.83
691.461	379.66
691.796	384.76
692.13	425.62
692.465	420.51
692.799	423.06
693.133	420.51
693.467	387.32
693.802	423.06
694.136	364.34
694.47	318.37
694.804	349.01
695.138	382.21
695.472	389.87
695.806	433.28
696.139	394.98
696.473	461.36
696.807	364.34
697.141	364.34
697.474	359.23
697.808	407.74
698.141	435.83
698.475	341.35
698.808	448.6
699.142	461.36
699.475	387.32
699.808	428.17
700.142	369.44
700.475	463.92
700.808	389.87
701.141	407.74
701.474	412.85
701.807	410.3
702.14	405.19
702.473	379.66
702.806	407.74
703.139	405.19
703.472	451.15
703.804	428.17
704.137	359.23
704.47	417.96
704.802	366.89
705.135	394.98
705.467	346.46
705.8	354.12
706.132	397.53
706.464	443.49
706.797	392.42
707.129	397.53
707.461	407.74
707.793	433.28
708.125	400.08
708.457	389.87
708.789	407.74
709.121	438.38
709.453	405.19
709.785	425.62
710.117	379.66
710.449	397.53
710.781	336.25
711.112	356.67
711.444	392.42
711.775	359.23
712.107	397.53
712.438	361.78
712.77	377.1
713.101	384.76
713.433	435.83
713.764	443.49
714.095	400.08
714.426	438.38
714.757	423.06
715.089	336.25
715.42	389.87
715.751	400.08
716.082	382.21
716.412	328.59
716.743	402.64
717.074	405.19
717.405	338.8
717.736	384.76
718.066	394.98
718.397	420.51
718.727	402.64
719.058	420.51
719.388	489.45
719.719	397.53
720.049	461.36
720.38	384.76
720.71	369.44
721.04	392.42
721.37	392.42
721.7	415.4
722.031	428.17
722.361	420.51
722.691	420.51
723.021	354.12
723.35	412.85
723.68	397.53
724.01	405.19
724.34	379.66
724.67	428.17
724.999	410.3
725.329	458.81
725.658	377.1
725.988	338.8
726.317	423.06
726.647	420.51
726.976	392.42
727.306	387.32
727.635	364.34
727.964	430.72
728.293	425.62
728.622	410.3
728.952	372
729.281	423.06
729.61	435.83
729.939	392.42
730.267	394.98
730.596	323.48
730.925	389.87
731.254	407.74
731.583	384.76
731.911	448.6
732.24	463.92
732.568	420.51
732.897	428.17
733.225	336.25
733.554	412.85
733.882	440.94
734.21	435.83
734.539	382.21
734.867	392.42
735.195	343.91
735.523	446.04
735.851	382.21
736.179	313.27
736.507	410.3
736.835	423.06
737.163	377.1
737.491	410.3
737.819	377.1
738.147	394.98
738.474	394.98
738.802	387.32
739.13	440.94
739.457	412.85
739.785	443.49
740.112	407.74
740.44	443.49
740.767	384.76
741.094	369.44
741.422	343.91
741.749	479.24
742.076	507.32
742.403	489.45
742.73	430.72
743.057	448.6
743.384	417.96
743.711	382.21
744.038	438.38
744.365	476.68
744.692	417.96
745.018	382.21
745.345	343.91
745.672	443.49
745.998	397.53
746.325	361.78
746.651	369.44
746.978	412.85
747.304	369.44
747.631	387.32
747.957	379.66
748.283	420.51
748.61	379.66
748.936	343.91
749.262	382.21
749.588	384.76
749.914	451.15
750.24	405.19
750.566	387.32
750.892	425.62
751.218	407.74
751.543	466.47
751.869	372
752.195	331.14
752.521	377.1
752.846	382.21
753.172	361.78
753.497	379.66
753.823	425.62
754.148	372
754.473	374.55
754.799	440.94
755.124	384.76
755.449	356.67
755.774	440.94
756.1	402.64
756.425	384.76
756.75	351.57
757.075	392.42
757.4	543.07
757.724	405.19
758.049	382.21
758.374	394.98
758.699	394.98
759.024	420.51
759.348	423.06
759.673	343.91
759.997	407.74
760.322	356.67
760.646	359.23
760.971	379.66
761.295	417.96
761.619	412.85
761.944	382.21
762.268	369.44
762.592	425.62
762.916	448.6
763.24	440.94
763.564	405.19
763.888	425.62
764.212	407.74
764.536	433.28
764.86	461.36
765.184	509.88
765.508	545.62
765.831	499.66
766.155	701.38
766.478	563.5
766.802	438.38
767.126	522.64
767.449	514.98
767.772	566.05
768.096	583.93
768.419	560.95
768.742	578.82
769.066	609.46
769.389	737.13
769.712	767.77
770.035	668.19
770.358	744.79
770.681	724.36
771.004	721.81
771.327	737.13
771.65	737.13
771.972	729.47
772.295	765.22
772.618	765.22
772.941	788.2
773.263	752.45
773.586	864.8
773.908	959.27
774.231	1046.09
774.553	997.57
774.875	1097.15
775.198	1112.47
775.52	1086.94
775.842	1125.24
776.164	1076.73
776.487	1043.53
776.809	1168.65
777.131	1196.74
777.453	1084.39
777.775	1104.81
778.096	1237.59
778.418	1206.95
778.74	1288.66
779.062	1227.38
779.384	1278.44
779.705	1431.65
780.027	1538.89
780.348	1498.03
780.67	1416.33
780.991	1554.21
781.313	1646.13
781.634	1745.71
781.955	1577.19
782.277	1658.9
782.598	1738.05
782.919	1732.95
783.24	1669.11
783.561	1712.52
783.882	1712.52
784.203	1763.59
784.524	1725.29
784.845	1732.95
785.166	1796.78
785.487	1796.78
785.807	1888.7
786.128	1786.57
786.449	1806.99
786.769	1847.85
787.09	1965.3
787.41	2036.8
787.731	2271.71
788.051	2363.63
788.372	2353.42
788.692	2376.4
789.012	2539.81
789.332	2386.61
789.653	2524.49
789.973	2616.41
790.293	2573.01
790.613	2363.63
790.933	2297.24
791.253	2463.21
791.573	2447.89
791.893	2287.03
792.212	2192.55
792.532	2246.17
792.852	2223.19
793.171	2164.47
793.491	2123.61
793.811	2031.69
794.13	2036.8
794.45	1883.6
794.769	1842.74
795.088	1796.78
795.408	1847.85
795.727	1881.04
796.046	1840.19
796.365	1983.18
796.684	1914.24
797.004	1852.95
797.323	2039.35
797.642	2366.18
797.96	2514.28
798.279	2585.77
798.598	2463.21
798.917	2450.44
799.236	2353.42
799.554	2100.63
799.873	2090.42
800.192	2090.42
800.51	2235.96
800.829	2121.06
801.147	2026.58
801.466	2047.01
801.784	2006.16
