Data from 2025-12-03_xpw_interference_micrometer_634_reference_FLMS141361__53__503.txt Node

Date: Wed Dec 03 15:52:24 MST 2025
User: james
Spectrometer: FLMS14136
Trigger mode: 0
Integration Time (sec): 1.000000E-1
Scans to average: 1
Electric dark correction enabled: true
Nonlinearity correction enabled: false
Boxcar width: 0
XAxis mode: Wavelengths
Number of Pixels in Spectrum: 2048
>>>>>Begin Spectral Data<<<<<
339.315	14.68
339.697	14.68
340.079	14.68
340.461	-143.63
340.843	-95.11
341.225	-77.24
341.607	-123.2
341.989	-77.24
342.371	-120.65
342.752	-74.69
343.134	-72.13
343.516	-90.01
343.897	14.68
344.279	-15.96
344.661	27.45
345.042	155.12
345.423	50.43
345.805	45.32
346.186	50.43
346.567	160.22
346.949	147.46
347.33	175.54
347.711	213.85
348.092	257.25
348.473	221.51
348.854	285.34
349.235	234.27
349.616	308.32
349.997	310.87
350.378	303.21
350.758	308.32
351.139	328.75
351.52	315.98
351.9	402.8
352.281	446.2
352.661	438.54
353.042	387.48
353.422	390.03
353.803	407.9
354.183	395.14
354.563	405.35
354.943	349.17
355.324	402.8
355.704	384.92
356.084	359.39
356.464	451.31
356.844	407.9
357.224	372.15
357.603	364.49
357.983	367.05
358.363	407.9
358.743	369.6
359.122	341.51
359.502	328.75
359.882	369.6
360.261	379.81
360.641	356.83
361.02	361.94
361.399	356.83
361.779	387.48
362.158	310.87
362.537	400.24
362.916	367.05
363.296	344.07
363.675	395.14
364.054	351.73
364.433	361.94
364.812	359.39
365.19	369.6
365.569	359.39
365.948	356.83
366.327	300.66
366.705	315.98
367.084	305.77
367.463	234.27
367.841	384.92
368.22	382.37
368.598	359.39
368.977	374.71
369.355	338.96
369.733	344.07
370.111	351.73
370.49	331.3
370.868	364.49
371.246	372.15
371.624	344.07
372.002	367.05
372.38	377.26
372.758	364.49
373.136	367.05
373.513	430.88
373.891	349.17
374.269	395.14
374.646	410.46
375.024	323.64
375.402	392.58
375.779	407.9
376.157	338.96
376.534	336.41
376.911	293
377.289	372.15
377.666	328.75
378.043	387.48
378.42	374.71
378.797	349.17
379.175	331.3
379.552	331.3
379.929	384.92
380.305	369.6
380.682	367.05
381.059	331.3
381.436	361.94
381.813	384.92
382.189	428.33
382.566	349.17
382.943	372.15
383.319	356.83
383.696	364.49
384.072	395.14
384.448	387.48
384.825	305.77
385.201	349.17
385.577	441.1
385.953	395.14
386.329	400.24
386.706	425.78
387.082	402.8
387.458	367.05
387.834	405.35
388.209	356.83
388.585	430.88
388.961	346.62
389.337	344.07
389.713	461.52
390.088	338.96
390.464	356.83
390.839	379.81
391.215	354.28
391.59	361.94
391.966	336.41
392.341	415.56
392.716	361.94
393.092	349.17
393.467	326.19
393.842	415.56
394.217	359.39
394.592	361.94
394.967	254.7
395.342	313.43
395.717	384.92
396.092	392.58
396.467	407.9
396.841	374.71
397.216	410.46
397.591	369.6
397.965	392.58
398.34	374.71
398.714	390.03
399.089	361.94
399.463	346.62
399.838	407.9
400.212	344.07
400.586	433.44
400.961	413.01
401.335	476.84
401.709	400.24
402.083	354.28
402.457	392.58
402.831	407.9
403.205	390.03
403.579	326.19
403.953	374.71
404.326	346.62
404.7	359.39
405.074	341.51
405.447	359.39
405.821	415.56
406.195	374.71
406.568	315.98
406.942	382.37
407.315	433.44
407.688	410.46
408.062	405.35
408.435	354.28
408.808	418.12
409.181	407.9
409.554	382.37
409.927	369.6
410.3	374.71
410.673	354.28
411.046	354.28
411.419	397.69
411.792	428.33
412.165	400.24
412.537	435.99
412.91	425.78
413.283	374.71
413.655	405.35
414.028	387.48
414.4	364.49
414.773	313.43
415.145	364.49
415.517	466.63
415.889	354.28
416.262	405.35
416.634	405.35
417.006	405.35
417.378	359.39
417.75	395.14
418.122	395.14
418.494	441.1
418.866	333.85
419.238	387.48
419.609	318.53
419.981	338.96
420.353	377.26
420.725	441.1
421.096	471.74
421.468	356.83
421.839	392.58
422.211	420.67
422.582	402.8
422.953	413.01
423.325	400.24
423.696	331.3
424.067	433.44
424.438	351.73
424.809	372.15
425.18	392.58
425.551	418.12
425.922	341.51
426.293	464.08
426.664	382.37
427.035	413.01
427.406	338.96
427.776	361.94
428.147	438.54
428.518	453.86
428.888	402.8
429.259	382.37
429.629	443.65
429.999	441.1
430.37	453.86
430.74	418.12
431.11	423.22
431.481	433.44
431.851	453.86
432.221	402.8
432.591	451.31
432.961	372.15
433.331	341.51
433.701	367.05
434.071	392.58
434.441	372.15
434.81	428.33
435.18	392.58
435.55	390.03
435.919	382.37
436.289	387.48
436.658	420.67
437.028	413.01
437.397	438.54
437.767	413.01
438.136	400.24
438.505	402.8
438.875	356.83
439.244	390.03
439.613	372.15
439.982	377.26
440.351	423.22
440.72	410.46
441.089	361.94
441.458	413.01
441.827	405.35
442.196	361.94
442.564	494.72
442.933	474.29
443.302	351.73
443.67	400.24
444.039	469.18
444.407	397.69
444.776	351.73
445.144	433.44
445.513	351.73
445.881	430.88
446.249	400.24
446.617	377.26
446.986	387.48
447.354	443.65
447.722	351.73
448.09	413.01
448.458	390.03
448.826	441.1
449.194	397.69
449.561	443.65
449.929	377.26
450.297	321.09
450.665	402.8
451.032	456.42
451.4	382.37
451.767	420.67
452.135	438.54
452.502	428.33
452.87	420.67
453.237	448.76
453.604	407.9
453.971	451.31
454.339	451.31
454.706	397.69
455.073	384.92
455.44	430.88
455.807	418.12
456.174	438.54
456.541	338.96
456.908	359.39
457.274	407.9
457.641	430.88
458.008	456.42
458.374	489.61
458.741	392.58
459.108	369.6
459.474	321.09
459.841	441.1
460.207	430.88
460.573	377.26
460.94	372.15
461.306	321.09
461.672	453.86
462.038	413.01
462.404	333.85
462.771	423.22
463.137	397.69
463.503	413.01
463.868	433.44
464.234	390.03
464.6	372.15
464.966	395.14
465.332	361.94
465.697	361.94
466.063	356.83
466.429	402.8
466.794	379.81
467.16	407.9
467.525	469.18
467.89	390.03
468.256	494.72
468.621	458.97
468.986	379.81
469.351	410.46
469.717	397.69
470.082	402.8
470.447	425.78
470.812	372.15
471.177	346.62
471.542	435.99
471.906	361.94
472.271	507.48
472.636	423.22
473.001	435.99
473.365	400.24
473.73	464.08
474.094	400.24
474.459	453.86
474.823	420.67
475.188	464.08
475.552	356.83
475.917	413.01
476.281	387.48
476.645	382.37
477.009	372.15
477.373	328.75
477.737	402.8
478.101	338.96
478.465	510.04
478.829	428.33
479.193	356.83
479.557	433.44
479.921	402.8
480.284	390.03
480.648	425.78
481.012	497.27
481.375	458.97
481.739	433.44
482.102	377.26
482.466	441.1
482.829	410.46
483.193	359.39
483.556	458.97
483.919	492.16
484.282	438.54
484.645	397.69
485.009	423.22
485.372	415.56
485.735	433.44
486.098	420.67
486.46	384.92
486.823	336.41
487.186	364.49
487.549	418.12
487.912	448.76
488.274	466.63
488.637	405.35
488.999	425.78
489.362	384.92
489.724	435.99
490.087	410.46
490.449	395.14
490.811	400.24
491.174	395.14
491.536	456.42
491.898	372.15
492.26	374.71
492.622	413.01
492.984	400.24
493.346	359.39
493.708	346.62
494.07	410.46
494.432	443.65
494.794	469.18
495.155	438.54
495.517	420.67
495.879	402.8
496.24	413.01
496.602	430.88
496.963	441.1
497.325	433.44
497.686	372.15
498.048	407.9
498.409	443.65
498.77	367.05
499.131	397.69
499.492	474.29
499.854	369.6
500.215	433.44
500.576	415.56
500.937	461.52
501.298	448.76
501.658	367.05
502.019	423.22
502.38	461.52
502.741	484.5
503.101	405.35
503.462	430.88
503.823	438.54
504.183	397.69
504.543	413.01
504.904	359.39
505.264	392.58
505.625	338.96
505.985	415.56
506.345	423.22
506.705	397.69
507.065	310.87
507.426	413.01
507.786	364.49
508.146	407.9
508.505	456.42
508.865	402.8
509.225	407.9
509.585	410.46
509.945	441.1
510.304	435.99
510.664	428.33
511.024	405.35
511.383	464.08
511.743	377.26
512.102	410.46
512.462	430.88
512.821	344.07
513.18	367.05
513.539	400.24
513.899	489.61
514.258	392.58
514.617	415.56
514.976	395.14
515.335	351.73
515.694	390.03
516.053	438.54
516.412	446.2
516.771	405.35
517.129	433.44
517.488	489.61
517.847	471.74
518.205	441.1
518.564	466.63
518.922	407.9
519.281	384.92
519.639	402.8
519.998	387.48
520.356	410.46
520.714	430.88
521.073	374.71
521.431	392.58
521.789	359.39
522.147	387.48
522.505	469.18
522.863	430.88
523.221	382.37
523.579	458.97
523.937	410.46
524.295	405.35
524.652	438.54
525.01	407.9
525.368	359.39
525.725	438.54
526.083	420.67
526.44	451.31
526.798	425.78
527.155	397.69
527.513	415.56
527.87	402.8
528.227	438.54
528.584	461.52
528.942	390.03
529.299	410.46
529.656	484.5
530.013	430.88
530.37	438.54
530.727	402.8
531.083	367.05
531.44	423.22
531.797	413.01
532.154	415.56
532.511	392.58
532.867	435.99
533.224	418.12
533.58	464.08
533.937	435.99
534.293	402.8
534.65	461.52
535.006	446.2
535.362	438.54
535.718	395.14
536.075	443.65
536.431	397.69
536.787	410.46
537.143	446.2
537.499	328.75
537.855	392.58
538.211	425.78
538.567	423.22
538.923	395.14
539.278	377.26
539.634	443.65
539.99	461.52
540.345	392.58
540.701	435.99
541.056	349.17
541.412	433.44
541.767	464.08
542.123	438.54
542.478	390.03
542.833	351.73
543.188	387.48
543.544	377.26
543.899	384.92
544.254	423.22
544.609	418.12
544.964	364.49
545.319	425.78
545.674	420.67
546.029	402.8
546.383	420.67
546.738	374.71
547.093	379.81
547.447	372.15
547.802	387.48
548.157	418.12
548.511	395.14
548.866	361.94
549.22	392.58
549.574	415.56
549.929	476.84
550.283	461.52
550.637	382.37
550.991	392.58
551.345	374.71
551.699	364.49
552.053	387.48
552.407	464.08
552.761	402.8
553.115	384.92
553.469	405.35
553.823	384.92
554.176	326.19
554.53	438.54
554.884	410.46
555.237	665.79
555.591	441.1
555.944	425.78
556.298	405.35
556.651	469.18
557.005	418.12
557.358	433.44
557.711	395.14
558.064	369.6
558.417	425.78
558.771	527.91
559.124	458.97
559.477	466.63
559.83	438.54
560.182	395.14
560.535	435.99
560.888	410.46
561.241	415.56
561.594	384.92
561.946	390.03
562.299	369.6
562.651	418.12
563.004	435.99
563.356	405.35
563.709	397.69
564.061	407.9
564.413	374.71
564.766	400.24
565.118	374.71
565.47	410.46
565.822	354.28
566.174	435.99
566.526	453.86
566.878	354.28
567.23	341.51
567.582	420.67
567.934	461.52
568.286	382.37
568.638	466.63
568.989	382.37
569.341	453.86
569.693	402.8
570.044	469.18
570.396	430.88
570.747	397.69
571.098	448.76
571.45	423.22
571.801	441.1
572.152	423.22
572.504	446.2
572.855	430.88
573.206	377.26
573.557	336.41
573.908	382.37
574.259	369.6
574.61	423.22
574.961	364.49
575.311	430.88
575.662	428.33
576.013	361.94
576.364	407.9
576.714	430.88
577.065	423.22
577.415	374.71
577.766	377.26
578.116	390.03
578.467	499.82
578.817	474.29
579.167	430.88
579.518	425.78
579.868	418.12
580.218	405.35
580.568	402.8
580.918	387.48
581.268	349.17
581.618	400.24
581.968	415.56
582.318	428.33
582.668	456.42
583.017	402.8
583.367	458.97
583.717	405.35
584.066	405.35
584.416	374.71
584.765	331.3
585.115	461.52
585.464	395.14
585.814	471.74
586.163	410.46
586.512	510.04
586.862	402.8
587.211	359.39
587.56	387.48
587.909	346.62
588.258	374.71
588.607	351.73
588.956	356.83
589.305	410.46
589.654	420.67
590.002	476.84
590.351	407.9
590.7	374.71
591.048	361.94
591.397	392.58
591.746	395.14
592.094	430.88
592.443	364.49
592.791	387.48
593.139	382.37
593.488	400.24
593.836	443.65
594.184	369.6
594.532	359.39
594.88	423.22
595.228	413.01
595.576	418.12
595.924	397.69
596.272	387.48
596.62	372.15
596.968	397.69
597.316	379.81
597.664	400.24
598.011	435.99
598.359	367.05
598.706	487.06
599.054	397.69
599.402	392.58
599.749	338.96
600.096	415.56
600.444	430.88
600.791	349.17
601.138	407.9
601.485	407.9
601.833	492.16
602.18	392.58
602.527	372.15
602.874	451.31
603.221	446.2
603.568	438.54
603.914	387.48
604.261	428.33
604.608	382.37
604.955	364.49
605.301	379.81
605.648	400.24
605.995	333.85
606.341	428.33
606.688	400.24
607.034	387.48
607.38	407.9
607.727	369.6
608.073	400.24
608.419	392.58
608.765	379.81
609.112	415.56
609.458	433.44
609.804	367.05
610.15	387.48
610.496	443.65
610.842	395.14
611.187	356.83
611.533	364.49
611.879	441.1
612.225	377.26
612.57	410.46
612.916	446.2
613.261	369.6
613.607	443.65
613.952	384.92
614.298	413.01
614.643	410.46
614.989	402.8
615.334	382.37
615.679	425.78
616.024	346.62
616.369	423.22
616.714	418.12
617.059	423.22
617.404	425.78
617.749	400.24
618.094	392.58
618.439	390.03
618.784	453.86
619.129	476.84
619.473	387.48
619.818	382.37
620.163	367.05
620.507	387.48
620.852	374.71
621.196	410.46
621.54	392.58
621.885	410.46
622.229	328.75
622.573	364.49
622.918	361.94
623.262	377.26
623.606	356.83
623.95	321.09
624.294	390.03
624.638	438.54
624.982	364.49
625.326	446.2
625.67	382.37
626.013	418.12
626.357	349.17
626.701	395.14
627.044	384.92
627.388	382.37
627.731	420.67
628.075	392.58
628.418	384.92
628.762	405.35
629.105	346.62
629.448	387.48
629.792	423.22
630.135	384.92
630.478	369.6
630.821	364.49
631.164	400.24
631.507	402.8
631.85	415.56
632.193	382.37
632.536	415.56
632.879	407.9
633.221	356.83
633.564	410.46
633.907	356.83
634.249	476.84
634.592	410.46
634.935	441.1
635.277	356.83
635.619	374.71
635.962	395.14
636.304	397.69
636.646	387.48
636.989	379.81
637.331	384.92
637.673	441.1
638.015	395.14
638.357	384.92
638.699	407.9
639.041	369.6
639.383	443.65
639.725	400.24
640.067	456.42
640.408	390.03
640.75	367.05
641.092	387.48
641.433	351.73
641.775	451.31
642.116	392.58
642.458	456.42
642.799	379.81
643.141	458.97
643.482	397.69
643.823	382.37
644.164	379.81
644.506	479.4
644.847	461.52
645.188	425.78
645.529	489.61
645.87	423.22
646.211	384.92
646.552	387.48
646.893	415.56
647.233	395.14
647.574	356.83
647.915	410.46
648.255	384.92
648.596	410.46
648.937	451.31
649.277	395.14
649.618	387.48
649.958	415.56
650.298	433.44
650.639	469.18
650.979	390.03
651.319	451.31
651.659	425.78
651.999	382.37
652.339	410.46
652.679	458.97
653.019	382.37
653.359	390.03
653.699	433.44
654.039	464.08
654.379	435.99
654.719	361.94
655.058	382.37
655.398	387.48
655.737	453.86
656.077	374.71
656.416	402.8
656.756	392.58
657.095	435.99
657.435	418.12
657.774	456.42
658.113	392.58
658.452	458.97
658.792	410.46
659.131	410.46
659.47	420.67
659.809	382.37
660.148	420.67
660.487	402.8
660.826	453.86
661.164	377.26
661.503	474.29
661.842	397.69
662.181	392.58
662.519	433.44
662.858	441.1
663.196	443.65
663.535	405.35
663.873	438.54
664.212	372.15
664.55	402.8
664.888	448.76
665.226	435.99
665.565	446.2
665.903	566.21
666.241	407.9
666.579	379.81
666.917	344.07
667.255	410.46
667.593	484.5
667.931	471.74
668.268	361.94
668.606	354.28
668.944	402.8
669.282	397.69
669.619	387.48
669.957	351.73
670.294	354.28
670.632	413.01
670.969	395.14
671.307	384.92
671.644	372.15
671.981	405.35
672.318	392.58
672.656	395.14
672.993	446.2
673.33	469.18
673.667	441.1
674.004	428.33
674.341	354.28
674.678	354.28
675.015	379.81
675.351	499.82
675.688	461.52
676.025	374.71
676.362	390.03
676.698	418.12
677.035	430.88
677.371	433.44
677.708	400.24
678.044	346.62
678.38	395.14
678.717	382.37
679.053	382.37
679.389	392.58
679.725	333.85
680.062	425.78
680.398	423.22
680.734	458.97
681.07	387.48
681.406	359.39
681.742	400.24
682.077	315.98
682.413	303.21
682.749	451.31
683.085	407.9
683.42	428.33
683.756	435.99
684.091	415.56
684.427	367.05
684.762	328.75
685.098	364.49
685.433	405.35
685.768	405.35
686.104	379.81
686.439	407.9
686.774	456.42
687.109	415.56
687.444	374.71
687.779	392.58
688.114	430.88
688.449	349.17
688.784	441.1
689.119	405.35
689.454	361.94
689.789	418.12
690.123	402.8
690.458	433.44
690.792	390.03
691.127	356.83
691.461	410.46
691.796	433.44
692.13	387.48
692.465	423.22
692.799	451.31
693.133	407.9
693.467	367.05
693.802	522.8
694.136	423.22
694.47	387.48
694.804	471.74
695.138	446.2
695.472	397.69
695.806	387.48
696.139	277.68
696.473	397.69
696.807	441.1
697.141	364.49
697.474	466.63
697.808	351.73
698.141	354.28
698.475	418.12
698.808	400.24
699.142	420.67
699.475	464.08
699.808	410.46
700.142	390.03
700.475	402.8
700.808	387.48
701.141	321.09
701.474	387.48
701.807	413.01
702.14	423.22
702.473	384.92
702.806	382.37
703.139	364.49
703.472	397.69
703.804	402.8
704.137	415.56
704.47	438.54
704.802	379.81
705.135	400.24
705.467	402.8
705.8	430.88
706.132	420.67
706.464	356.83
706.797	407.9
707.129	433.44
707.461	453.86
707.793	402.8
708.125	415.56
708.457	369.6
708.789	418.12
709.121	346.62
709.453	321.09
709.785	390.03
710.117	392.58
710.449	395.14
710.781	369.6
711.112	423.22
711.444	433.44
711.775	423.22
712.107	441.1
712.438	407.9
712.77	458.97
713.101	341.51
713.433	413.01
713.764	418.12
714.095	405.35
714.426	420.67
714.757	448.76
715.089	428.33
715.42	435.99
715.751	410.46
716.082	356.83
716.412	379.81
716.743	390.03
717.074	344.07
717.405	428.33
717.736	425.78
718.066	331.3
718.397	413.01
718.727	384.92
719.058	410.46
719.388	451.31
719.719	428.33
720.049	499.82
720.38	390.03
720.71	499.82
721.04	361.94
721.37	384.92
721.7	420.67
722.031	280.23
722.361	400.24
722.691	428.33
723.021	374.71
723.35	464.08
723.68	428.33
724.01	402.8
724.34	308.32
724.67	415.56
724.999	448.76
725.329	374.71
725.658	418.12
725.988	392.58
726.317	400.24
726.647	471.74
726.976	400.24
727.306	333.85
727.635	392.58
727.964	361.94
728.293	448.76
728.622	387.48
728.952	354.28
729.281	443.65
729.61	428.33
729.939	344.07
730.267	405.35
730.596	492.16
730.925	443.65
731.254	395.14
731.583	359.39
731.911	359.39
732.24	377.26
732.568	315.98
732.897	400.24
733.225	326.19
733.554	387.48
733.882	405.35
734.21	420.67
734.539	407.9
734.867	328.75
735.195	420.67
735.523	349.17
735.851	448.76
736.179	395.14
736.507	407.9
736.835	372.15
737.163	413.01
737.491	344.07
737.819	395.14
738.147	405.35
738.474	351.73
738.802	382.37
739.13	400.24
739.457	338.96
739.785	323.64
740.112	331.3
740.44	372.15
740.767	423.22
741.094	418.12
741.422	384.92
741.749	351.73
742.076	407.9
742.403	433.44
742.73	344.07
743.057	395.14
743.384	387.48
743.711	344.07
744.038	346.62
744.365	435.99
744.692	338.96
745.018	374.71
745.345	354.28
745.672	405.35
745.998	395.14
746.325	428.33
746.651	410.46
746.978	425.78
747.304	400.24
747.631	369.6
747.957	374.71
748.283	418.12
748.61	446.2
748.936	351.73
749.262	361.94
749.588	425.78
749.914	456.42
750.24	390.03
750.566	356.83
750.892	382.37
751.218	420.67
751.543	328.75
751.869	407.9
752.195	430.88
752.521	413.01
752.846	367.05
753.172	413.01
753.497	430.88
753.823	377.26
754.148	443.65
754.473	395.14
754.799	392.58
755.124	423.22
755.449	384.92
755.774	428.33
756.1	344.07
756.425	418.12
756.75	372.15
757.075	395.14
757.4	543.23
757.724	369.6
758.049	364.49
758.374	433.44
758.699	333.85
759.024	428.33
759.348	464.08
759.673	430.88
759.997	361.94
760.322	369.6
760.646	502.38
760.971	382.37
761.295	402.8
761.619	428.33
761.944	407.9
762.268	423.22
762.592	423.22
762.916	418.12
763.24	384.92
763.564	420.67
763.888	377.26
764.212	474.29
764.536	487.06
764.86	451.31
765.184	423.22
765.508	512.59
765.831	510.04
766.155	767.93
766.478	494.72
766.802	591.75
767.126	540.68
767.449	573.87
767.772	545.78
768.096	566.21
768.419	584.09
768.742	578.98
769.066	581.53
769.389	688.77
769.712	704.09
770.035	709.2
770.358	742.39
770.681	798.57
771.004	750.05
771.327	721.97
771.65	755.16
771.972	916.02
772.295	882.83
772.618	877.72
772.941	895.6
773.263	921.13
773.586	972.2
773.908	1005.39
774.231	1099.87
774.553	1115.19
774.875	1235.2
775.198	1184.13
775.52	1179.02
775.842	1161.15
776.164	1163.7
776.487	1217.32
776.809	1156.04
777.131	1276.05
777.453	1202
777.775	1242.86
778.096	1301.58
778.418	1362.87
778.74	1293.92
779.062	1293.92
779.384	1365.42
779.705	1546.71
780.027	1648.84
780.348	1666.72
780.67	1579.9
780.991	1733.11
781.313	1817.37
781.634	1945.04
781.955	1909.29
782.277	1860.77
782.598	1870.99
782.919	1870.99
783.24	1965.46
783.561	1911.84
783.882	1950.14
784.203	1842.9
784.524	1909.29
784.845	1980.78
785.166	1807.15
785.487	1947.59
785.807	2026.74
786.128	1784.17
786.449	1968.02
786.769	1998.66
787.09	2070.15
787.41	2195.27
787.731	2478.69
788.051	2703.39
788.372	2621.68
788.692	2682.96
789.012	2647.21
789.332	2550.19
789.653	2779.99
789.973	2866.81
790.293	2892.34
790.613	2670.2
790.933	2580.83
791.253	2629.34
791.573	2560.4
791.893	2414.86
792.212	2532.31
792.532	2432.73
792.852	2501.67
793.171	2381.66
793.491	2241.23
793.811	2356.13
794.13	2149.31
794.45	2085.47
794.769	2016.53
795.088	2067.6
795.408	2054.83
795.727	2067.6
796.046	2052.28
796.365	2200.37
796.684	2113.56
797.004	2021.64
797.323	2266.76
797.642	2555.29
797.96	2802.97
798.279	2769.78
798.598	2693.18
798.917	2631.89
799.236	2481.25
799.554	2225.91
799.873	2185.05
800.192	2294.85
800.51	2381.66
800.829	2412.3
