Data from 2025-12-03_xpw_interference_micrometer_634_reference_FLMS141361__20__470.txt Node

Date: Wed Dec 03 15:52:21 MST 2025
User: james
Spectrometer: FLMS14136
Trigger mode: 0
Integration Time (sec): 1.000000E-1
Scans to average: 1
Electric dark correction enabled: true
Nonlinearity correction enabled: false
Boxcar width: 0
XAxis mode: Wavelengths
Number of Pixels in Spectrum: 2048
>>>>>Begin Spectral Data<<<<<
339.315	-25.06
339.697	-25.06
340.079	-25.06
340.461	-168.04
340.843	-99.1
341.225	-104.21
341.607	-96.55
341.989	-147.62
342.371	-124.64
342.752	-55.7
343.134	-63.36
343.516	-48.04
343.897	-27.61
344.279	79.63
344.661	84.74
345.042	13.25
345.423	56.65
345.805	92.4
346.186	105.17
346.567	97.51
346.949	138.36
347.33	207.3
347.711	209.86
348.092	220.07
348.473	258.37
348.854	232.84
349.235	209.86
349.616	299.22
349.997	314.54
350.378	337.52
350.758	355.4
351.139	294.12
351.52	383.49
351.9	329.86
352.281	317.1
352.661	334.97
353.042	375.83
353.422	345.18
353.803	403.91
354.183	352.84
354.563	386.04
354.943	416.68
355.324	401.36
355.704	324.76
356.084	375.83
356.464	406.47
356.844	406.47
357.224	414.13
357.603	437.11
357.983	386.04
358.363	406.47
358.743	370.72
359.122	391.15
359.502	437.11
359.882	391.15
360.261	299.22
360.641	357.95
361.02	373.27
361.399	278.8
361.779	357.95
362.158	363.06
362.537	363.06
362.916	355.4
363.296	424.34
363.675	357.95
364.054	355.4
364.433	375.83
364.812	319.65
365.19	345.18
365.569	322.2
365.948	365.61
366.327	375.83
366.705	363.06
367.084	370.72
367.463	350.29
367.841	365.61
368.22	334.97
368.598	355.4
368.977	347.74
369.355	317.1
369.733	314.54
370.111	324.76
370.49	355.4
370.868	378.38
371.246	409.02
371.624	294.12
372.002	380.93
372.38	355.4
372.758	301.78
373.136	291.56
373.513	314.54
373.891	373.27
374.269	360.51
374.646	314.54
375.024	375.83
375.402	319.65
375.779	329.86
376.157	363.06
376.534	380.93
376.911	350.29
377.289	368.17
377.666	337.52
378.043	426.89
378.42	357.95
378.797	409.02
379.175	347.74
379.552	357.95
379.929	426.89
380.305	403.91
380.682	337.52
381.059	301.78
381.436	470.3
381.813	447.32
382.189	375.83
382.566	368.17
382.943	406.47
383.319	403.91
383.696	416.68
384.072	319.65
384.448	332.42
384.825	365.61
385.201	375.83
385.577	350.29
385.953	403.91
386.329	391.15
386.706	396.25
387.082	426.89
387.458	368.17
387.834	437.11
388.209	368.17
388.585	391.15
388.961	375.83
389.337	311.99
389.713	350.29
390.088	357.95
390.464	311.99
390.839	304.33
391.215	334.97
391.59	414.13
391.966	347.74
392.341	340.08
392.716	416.68
393.092	426.89
393.467	329.86
393.842	388.59
394.217	342.63
394.592	360.51
394.967	391.15
395.342	332.42
395.717	403.91
396.092	406.47
396.467	429.45
396.841	393.7
397.216	426.89
397.591	380.93
397.965	345.18
398.34	368.17
398.714	375.83
399.089	452.43
399.463	378.38
399.838	365.61
400.212	357.95
400.586	401.36
400.961	342.63
401.335	368.17
401.709	304.33
402.083	368.17
402.457	403.91
402.831	396.25
403.205	383.49
403.579	334.97
403.953	368.17
404.326	432
404.7	421.79
405.074	406.47
405.447	386.04
405.821	363.06
406.195	414.13
406.568	429.45
406.942	513.71
407.315	391.15
407.688	365.61
408.062	345.18
408.435	403.91
408.808	383.49
409.181	393.7
409.554	365.61
409.927	350.29
410.3	380.93
410.673	309.44
411.046	426.89
411.419	421.79
411.792	383.49
412.165	347.74
412.537	368.17
412.91	370.72
413.283	409.02
413.655	360.51
414.028	378.38
414.4	363.06
414.773	357.95
415.145	419.23
415.517	409.02
415.889	388.59
416.262	391.15
416.634	327.31
417.006	424.34
417.378	434.55
417.75	424.34
418.122	388.59
418.494	337.52
418.866	360.51
419.238	442.21
419.609	386.04
419.981	337.52
420.353	388.59
420.725	373.27
421.096	388.59
421.468	396.25
421.839	403.91
422.211	383.49
422.582	370.72
422.953	403.91
423.325	426.89
423.696	340.08
424.067	365.61
424.438	393.7
424.809	457.53
425.18	452.43
425.551	470.3
425.922	340.08
426.293	278.8
426.664	380.93
427.035	449.87
427.406	414.13
427.776	429.45
428.147	465.19
428.518	414.13
428.888	434.55
429.259	365.61
429.629	368.17
429.999	426.89
430.37	360.51
430.74	391.15
431.11	416.68
431.481	414.13
431.851	334.97
432.221	342.63
432.591	414.13
432.961	421.79
433.331	391.15
433.701	380.93
434.071	401.36
434.441	365.61
434.81	444.77
435.18	424.34
435.55	409.02
435.919	373.27
436.289	432
436.658	457.53
437.028	421.79
437.397	403.91
437.767	432
438.136	363.06
438.505	432
438.875	424.34
439.244	396.25
439.613	327.31
439.982	401.36
440.351	373.27
440.72	447.32
441.089	380.93
441.458	368.17
441.827	388.59
442.196	375.83
442.564	472.85
442.933	429.45
443.302	368.17
443.67	449.87
444.039	396.25
444.407	419.23
444.776	398.81
445.144	347.74
445.513	429.45
445.881	472.85
446.249	357.95
446.617	419.23
446.986	398.81
447.354	393.7
447.722	301.78
448.09	470.3
448.458	393.7
448.826	419.23
449.194	426.89
449.561	401.36
449.929	460.09
450.297	411.57
450.665	383.49
451.032	396.25
451.4	398.81
451.767	414.13
452.135	449.87
452.502	488.17
452.87	426.89
453.237	439.66
453.604	416.68
453.971	373.27
454.339	457.53
454.706	447.32
455.073	403.91
455.44	472.85
455.807	411.57
456.174	416.68
456.541	396.25
456.908	452.43
457.274	419.23
457.641	439.66
458.008	426.89
458.374	401.36
458.741	337.52
459.108	368.17
459.474	393.7
459.841	365.61
460.207	388.59
460.573	449.87
460.94	414.13
461.306	304.33
461.672	314.54
462.038	393.7
462.404	409.02
462.771	416.68
463.137	467.75
463.503	411.57
463.868	360.51
464.234	373.27
464.6	391.15
464.966	416.68
465.332	398.81
465.697	368.17
466.063	340.08
466.429	506.05
466.794	375.83
467.16	317.1
467.525	409.02
467.89	429.45
468.256	406.47
468.621	391.15
468.986	495.83
469.351	378.38
469.717	460.09
470.082	396.25
470.447	357.95
470.812	396.25
471.177	454.98
471.542	444.77
471.906	452.43
472.271	332.42
472.636	406.47
473.001	411.57
473.365	391.15
473.73	424.34
474.094	401.36
474.459	432
474.823	388.59
475.188	414.13
475.552	442.21
475.917	409.02
476.281	388.59
476.645	322.2
477.009	432
477.373	460.09
477.737	393.7
478.101	322.2
478.465	355.4
478.829	409.02
479.193	424.34
479.557	432
479.921	401.36
480.284	416.68
480.648	444.77
481.012	437.11
481.375	419.23
481.739	352.84
482.102	375.83
482.466	396.25
482.829	421.79
483.193	409.02
483.556	437.11
483.919	467.75
484.282	432
484.645	388.59
485.009	332.42
485.372	426.89
485.735	426.89
486.098	388.59
486.46	439.66
486.823	452.43
487.186	426.89
487.549	472.85
487.912	403.91
488.274	444.77
488.637	378.38
488.999	462.64
489.362	388.59
489.724	426.89
490.087	406.47
490.449	449.87
490.811	419.23
491.174	337.52
491.536	345.18
491.898	380.93
492.26	475.41
492.622	429.45
492.984	363.06
493.346	340.08
493.708	357.95
494.07	340.08
494.432	347.74
494.794	340.08
495.155	470.3
495.517	403.91
495.879	439.66
496.24	424.34
496.602	414.13
496.963	409.02
497.325	391.15
497.686	500.94
498.048	421.79
498.409	426.89
498.77	439.66
499.131	409.02
499.492	357.95
499.854	363.06
500.215	421.79
500.576	409.02
500.937	398.81
501.298	378.38
501.658	467.75
502.019	378.38
502.38	444.77
502.741	363.06
503.101	393.7
503.462	370.72
503.823	373.27
504.183	370.72
504.543	386.04
504.904	396.25
505.264	398.81
505.625	421.79
505.985	454.98
506.345	452.43
506.705	457.53
507.065	363.06
507.426	378.38
507.786	391.15
508.146	434.55
508.505	447.32
508.865	340.08
509.225	434.55
509.585	419.23
509.945	437.11
510.304	391.15
510.664	383.49
511.024	421.79
511.383	449.87
511.743	426.89
512.102	439.66
512.462	370.72
512.821	322.2
513.18	363.06
513.539	442.21
513.899	363.06
514.258	414.13
514.617	462.64
514.976	437.11
515.335	434.55
515.694	360.51
516.053	355.4
516.412	439.66
516.771	406.47
517.129	396.25
517.488	460.09
517.847	411.57
518.205	429.45
518.564	391.15
518.922	421.79
519.281	403.91
519.639	434.55
519.998	444.77
520.356	424.34
520.714	434.55
521.073	442.21
521.431	396.25
521.789	457.53
522.147	457.53
522.505	477.96
522.863	424.34
523.221	324.76
523.579	334.97
523.937	488.17
524.295	380.93
524.652	380.93
525.01	375.83
525.368	355.4
525.725	391.15
526.083	398.81
526.44	393.7
526.798	426.89
527.155	380.93
527.513	449.87
527.87	419.23
528.227	365.61
528.584	396.25
528.942	449.87
529.299	403.91
529.656	393.7
530.013	432
530.37	375.83
530.727	444.77
531.083	426.89
531.44	416.68
531.797	393.7
532.154	350.29
532.511	329.86
532.867	365.61
533.224	350.29
533.58	375.83
533.937	429.45
534.293	363.06
534.65	350.29
535.006	393.7
535.362	432
535.718	449.87
536.075	442.21
536.431	347.74
536.787	416.68
537.143	424.34
537.499	403.91
537.855	352.84
538.211	393.7
538.567	416.68
538.923	442.21
539.278	457.53
539.634	437.11
539.99	370.72
540.345	360.51
540.701	393.7
541.056	386.04
541.412	462.64
541.767	388.59
542.123	378.38
542.478	432
542.833	462.64
543.188	378.38
543.544	434.55
543.899	409.02
544.254	414.13
544.609	388.59
544.964	409.02
545.319	421.79
545.674	434.55
546.029	365.61
546.383	383.49
546.738	368.17
547.093	424.34
547.447	437.11
547.802	386.04
548.157	380.93
548.511	403.91
548.866	472.85
549.22	447.32
549.574	380.93
549.929	368.17
550.283	437.11
550.637	454.98
550.991	365.61
551.345	378.38
551.699	454.98
552.053	442.21
552.407	380.93
552.761	426.89
553.115	449.87
553.469	452.43
553.823	388.59
554.176	409.02
554.53	350.29
554.884	414.13
555.237	638.82
555.591	449.87
555.944	470.3
556.298	485.62
556.651	360.51
557.005	432
557.358	378.38
557.711	311.99
558.064	396.25
558.417	337.52
558.771	470.3
559.124	419.23
559.477	375.83
559.83	421.79
560.182	434.55
560.535	403.91
560.888	393.7
561.241	396.25
561.594	398.81
561.946	426.89
562.299	386.04
562.651	442.21
563.004	401.36
563.356	403.91
563.709	432
564.061	457.53
564.413	414.13
564.766	383.49
565.118	452.43
565.47	409.02
565.822	401.36
566.174	406.47
566.526	442.21
566.878	429.45
567.23	409.02
567.582	393.7
567.934	370.72
568.286	403.91
568.638	409.02
568.989	414.13
569.341	421.79
569.693	465.19
570.044	416.68
570.396	414.13
570.747	442.21
571.098	424.34
571.45	426.89
571.801	391.15
572.152	437.11
572.504	409.02
572.855	432
573.206	350.29
573.557	398.81
573.908	401.36
574.259	373.27
574.61	383.49
574.961	347.74
575.311	480.51
575.662	434.55
576.013	370.72
576.364	432
576.714	327.31
577.065	419.23
577.415	462.64
577.766	465.19
578.116	429.45
578.467	429.45
578.817	454.98
579.167	444.77
579.518	406.47
579.868	393.7
580.218	388.59
580.568	447.32
580.918	442.21
581.268	396.25
581.618	467.75
581.968	439.66
582.318	462.64
582.668	363.06
583.017	319.65
583.367	437.11
583.717	434.55
584.066	363.06
584.416	452.43
584.765	403.91
585.115	406.47
585.464	380.93
585.814	437.11
586.163	424.34
586.512	437.11
586.862	360.51
587.211	449.87
587.56	437.11
587.909	432
588.258	406.47
588.607	419.23
588.956	347.74
589.305	386.04
589.654	454.98
590.002	452.43
590.351	424.34
590.7	475.41
591.048	452.43
591.397	396.25
591.746	388.59
592.094	380.93
592.443	416.68
592.791	373.27
593.139	447.32
593.488	434.55
593.836	342.63
594.184	391.15
594.532	483.07
594.88	442.21
595.228	406.47
595.576	365.61
595.924	480.51
596.272	368.17
596.62	414.13
596.968	406.47
597.316	483.07
597.664	454.98
598.011	444.77
598.359	355.4
598.706	375.83
599.054	414.13
599.402	442.21
599.749	365.61
600.096	386.04
600.444	401.36
600.791	421.79
601.138	444.77
601.485	375.83
601.833	432
602.18	409.02
602.527	378.38
602.874	380.93
603.221	380.93
603.568	383.49
603.914	388.59
604.261	424.34
604.608	419.23
604.955	434.55
605.301	386.04
605.648	403.91
605.995	391.15
606.341	414.13
606.688	457.53
607.034	391.15
607.38	324.76
607.727	383.49
608.073	396.25
608.419	329.86
608.765	342.63
609.112	411.57
609.458	416.68
609.804	391.15
610.15	449.87
610.496	365.61
610.842	393.7
611.187	401.36
611.533	465.19
611.879	347.74
612.225	472.85
612.57	432
612.916	363.06
613.261	401.36
613.607	419.23
613.952	363.06
614.298	424.34
614.643	406.47
614.989	373.27
615.334	373.27
615.679	391.15
616.024	401.36
616.369	426.89
616.714	380.93
617.059	421.79
617.404	378.38
617.749	373.27
618.094	386.04
618.439	388.59
618.784	414.13
619.129	424.34
619.473	380.93
619.818	365.61
620.163	357.95
620.507	462.64
620.852	365.61
621.196	363.06
621.54	406.47
621.885	429.45
622.229	368.17
622.573	304.33
622.918	416.68
623.262	360.51
623.606	409.02
623.95	383.49
624.294	426.89
624.638	386.04
624.982	449.87
625.326	409.02
625.67	401.36
626.013	365.61
626.357	334.97
626.701	424.34
627.044	434.55
627.388	352.84
627.731	360.51
628.075	396.25
628.418	467.75
628.762	411.57
629.105	432
629.448	409.02
629.792	391.15
630.135	355.4
630.478	398.81
630.821	414.13
631.164	347.74
631.507	322.2
631.85	360.51
632.193	378.38
632.536	360.51
632.879	398.81
633.221	370.72
633.564	398.81
633.907	470.3
634.249	419.23
634.592	393.7
634.935	383.49
635.277	439.66
635.619	403.91
635.962	424.34
636.304	375.83
636.646	411.57
636.989	429.45
637.331	406.47
637.673	421.79
638.015	426.89
638.357	306.88
638.699	368.17
639.041	360.51
639.383	337.52
639.725	386.04
640.067	357.95
640.408	383.49
640.75	414.13
641.092	373.27
641.433	416.68
641.775	352.84
642.116	350.29
642.458	401.36
642.799	416.68
643.141	416.68
643.482	416.68
643.823	449.87
644.164	357.95
644.506	493.28
644.847	467.75
645.188	426.89
645.529	439.66
645.87	439.66
646.211	424.34
646.552	442.21
646.893	345.18
647.233	368.17
647.574	434.55
647.915	401.36
648.255	383.49
648.596	380.93
648.937	424.34
649.277	345.18
649.618	357.95
649.958	401.36
650.298	414.13
650.639	380.93
650.979	370.72
651.319	398.81
651.659	378.38
651.999	411.57
652.339	368.17
652.679	368.17
653.019	373.27
653.359	388.59
653.699	444.77
654.039	342.63
654.379	439.66
654.719	513.71
655.058	439.66
655.398	411.57
655.737	401.36
656.077	398.81
656.416	398.81
656.756	454.98
657.095	393.7
657.435	409.02
657.774	393.7
658.113	414.13
658.452	334.97
658.792	401.36
659.131	393.7
659.47	416.68
659.809	426.89
660.148	457.53
660.487	409.02
660.826	477.96
661.164	411.57
661.503	355.4
661.842	426.89
662.181	398.81
662.519	452.43
662.858	454.98
663.196	406.47
663.535	365.61
663.873	383.49
664.212	368.17
664.55	360.51
664.888	324.76
665.226	355.4
665.565	345.18
665.903	664.36
666.241	449.87
666.579	365.61
666.917	365.61
667.255	472.85
667.593	414.13
667.931	460.09
668.268	447.32
668.606	350.29
668.944	378.38
669.282	365.61
669.619	342.63
669.957	370.72
670.294	373.27
670.632	368.17
670.969	391.15
671.307	396.25
671.644	409.02
671.981	411.57
672.318	444.77
672.656	409.02
672.993	391.15
673.33	460.09
673.667	368.17
674.004	447.32
674.341	388.59
674.678	373.27
675.015	424.34
675.351	398.81
675.688	442.21
676.025	368.17
676.362	396.25
676.698	447.32
677.035	409.02
677.371	373.27
677.708	403.91
678.044	370.72
678.38	324.76
678.717	383.49
679.053	345.18
679.389	437.11
679.725	322.2
680.062	426.89
680.398	396.25
680.734	442.21
681.07	447.32
681.406	391.15
681.742	447.32
682.077	350.29
682.413	393.7
682.749	416.68
683.085	409.02
683.42	380.93
683.756	388.59
684.091	391.15
684.427	396.25
684.762	414.13
685.098	424.34
685.433	393.7
685.768	403.91
686.104	406.47
686.439	421.79
686.774	406.47
687.109	365.61
687.444	457.53
687.779	386.04
688.114	337.52
688.449	345.18
688.784	401.36
689.119	380.93
689.454	380.93
689.789	409.02
690.123	447.32
690.458	383.49
690.792	409.02
691.127	368.17
691.461	393.7
691.796	391.15
692.13	421.79
692.465	398.81
692.799	454.98
693.133	355.4
693.467	393.7
693.802	398.81
694.136	352.84
694.47	416.68
694.804	329.86
695.138	406.47
695.472	337.52
695.806	406.47
696.139	360.51
696.473	342.63
696.807	380.93
697.141	342.63
697.474	350.29
697.808	368.17
698.141	396.25
698.475	368.17
698.808	334.97
699.142	383.49
699.475	465.19
699.808	432
700.142	388.59
700.475	411.57
700.808	421.79
701.141	411.57
701.474	363.06
701.807	363.06
702.14	322.2
702.473	444.77
702.806	368.17
703.139	350.29
703.472	401.36
703.804	360.51
704.137	391.15
704.47	439.66
704.802	419.23
705.135	352.84
705.467	363.06
705.8	393.7
706.132	398.81
706.464	342.63
706.797	432
707.129	411.57
707.461	432
707.793	337.52
708.125	437.11
708.457	373.27
708.789	378.38
709.121	439.66
709.453	419.23
709.785	416.68
710.117	401.36
710.449	378.38
710.781	368.17
711.112	393.7
711.444	416.68
711.775	363.06
712.107	414.13
712.438	398.81
712.77	391.15
713.101	391.15
713.433	432
713.764	406.47
714.095	398.81
714.426	414.13
714.757	388.59
715.089	434.55
715.42	391.15
715.751	378.38
716.082	406.47
716.412	337.52
716.743	391.15
717.074	368.17
717.405	383.49
717.736	375.83
718.066	368.17
718.397	419.23
718.727	449.87
719.058	421.79
719.388	406.47
719.719	378.38
720.049	368.17
720.38	449.87
720.71	403.91
721.04	370.72
721.37	383.49
721.7	398.81
722.031	439.66
722.361	432
722.691	409.02
723.021	375.83
723.35	373.27
723.68	434.55
724.01	414.13
724.34	388.59
724.67	370.72
724.999	329.86
725.329	406.47
725.658	401.36
725.988	368.17
726.317	434.55
726.647	439.66
726.976	406.47
727.306	403.91
727.635	409.02
727.964	452.43
728.293	301.78
728.622	472.85
728.952	452.43
729.281	485.62
729.61	388.59
729.939	386.04
730.267	368.17
730.596	368.17
730.925	380.93
731.254	342.63
731.583	380.93
731.911	327.31
732.24	357.95
732.568	398.81
732.897	365.61
733.225	393.7
733.554	424.34
733.882	434.55
734.21	419.23
734.539	365.61
734.867	334.97
735.195	360.51
735.523	375.83
735.851	403.91
736.179	375.83
736.507	396.25
736.835	424.34
737.163	432
737.491	380.93
737.819	355.4
738.147	442.21
738.474	462.64
738.802	434.55
739.13	434.55
739.457	442.21
739.785	352.84
740.112	388.59
740.44	391.15
740.767	380.93
741.094	373.27
741.422	340.08
741.749	414.13
742.076	424.34
742.403	373.27
742.73	386.04
743.057	424.34
743.384	462.64
743.711	386.04
744.038	324.76
744.365	462.64
744.692	401.36
745.018	342.63
745.345	426.89
745.672	345.18
745.998	383.49
746.325	347.74
746.651	406.47
746.978	375.83
747.304	391.15
747.631	304.33
747.957	368.17
748.283	370.72
748.61	345.18
748.936	368.17
749.262	437.11
749.588	439.66
749.914	403.91
750.24	386.04
750.566	388.59
750.892	365.61
751.218	393.7
751.543	416.68
751.869	391.15
752.195	403.91
752.521	442.21
752.846	411.57
753.172	437.11
753.497	449.87
753.823	375.83
754.148	352.84
754.473	342.63
754.799	386.04
755.124	439.66
755.449	406.47
755.774	345.18
756.1	406.47
756.425	421.79
756.75	409.02
757.075	401.36
757.4	498.39
757.724	447.32
758.049	444.77
758.374	444.77
758.699	398.81
759.024	340.08
759.348	365.61
759.673	442.21
759.997	426.89
760.322	424.34
760.646	403.91
760.971	360.51
761.295	434.55
761.619	432
761.944	396.25
762.268	380.93
762.592	434.55
762.916	416.68
763.24	460.09
763.564	421.79
763.888	419.23
764.212	493.28
764.536	442.21
764.86	511.15
765.184	470.3
765.508	475.41
765.831	409.02
766.155	735.85
766.478	536.69
766.802	465.19
767.126	544.35
767.449	465.19
767.772	552.01
768.096	564.78
768.419	508.6
768.742	562.22
769.066	697.55
769.389	603.08
769.712	664.36
770.035	600.52
770.358	689.89
770.681	684.78
771.004	725.64
771.327	679.68
771.65	733.3
771.972	733.3
772.295	771.6
772.618	746.07
772.941	906.93
773.263	835.43
773.586	906.93
773.908	952.89
774.231	1006.51
774.553	988.64
774.875	1126.52
775.198	1080.56
775.52	1016.72
775.842	947.78
776.164	1039.7
776.487	1021.83
776.809	1049.92
777.131	1106.09
777.453	1095.88
777.775	1039.7
778.096	1154.61
778.418	1284.83
778.74	1154.61
779.062	1226.1
779.384	1213.33
779.705	1307.81
780.027	1386.96
780.348	1476.33
780.67	1358.88
780.991	1483.99
781.313	1619.32
781.634	1703.58
781.955	1540.17
782.277	1537.61
782.598	1690.82
782.919	1575.91
783.24	1642.3
783.561	1637.19
783.882	1611.66
784.203	1616.77
784.524	1670.39
784.845	1672.94
785.166	1568.25
785.487	1626.98
785.807	1583.57
786.128	1734.22
786.449	1734.22
786.769	1683.15
787.09	1849.12
787.41	2109.57
787.731	2152.98
788.051	2137.66
788.372	2265.33
788.692	2431.29
789.012	2382.78
789.332	2306.18
789.653	2375.12
789.973	2525.77
790.293	2507.9
790.613	2298.52
790.933	2219.36
791.253	2219.36
791.573	2216.81
791.893	2183.62
792.212	2186.17
792.532	2206.6
792.852	2124.89
793.171	2027.86
793.491	1923.17
793.811	2094.25
794.13	2012.54
794.45	1905.3
794.769	1805.72
795.088	1772.52
795.408	1813.38
795.727	1838.91
796.046	1897.64
796.365	1856.78
796.684	1912.96
797.004	1826.14
797.323	1966.58
797.642	2280.65
797.96	2408.31
798.279	2451.72
798.598	2438.95
798.917	2362.35
799.236	2262.77
799.554	2081.48
799.873	1981.9
800.192	1984.45
800.51	2140.21
800.829	2122.34
