Data from 2025-12-03_xpw_interference_micrometer_634_reference_FLMS141361__97__547.txt Node

Date: Wed Dec 03 15:52:28 MST 2025
User: james
Spectrometer: FLMS14136
Trigger mode: 0
Integration Time (sec): 1.000000E-1
Scans to average: 1
Electric dark correction enabled: true
Nonlinearity correction enabled: false
Boxcar width: 0
XAxis mode: Wavelengths
Number of Pixels in Spectrum: 2048
>>>>>Begin Spectral Data<<<<<
339.315	-35.11
339.697	-35.11
340.079	-35.11
340.461	-109.16
340.843	-114.26
341.225	-101.5
341.607	-119.37
341.989	-109.16
342.371	-40.22
342.752	-78.52
343.134	-52.98
343.516	-30
343.897	-40.22
344.279	-7.02
344.661	10.85
345.042	120.65
345.423	23.62
345.805	64.47
346.186	164.05
346.567	54.26
346.949	141.07
347.33	215.12
347.711	240.66
348.092	238.1
348.473	240.66
348.854	248.32
349.235	258.53
349.616	240.66
349.997	291.72
350.378	317.26
350.758	322.36
351.139	322.36
351.52	368.32
351.9	424.5
352.281	437.27
352.661	378.54
353.042	414.29
353.422	309.6
353.803	342.79
354.183	324.92
354.563	391.31
354.943	424.5
355.324	388.75
355.704	404.07
356.084	370.88
356.464	358.11
356.844	358.11
357.224	391.31
357.603	455.14
357.983	363.22
358.363	493.44
358.743	345.34
359.122	424.5
359.502	342.79
359.882	353
360.261	332.58
360.641	396.41
361.02	424.5
361.399	363.22
361.779	378.54
362.158	347.9
362.537	355.56
362.916	353
363.296	383.65
363.675	340.24
364.054	381.09
364.433	391.31
364.812	363.22
365.19	378.54
365.569	373.43
365.948	419.39
366.327	429.61
366.705	383.65
367.084	375.98
367.463	353
367.841	299.38
368.22	375.98
368.598	332.58
368.977	324.92
369.355	373.43
369.733	363.22
370.111	330.02
370.49	327.47
370.868	427.05
371.246	368.32
371.624	358.11
372.002	398.97
372.38	381.09
372.758	381.09
373.136	411.73
373.513	375.98
373.891	401.52
374.269	419.39
374.646	404.07
375.024	434.71
375.402	401.52
375.779	337.68
376.157	411.73
376.534	373.43
376.911	322.36
377.289	358.11
377.666	406.63
378.043	444.93
378.42	358.11
378.797	347.9
379.175	335.13
379.552	355.56
379.929	322.36
380.305	268.74
380.682	324.92
381.059	406.63
381.436	355.56
381.813	358.11
382.189	322.36
382.566	416.84
382.943	335.13
383.319	381.09
383.696	416.84
384.072	327.47
384.448	462.8
384.825	411.73
385.201	358.11
385.577	386.2
385.953	406.63
386.329	424.5
386.706	424.5
387.082	411.73
387.458	396.41
387.834	381.09
388.209	317.26
388.585	347.9
388.961	393.86
389.337	447.48
389.713	419.39
390.088	370.88
390.464	324.92
390.839	342.79
391.215	391.31
391.59	401.52
391.966	363.22
392.341	391.31
392.716	363.22
393.092	358.11
393.467	353
393.842	409.18
394.217	388.75
394.592	368.32
394.967	396.41
395.342	358.11
395.717	396.41
396.092	340.24
396.467	375.98
396.841	360.66
397.216	381.09
397.591	360.66
397.965	404.07
398.34	411.73
398.714	373.43
399.089	398.97
399.463	383.65
399.838	317.26
400.212	393.86
400.586	393.86
400.961	340.24
401.335	378.54
401.709	350.45
402.083	388.75
402.457	393.86
402.831	378.54
403.205	381.09
403.579	404.07
403.953	401.52
404.326	409.18
404.7	381.09
405.074	368.32
405.447	414.29
405.821	439.82
406.195	473.01
406.568	424.5
406.942	493.44
407.315	388.75
407.688	309.6
408.062	388.75
408.435	358.11
408.808	444.93
409.181	457.69
409.554	368.32
409.927	370.88
410.3	457.69
410.673	409.18
411.046	437.27
411.419	427.05
411.792	342.79
412.165	427.05
412.537	416.84
412.91	401.52
413.283	375.98
413.655	388.75
414.028	406.63
414.4	427.05
414.773	526.63
415.145	447.48
415.517	375.98
415.889	452.59
416.262	416.84
416.634	404.07
417.006	421.95
417.378	411.73
417.75	404.07
418.122	391.31
418.494	434.71
418.866	383.65
419.238	429.61
419.609	363.22
419.981	429.61
420.353	434.71
420.725	393.86
421.096	411.73
421.468	424.5
421.839	452.59
422.211	419.39
422.582	424.5
422.953	409.18
423.325	465.35
423.696	373.43
424.067	462.8
424.438	393.86
424.809	437.27
425.18	373.43
425.551	398.97
425.922	414.29
426.293	363.22
426.664	381.09
427.035	455.14
427.406	416.84
427.776	383.65
428.147	460.25
428.518	409.18
428.888	393.86
429.259	406.63
429.629	455.14
429.999	432.16
430.37	375.98
430.74	404.07
431.11	335.13
431.481	398.97
431.851	404.07
432.221	396.41
432.591	434.71
432.961	375.98
433.331	421.95
433.701	429.61
434.071	396.41
434.441	404.07
434.81	427.05
435.18	485.78
435.55	416.84
435.919	401.52
436.289	419.39
436.658	381.09
437.028	414.29
437.397	432.16
437.767	398.97
438.136	442.37
438.505	393.86
438.875	342.79
439.244	398.97
439.613	421.95
439.982	424.5
440.351	414.29
440.72	419.39
441.089	386.2
441.458	388.75
441.827	388.75
442.196	363.22
442.564	503.65
442.933	452.59
443.302	447.48
443.67	365.77
444.039	368.32
444.407	388.75
444.776	419.39
445.144	370.88
445.513	386.2
445.881	437.27
446.249	421.95
446.617	452.59
446.986	450.03
447.354	457.69
447.722	432.16
448.09	414.29
448.458	347.9
448.826	437.27
449.194	396.41
449.561	409.18
449.929	373.43
450.297	396.41
450.665	365.77
451.032	447.48
451.4	375.98
451.767	398.97
452.135	437.27
452.502	462.8
452.87	452.59
453.237	416.84
453.604	452.59
453.971	473.01
454.339	465.35
454.706	429.61
455.073	370.88
455.44	419.39
455.807	414.29
456.174	378.54
456.541	391.31
456.908	439.82
457.274	375.98
457.641	373.43
458.008	355.56
458.374	393.86
458.741	411.73
459.108	447.48
459.474	383.65
459.841	462.8
460.207	424.5
460.573	368.32
460.94	365.77
461.306	342.79
461.672	373.43
462.038	455.14
462.404	437.27
462.771	365.77
463.137	393.86
463.503	409.18
463.868	439.82
464.234	396.41
464.6	406.63
464.966	419.39
465.332	473.01
465.697	370.88
466.063	381.09
466.429	478.12
466.794	401.52
467.16	455.14
467.525	444.93
467.89	404.07
468.256	396.41
468.621	419.39
468.986	460.25
469.351	434.71
469.717	450.03
470.082	478.12
470.447	467.91
470.812	396.41
471.177	455.14
471.542	401.52
471.906	483.23
472.271	437.27
472.636	421.95
473.001	424.5
473.365	317.26
473.73	368.32
474.094	345.34
474.459	429.61
474.823	353
475.188	350.45
475.552	386.2
475.917	421.95
476.281	467.91
476.645	409.18
477.009	419.39
477.373	437.27
477.737	404.07
478.101	432.16
478.465	416.84
478.829	381.09
479.193	375.98
479.557	419.39
479.921	480.67
480.284	416.84
480.648	444.93
481.012	411.73
481.375	411.73
481.739	457.69
482.102	427.05
482.466	495.99
482.829	480.67
483.193	429.61
483.556	391.31
483.919	411.73
484.282	409.18
484.645	391.31
485.009	386.2
485.372	424.5
485.735	388.75
486.098	406.63
486.46	373.43
486.823	391.31
487.186	419.39
487.549	401.52
487.912	416.84
488.274	455.14
488.637	429.61
488.999	457.69
489.362	552.17
489.724	427.05
490.087	409.18
490.449	442.37
490.811	452.59
491.174	370.88
491.536	473.01
491.898	457.69
492.26	475.57
492.622	342.79
492.984	409.18
493.346	378.54
493.708	427.05
494.07	363.22
494.432	404.07
494.794	498.55
495.155	401.52
495.517	411.73
495.879	460.25
496.24	429.61
496.602	314.7
496.963	404.07
497.325	490.89
497.686	381.09
498.048	452.59
498.409	427.05
498.77	470.46
499.131	416.84
499.492	404.07
499.854	419.39
500.215	421.95
500.576	432.16
500.937	462.8
501.298	419.39
501.658	396.41
502.019	450.03
502.38	429.61
502.741	353
503.101	421.95
503.462	432.16
503.823	442.37
504.183	447.48
504.543	388.75
504.904	429.61
505.264	455.14
505.625	419.39
505.985	370.88
506.345	381.09
506.705	375.98
507.065	398.97
507.426	427.05
507.786	414.29
508.146	347.9
508.505	421.95
508.865	467.91
509.225	416.84
509.585	480.67
509.945	437.27
510.304	475.57
510.664	518.97
511.024	375.98
511.383	437.27
511.743	442.37
512.102	450.03
512.462	488.33
512.821	416.84
513.18	375.98
513.539	424.5
513.899	396.41
514.258	370.88
514.617	370.88
514.976	406.63
515.335	480.67
515.694	437.27
516.053	424.5
516.412	398.97
516.771	365.77
517.129	401.52
517.488	355.56
517.847	404.07
518.205	375.98
518.564	483.23
518.922	434.71
519.281	437.27
519.639	501.1
519.998	401.52
520.356	363.22
520.714	429.61
521.073	350.45
521.431	457.69
521.789	444.93
522.147	419.39
522.505	401.52
522.863	373.43
523.221	406.63
523.579	337.68
523.937	457.69
524.295	404.07
524.652	353
525.01	432.16
525.368	483.23
525.725	375.98
526.083	378.54
526.44	409.18
526.798	444.93
527.155	424.5
527.513	365.77
527.87	391.31
528.227	406.63
528.584	373.43
528.942	373.43
529.299	447.48
529.656	439.82
530.013	365.77
530.37	398.97
530.727	444.93
531.083	432.16
531.44	437.27
531.797	447.48
532.154	406.63
532.511	388.75
532.867	409.18
533.224	411.73
533.58	386.2
533.937	355.56
534.293	396.41
534.65	386.2
535.006	480.67
535.362	411.73
535.718	421.95
536.075	416.84
536.431	406.63
536.787	432.16
537.143	363.22
537.499	398.97
537.855	396.41
538.211	381.09
538.567	439.82
538.923	460.25
539.278	421.95
539.634	447.48
539.99	378.54
540.345	442.37
540.701	411.73
541.056	347.9
541.412	401.52
541.767	401.52
542.123	378.54
542.478	383.65
542.833	391.31
543.188	419.39
543.544	398.97
543.899	442.37
544.254	460.25
544.609	342.79
544.964	406.63
545.319	442.37
545.674	388.75
546.029	401.52
546.383	444.93
546.738	411.73
547.093	404.07
547.447	360.66
547.802	414.29
548.157	424.5
548.511	419.39
548.866	424.5
549.22	383.65
549.574	444.93
549.929	465.35
550.283	421.95
550.637	455.14
550.991	404.07
551.345	358.11
551.699	434.71
552.053	414.29
552.407	409.18
552.761	398.97
553.115	457.69
553.469	378.54
553.823	490.89
554.176	401.52
554.53	457.69
554.884	442.37
555.237	646.64
555.591	401.52
555.944	485.78
556.298	416.84
556.651	495.99
557.005	485.78
557.358	419.39
557.711	444.93
558.064	442.37
558.417	455.14
558.771	536.85
559.124	427.05
559.477	353
559.83	312.15
560.182	393.86
560.535	378.54
560.888	375.98
561.241	465.35
561.594	465.35
561.946	398.97
562.299	401.52
562.651	386.2
563.004	465.35
563.356	409.18
563.709	432.16
564.061	450.03
564.413	452.59
564.766	434.71
565.118	421.95
565.47	414.29
565.822	391.31
566.174	450.03
566.526	424.5
566.878	450.03
567.23	434.71
567.582	455.14
567.934	457.69
568.286	419.39
568.638	386.2
568.989	383.65
569.341	409.18
569.693	401.52
570.044	452.59
570.396	365.77
570.747	358.11
571.098	457.69
571.45	409.18
571.801	439.82
572.152	437.27
572.504	401.52
572.855	437.27
573.206	370.88
573.557	452.59
573.908	447.48
574.259	424.5
574.61	447.48
574.961	439.82
575.311	516.42
575.662	391.31
576.013	368.32
576.364	447.48
576.714	396.41
577.065	383.65
577.415	450.03
577.766	391.31
578.116	401.52
578.467	447.48
578.817	398.97
579.167	381.09
579.518	434.71
579.868	444.93
580.218	447.48
580.568	360.66
580.918	378.54
581.268	383.65
581.618	414.29
581.968	442.37
582.318	439.82
582.668	432.16
583.017	414.29
583.367	378.54
583.717	424.5
584.066	416.84
584.416	450.03
584.765	429.61
585.115	370.88
585.464	388.75
585.814	401.52
586.163	391.31
586.512	437.27
586.862	424.5
587.211	427.05
587.56	398.97
587.909	429.61
588.258	513.87
588.607	450.03
588.956	447.48
589.305	411.73
589.654	427.05
590.002	429.61
590.351	421.95
590.7	432.16
591.048	424.5
591.397	411.73
591.746	396.41
592.094	465.35
592.443	388.75
592.791	429.61
593.139	455.14
593.488	457.69
593.836	383.65
594.184	421.95
594.532	401.52
594.88	419.39
595.228	401.52
595.576	358.11
595.924	429.61
596.272	485.78
596.62	421.95
596.968	383.65
597.316	360.66
597.664	432.16
598.011	383.65
598.359	439.82
598.706	388.75
599.054	393.86
599.402	368.32
599.749	434.71
600.096	386.2
600.444	381.09
600.791	373.43
601.138	421.95
601.485	358.11
601.833	340.24
602.18	378.54
602.527	450.03
602.874	383.65
603.221	427.05
603.568	373.43
603.914	411.73
604.261	416.84
604.608	378.54
604.955	391.31
605.301	455.14
605.648	444.93
605.995	447.48
606.341	386.2
606.688	332.58
607.034	485.78
607.38	378.54
607.727	365.77
608.073	386.2
608.419	393.86
608.765	429.61
609.112	447.48
609.458	391.31
609.804	437.27
610.15	383.65
610.496	391.31
610.842	411.73
611.187	439.82
611.533	442.37
611.879	434.71
612.225	450.03
612.57	424.5
612.916	416.84
613.261	409.18
613.607	347.9
613.952	478.12
614.298	383.65
614.643	386.2
614.989	350.45
615.334	375.98
615.679	478.12
616.024	450.03
616.369	391.31
616.714	404.07
617.059	421.95
617.404	370.88
617.749	396.41
618.094	393.86
618.439	398.97
618.784	460.25
619.129	455.14
619.473	452.59
619.818	353
620.163	391.31
620.507	447.48
620.852	424.5
621.196	419.39
621.54	373.43
621.885	419.39
622.229	432.16
622.573	388.75
622.918	416.84
623.262	383.65
623.606	386.2
623.95	409.18
624.294	375.98
624.638	416.84
624.982	353
625.326	365.77
625.67	432.16
626.013	386.2
626.357	421.95
626.701	434.71
627.044	406.63
627.388	378.54
627.731	432.16
628.075	450.03
628.418	363.22
628.762	437.27
629.105	335.13
629.448	358.11
629.792	365.77
630.135	409.18
630.478	411.73
630.821	401.52
631.164	421.95
631.507	442.37
631.85	427.05
632.193	414.29
632.536	450.03
632.879	393.86
633.221	388.75
633.564	416.84
633.907	409.18
634.249	411.73
634.592	434.71
634.935	375.98
635.277	401.52
635.619	360.66
635.962	368.32
636.304	378.54
636.646	411.73
636.989	450.03
637.331	434.71
637.673	462.8
638.015	406.63
638.357	439.82
638.699	457.69
639.041	404.07
639.383	429.61
639.725	432.16
640.067	437.27
640.408	478.12
640.75	337.68
641.092	411.73
641.433	398.97
641.775	396.41
642.116	437.27
642.458	452.59
642.799	434.71
643.141	401.52
643.482	370.88
643.823	365.77
644.164	414.29
644.506	434.71
644.847	409.18
645.188	353
645.529	360.66
645.87	358.11
646.211	439.82
646.552	416.84
646.893	414.29
647.233	439.82
647.574	437.27
647.915	452.59
648.255	427.05
648.596	378.54
648.937	421.95
649.277	401.52
649.618	439.82
649.958	396.41
650.298	375.98
650.639	358.11
650.979	383.65
651.319	365.77
651.659	421.95
651.999	432.16
652.339	503.65
652.679	342.79
653.019	442.37
653.359	383.65
653.699	398.97
654.039	419.39
654.379	419.39
654.719	383.65
655.058	393.86
655.398	411.73
655.737	432.16
656.077	401.52
656.416	383.65
656.756	388.75
657.095	414.29
657.435	378.54
657.774	429.61
658.113	434.71
658.452	457.69
658.792	414.29
659.131	457.69
659.47	421.95
659.809	429.61
660.148	473.01
660.487	383.65
660.826	391.31
661.164	419.39
661.503	427.05
661.842	439.82
662.181	388.75
662.519	378.54
662.858	406.63
663.196	350.45
663.535	401.52
663.873	411.73
664.212	457.69
664.55	432.16
664.888	378.54
665.226	475.57
665.565	455.14
665.903	636.43
666.241	398.97
666.579	457.69
666.917	398.97
667.255	409.18
667.593	398.97
667.931	452.59
668.268	437.27
668.606	335.13
668.944	498.55
669.282	406.63
669.619	393.86
669.957	381.09
670.294	432.16
670.632	416.84
670.969	355.56
671.307	419.39
671.644	460.25
671.981	414.29
672.318	478.12
672.656	406.63
672.993	442.37
673.33	447.48
673.667	409.18
674.004	365.77
674.341	416.84
674.678	393.86
675.015	370.88
675.351	386.2
675.688	381.09
676.025	370.88
676.362	358.11
676.698	383.65
677.035	427.05
677.371	368.32
677.708	388.75
678.044	447.48
678.38	460.25
678.717	406.63
679.053	401.52
679.389	427.05
679.725	381.09
680.062	401.52
680.398	401.52
680.734	434.71
681.07	401.52
681.406	398.97
681.742	404.07
682.077	409.18
682.413	358.11
682.749	393.86
683.085	432.16
683.42	393.86
683.756	452.59
684.091	483.23
684.427	398.97
684.762	414.29
685.098	429.61
685.433	455.14
685.768	353
686.104	350.45
686.439	419.39
686.774	421.95
687.109	429.61
687.444	424.5
687.779	409.18
688.114	432.16
688.449	363.22
688.784	427.05
689.119	373.43
689.454	437.27
689.789	434.71
690.123	455.14
690.458	396.41
690.792	378.54
691.127	432.16
691.461	434.71
691.796	429.61
692.13	452.59
692.465	416.84
692.799	419.39
693.133	434.71
693.467	396.41
693.802	409.18
694.136	381.09
694.47	396.41
694.804	439.82
695.138	355.56
695.472	447.48
695.806	322.36
696.139	350.45
696.473	421.95
696.807	375.98
697.141	396.41
697.474	434.71
697.808	455.14
698.141	398.97
698.475	360.66
698.808	365.77
699.142	455.14
699.475	424.5
699.808	447.48
700.142	404.07
700.475	421.95
700.808	332.58
701.141	363.22
701.474	391.31
701.807	434.71
702.14	444.93
702.473	429.61
702.806	444.93
703.139	317.26
703.472	439.82
703.804	419.39
704.137	478.12
704.47	429.61
704.802	411.73
705.135	386.2
705.467	503.65
705.8	432.16
706.132	375.98
706.464	429.61
706.797	421.95
707.129	363.22
707.461	434.71
707.793	330.02
708.125	478.12
708.457	424.5
708.789	424.5
709.121	404.07
709.453	383.65
709.785	427.05
710.117	455.14
710.449	450.03
710.781	414.29
711.112	419.39
711.444	391.31
711.775	404.07
712.107	375.98
712.438	383.65
712.77	416.84
713.101	383.65
713.433	404.07
713.764	386.2
714.095	434.71
714.426	508.76
714.757	450.03
715.089	475.57
715.42	508.76
715.751	414.29
716.082	421.95
716.412	437.27
716.743	404.07
717.074	345.34
717.405	342.79
717.736	450.03
718.066	355.56
718.397	347.9
718.727	386.2
719.058	383.65
719.388	442.37
719.719	401.52
720.049	467.91
720.38	375.98
720.71	444.93
721.04	414.29
721.37	393.86
721.7	375.98
722.031	350.45
722.361	373.43
722.691	393.86
723.021	398.97
723.35	391.31
723.68	353
724.01	383.65
724.34	378.54
724.67	396.41
724.999	490.89
725.329	434.71
725.658	388.75
725.988	360.66
726.317	427.05
726.647	437.27
726.976	368.32
727.306	406.63
727.635	378.54
727.964	391.31
728.293	437.27
728.622	416.84
728.952	396.41
729.281	370.88
729.61	465.35
729.939	396.41
730.267	406.63
730.596	350.45
730.925	434.71
731.254	398.97
731.583	406.63
731.911	406.63
732.24	429.61
732.568	439.82
732.897	360.66
733.225	375.98
733.554	447.48
733.882	421.95
734.21	406.63
734.539	424.5
734.867	370.88
735.195	437.27
735.523	363.22
735.851	391.31
736.179	419.39
736.507	347.9
736.835	345.34
737.163	373.43
737.491	439.82
737.819	370.88
738.147	457.69
738.474	401.52
738.802	378.54
739.13	406.63
739.457	404.07
739.785	391.31
740.112	378.54
740.44	442.37
740.767	432.16
741.094	393.86
741.422	383.65
741.749	416.84
742.076	434.71
742.403	414.29
742.73	455.14
743.057	373.43
743.384	360.66
743.711	317.26
744.038	388.75
744.365	490.89
744.692	404.07
745.018	429.61
745.345	427.05
745.672	416.84
745.998	406.63
746.325	383.65
746.651	381.09
746.978	437.27
747.304	452.59
747.631	370.88
747.957	424.5
748.283	378.54
748.61	391.31
748.936	378.54
749.262	363.22
749.588	373.43
749.914	416.84
750.24	434.71
750.566	473.01
750.892	368.32
751.218	398.97
751.543	427.05
751.869	388.75
752.195	404.07
752.521	432.16
752.846	427.05
753.172	442.37
753.497	396.41
753.823	460.25
754.148	404.07
754.473	381.09
754.799	393.86
755.124	406.63
755.449	396.41
755.774	455.14
756.1	439.82
756.425	429.61
756.75	452.59
757.075	421.95
757.4	485.78
757.724	462.8
758.049	432.16
758.374	419.39
758.699	388.75
759.024	393.86
759.348	450.03
759.673	368.32
759.997	360.66
760.322	432.16
760.646	429.61
760.971	473.01
761.295	360.66
761.619	429.61
761.944	429.61
762.268	437.27
762.592	460.25
762.916	485.78
763.24	442.37
763.564	401.52
763.888	483.23
764.212	478.12
764.536	531.74
764.86	475.57
765.184	516.42
765.508	429.61
765.831	457.69
766.155	718.14
766.478	577.7
766.802	516.42
767.126	575.15
767.449	508.76
767.772	567.49
768.096	679.84
768.419	598.13
768.742	628.77
769.066	641.54
769.389	664.52
769.712	679.84
770.035	766.65
770.358	766.65
770.681	784.53
771.004	820.27
771.327	787.08
771.65	804.95
771.972	769.21
772.295	774.31
772.618	843.25
772.941	794.74
773.263	891.77
773.586	899.43
773.908	896.87
774.231	1078.16
774.553	1050.08
774.875	1210.94
775.198	1218.6
775.52	1172.64
775.842	1210.94
776.164	1070.5
776.487	1103.7
776.809	1098.59
777.131	1075.61
777.453	1088.38
777.775	1203.28
778.096	1203.28
778.418	1241.58
778.74	1210.94
779.062	1282.43
779.384	1320.73
779.705	1376.91
780.027	1522.45
780.348	1502.02
780.67	1430.53
780.991	1588.84
781.313	1698.63
781.634	1821.2
781.955	1703.74
782.277	1637.35
782.598	1793.11
782.919	1721.62
783.24	1798.22
783.561	1749.7
783.882	1772.68
784.203	1685.87
784.524	1757.36
784.845	1754.81
785.166	1685.87
785.487	1690.97
785.807	1785.45
786.128	1846.73
786.449	1790.56
786.769	1836.52
787.09	1982.06
787.41	2081.64
787.731	2311.45
788.051	2359.96
788.372	2459.54
788.692	2510.61
789.012	2449.33
789.332	2477.42
789.653	2495.29
789.973	2663.81
790.293	2510.61
790.613	2372.73
790.933	2365.07
791.253	2385.49
791.573	2418.69
791.893	2306.34
792.212	2324.21
792.532	2308.89
792.852	2232.29
793.171	2148.03
793.491	2015.25
793.811	2119.94
794.13	2035.68
794.45	1982.06
794.769	1971.85
795.088	1874.82
795.408	1936.1
795.727	1971.85
796.046	2035.68
796.365	1938.65
796.684	1828.86
797.004	1844.18
797.323	2040.79
797.642	2579.55
797.96	2582.1
798.279	2633.17
798.598	2513.16
798.917	2449.33
799.236	2344.64
799.554	2148.03
799.873	2091.85
