Data from 2025-12-03_xpw_interference_micrometer_634_reference_FLMS141361__39__489.txt Node

Date: Wed Dec 03 15:52:23 MST 2025
User: james
Spectrometer: FLMS14136
Trigger mode: 0
Integration Time (sec): 1.000000E-1
Scans to average: 1
Electric dark correction enabled: true
Nonlinearity correction enabled: false
Boxcar width: 0
XAxis mode: Wavelengths
Number of Pixels in Spectrum: 2048
>>>>>Begin Spectral Data<<<<<
339.315	-37.82
339.697	-37.82
340.079	-37.82
340.461	-27.61
340.843	-78.68
341.225	-122.08
341.607	-76.12
341.989	-109.32
342.371	-81.23
342.752	-40.38
343.134	-42.93
343.516	-65.91
343.897	-9.73
344.279	28.57
344.661	18.35
345.042	-22.5
345.423	51.55
345.805	110.27
346.186	105.17
346.567	100.06
346.949	156.23
347.33	176.66
347.711	207.3
348.092	204.75
348.473	186.88
348.854	179.22
349.235	291.56
349.616	260.92
349.997	319.65
350.378	260.92
350.758	311.99
351.139	347.74
351.52	327.31
351.9	368.17
352.281	393.7
352.661	332.42
353.042	426.89
353.422	391.15
353.803	432
354.183	444.77
354.563	439.66
354.943	391.15
355.324	419.23
355.704	424.34
356.084	449.87
356.464	375.83
356.844	403.91
357.224	340.08
357.603	347.74
357.983	411.57
358.363	432
358.743	373.27
359.122	424.34
359.502	375.83
359.882	398.81
360.261	378.38
360.641	347.74
361.02	368.17
361.399	421.79
361.779	421.79
362.158	360.51
362.537	396.25
362.916	365.61
363.296	444.77
363.675	398.81
364.054	398.81
364.433	416.68
364.812	299.22
365.19	301.78
365.569	416.68
365.948	350.29
366.327	380.93
366.705	373.27
367.084	429.45
367.463	370.72
367.841	347.74
368.22	347.74
368.598	327.31
368.977	319.65
369.355	301.78
369.733	355.4
370.111	375.83
370.49	345.18
370.868	419.23
371.246	296.67
371.624	360.51
372.002	391.15
372.38	350.29
372.758	345.18
373.136	426.89
373.513	368.17
373.891	393.7
374.269	393.7
374.646	360.51
375.024	314.54
375.402	386.04
375.779	383.49
376.157	368.17
376.534	363.06
376.911	345.18
377.289	324.76
377.666	398.81
378.043	350.29
378.42	357.95
378.797	437.11
379.175	380.93
379.552	350.29
379.929	368.17
380.305	345.18
380.682	355.4
381.059	347.74
381.436	419.23
381.813	365.61
382.189	355.4
382.566	386.04
382.943	375.83
383.319	375.83
383.696	314.54
384.072	401.36
384.448	401.36
384.825	375.83
385.201	375.83
385.577	411.57
385.953	388.59
386.329	337.52
386.706	370.72
387.082	421.79
387.458	363.06
387.834	355.4
388.209	350.29
388.585	347.74
388.961	439.66
389.337	434.55
389.713	421.79
390.088	363.06
390.464	350.29
390.839	370.72
391.215	414.13
391.59	414.13
391.966	352.84
392.341	347.74
392.716	357.95
393.092	444.77
393.467	419.23
393.842	383.49
394.217	401.36
394.592	380.93
394.967	393.7
395.342	365.61
395.717	357.95
396.092	398.81
396.467	301.78
396.841	398.81
397.216	370.72
397.591	432
397.965	426.89
398.34	337.52
398.714	380.93
399.089	393.7
399.463	352.84
399.838	350.29
400.212	421.79
400.586	409.02
400.961	368.17
401.335	393.7
401.709	342.63
402.083	378.38
402.457	309.44
402.831	447.32
403.205	383.49
403.579	388.59
403.953	386.04
404.326	347.74
404.7	416.68
405.074	424.34
405.447	294.12
405.821	360.51
406.195	329.86
406.568	396.25
406.942	403.91
407.315	355.4
407.688	439.66
408.062	403.91
408.435	452.43
408.808	409.02
409.181	437.11
409.554	452.43
409.927	327.31
410.3	454.98
410.673	462.64
411.046	457.53
411.419	429.45
411.792	447.32
412.165	454.98
412.537	429.45
412.91	391.15
413.283	334.97
413.655	411.57
414.028	429.45
414.4	401.36
414.773	363.06
415.145	432
415.517	429.45
415.889	350.29
416.262	424.34
416.634	419.23
417.006	383.49
417.378	386.04
417.75	393.7
418.122	322.2
418.494	375.83
418.866	475.41
419.238	452.43
419.609	398.81
419.981	419.23
420.353	426.89
420.725	383.49
421.096	388.59
421.468	426.89
421.839	396.25
422.211	386.04
422.582	419.23
422.953	421.79
423.325	437.11
423.696	416.68
424.067	401.36
424.438	350.29
424.809	414.13
425.18	411.57
425.551	365.61
425.922	378.38
426.293	424.34
426.664	424.34
427.035	454.98
427.406	350.29
427.776	380.93
428.147	398.81
428.518	439.66
428.888	439.66
429.259	363.06
429.629	383.49
429.999	375.83
430.37	401.36
430.74	370.72
431.11	398.81
431.481	393.7
431.851	401.36
432.221	363.06
432.591	521.37
432.961	447.32
433.331	342.63
433.701	439.66
434.071	357.95
434.441	370.72
434.81	375.83
435.18	419.23
435.55	432
435.919	442.21
436.289	409.02
436.658	396.25
437.028	396.25
437.397	409.02
437.767	460.09
438.136	380.93
438.505	329.86
438.875	411.57
439.244	483.07
439.613	411.57
439.982	373.27
440.351	429.45
440.72	378.38
441.089	490.73
441.458	454.98
441.827	424.34
442.196	401.36
442.564	462.64
442.933	462.64
443.302	414.13
443.67	414.13
444.039	398.81
444.407	363.06
444.776	409.02
445.144	419.23
445.513	414.13
445.881	432
446.249	419.23
446.617	437.11
446.986	396.25
447.354	414.13
447.722	403.91
448.09	360.51
448.458	477.96
448.826	477.96
449.194	388.59
449.561	449.87
449.929	419.23
450.297	437.11
450.665	360.51
451.032	350.29
451.4	421.79
451.767	462.64
452.135	416.68
452.502	454.98
452.87	368.17
453.237	373.27
453.604	393.7
453.971	345.18
454.339	414.13
454.706	386.04
455.073	398.81
455.44	449.87
455.807	386.04
456.174	449.87
456.541	467.75
456.908	416.68
457.274	406.47
457.641	391.15
458.008	380.93
458.374	452.43
458.741	406.47
459.108	437.11
459.474	500.94
459.841	403.91
460.207	419.23
460.573	391.15
460.94	406.47
461.306	437.11
461.672	485.62
462.038	350.29
462.404	363.06
462.771	375.83
463.137	401.36
463.503	368.17
463.868	383.49
464.234	373.27
464.6	421.79
464.966	434.55
465.332	380.93
465.697	409.02
466.063	409.02
466.429	398.81
466.794	317.1
467.16	449.87
467.525	416.68
467.89	324.76
468.256	360.51
468.621	416.68
468.986	457.53
469.351	411.57
469.717	432
470.082	357.95
470.447	437.11
470.812	386.04
471.177	434.55
471.542	388.59
471.906	447.32
472.271	452.43
472.636	406.47
473.001	373.27
473.365	411.57
473.73	396.25
474.094	347.74
474.459	426.89
474.823	444.77
475.188	424.34
475.552	391.15
475.917	411.57
476.281	488.17
476.645	495.83
477.009	444.77
477.373	444.77
477.737	460.09
478.101	462.64
478.465	439.66
478.829	388.59
479.193	419.23
479.557	411.57
479.921	352.84
480.284	442.21
480.648	452.43
481.012	365.61
481.375	403.91
481.739	414.13
482.102	460.09
482.466	378.38
482.829	488.17
483.193	470.3
483.556	419.23
483.919	421.79
484.282	426.89
484.645	432
485.009	350.29
485.372	375.83
485.735	480.51
486.098	493.28
486.46	398.81
486.823	454.98
487.186	447.32
487.549	447.32
487.912	419.23
488.274	396.25
488.637	424.34
488.999	375.83
489.362	401.36
489.724	380.93
490.087	452.43
490.449	470.3
490.811	447.32
491.174	475.41
491.536	454.98
491.898	409.02
492.26	452.43
492.622	447.32
492.984	444.77
493.346	424.34
493.708	447.32
494.07	424.34
494.432	411.57
494.794	378.38
495.155	419.23
495.517	442.21
495.879	357.95
496.24	403.91
496.602	426.89
496.963	401.36
497.325	419.23
497.686	462.64
498.048	378.38
498.409	457.53
498.77	409.02
499.131	452.43
499.492	419.23
499.854	411.57
500.215	421.79
500.576	406.47
500.937	460.09
501.298	421.79
501.658	424.34
502.019	465.19
502.38	401.36
502.741	421.79
503.101	419.23
503.462	383.49
503.823	454.98
504.183	409.02
504.543	429.45
504.904	488.17
505.264	378.38
505.625	357.95
505.985	365.61
506.345	432
506.705	508.6
507.065	386.04
507.426	411.57
507.786	334.97
508.146	403.91
508.505	370.72
508.865	437.11
509.225	434.55
509.585	508.6
509.945	409.02
510.304	424.34
510.664	442.21
511.024	439.66
511.383	462.64
511.743	411.57
512.102	475.41
512.462	439.66
512.821	508.6
513.18	454.98
513.539	444.77
513.899	414.13
514.258	426.89
514.617	360.51
514.976	363.06
515.335	393.7
515.694	444.77
516.053	447.32
516.412	424.34
516.771	424.34
517.129	434.55
517.488	388.59
517.847	421.79
518.205	424.34
518.564	388.59
518.922	434.55
519.281	452.43
519.639	393.7
519.998	398.81
520.356	477.96
520.714	409.02
521.073	454.98
521.431	429.45
521.789	406.47
522.147	437.11
522.505	391.15
522.863	403.91
523.221	498.39
523.579	462.64
523.937	406.47
524.295	444.77
524.652	414.13
525.01	447.32
525.368	439.66
525.725	503.49
526.083	363.06
526.44	414.13
526.798	472.85
527.155	462.64
527.513	388.59
527.87	388.59
528.227	296.67
528.584	419.23
528.942	388.59
529.299	462.64
529.656	472.85
530.013	375.83
530.37	447.32
530.727	467.75
531.083	475.41
531.44	403.91
531.797	437.11
532.154	406.47
532.511	401.36
532.867	444.77
533.224	449.87
533.58	452.43
533.937	426.89
534.293	439.66
534.65	434.55
535.006	411.57
535.362	398.81
535.718	437.11
536.075	406.47
536.431	393.7
536.787	495.83
537.143	386.04
537.499	365.61
537.855	319.65
538.211	378.38
538.567	409.02
538.923	467.75
539.278	416.68
539.634	444.77
539.99	396.25
540.345	442.21
540.701	437.11
541.056	442.21
541.412	444.77
541.767	406.47
542.123	393.7
542.478	391.15
542.833	460.09
543.188	403.91
543.544	396.25
543.899	429.45
544.254	378.38
544.609	386.04
544.964	465.19
545.319	488.17
545.674	411.57
546.029	462.64
546.383	380.93
546.738	388.59
547.093	391.15
547.447	409.02
547.802	424.34
548.157	419.23
548.511	437.11
548.866	409.02
549.22	411.57
549.574	403.91
549.929	350.29
550.283	483.07
550.637	442.21
550.991	414.13
551.345	409.02
551.699	403.91
552.053	419.23
552.407	444.77
552.761	429.45
553.115	483.07
553.469	480.51
553.823	421.79
554.176	357.95
554.53	447.32
554.884	454.98
555.237	702.66
555.591	500.94
555.944	457.53
556.298	483.07
556.651	378.38
557.005	437.11
557.358	426.89
557.711	375.83
558.064	383.49
558.417	380.93
558.771	483.07
559.124	386.04
559.477	442.21
559.83	460.09
560.182	449.87
560.535	449.87
560.888	365.61
561.241	439.66
561.594	386.04
561.946	396.25
562.299	380.93
562.651	401.36
563.004	452.43
563.356	503.49
563.709	498.39
564.061	429.45
564.413	414.13
564.766	454.98
565.118	388.59
565.47	421.79
565.822	416.68
566.174	419.23
566.526	419.23
566.878	437.11
567.23	373.27
567.582	416.68
567.934	401.36
568.286	426.89
568.638	452.43
568.989	424.34
569.341	421.79
569.693	424.34
570.044	396.25
570.396	357.95
570.747	449.87
571.098	424.34
571.45	429.45
571.801	416.68
572.152	360.51
572.504	375.83
572.855	393.7
573.206	452.43
573.557	386.04
573.908	393.7
574.259	406.47
574.61	393.7
574.961	357.95
575.311	391.15
575.662	460.09
576.013	416.68
576.364	439.66
576.714	421.79
577.065	460.09
577.415	411.57
577.766	447.32
578.116	386.04
578.467	357.95
578.817	447.32
579.167	475.41
579.518	462.64
579.868	411.57
580.218	380.93
580.568	457.53
580.918	475.41
581.268	414.13
581.618	363.06
581.968	398.81
582.318	437.11
582.668	429.45
583.017	409.02
583.367	500.94
583.717	483.07
584.066	467.75
584.416	437.11
584.765	432
585.115	426.89
585.464	327.31
585.814	380.93
586.163	406.47
586.512	434.55
586.862	406.47
587.211	324.76
587.56	419.23
587.909	350.29
588.258	388.59
588.607	421.79
588.956	432
589.305	426.89
589.654	357.95
590.002	426.89
590.351	378.38
590.7	414.13
591.048	380.93
591.397	416.68
591.746	360.51
592.094	411.57
592.443	352.84
592.791	373.27
593.139	421.79
593.488	444.77
593.836	434.55
594.184	439.66
594.532	398.81
594.88	434.55
595.228	419.23
595.576	378.38
595.924	401.36
596.272	334.97
596.62	434.55
596.968	401.36
597.316	426.89
597.664	449.87
598.011	513.71
598.359	368.17
598.706	480.51
599.054	442.21
599.402	401.36
599.749	434.55
600.096	416.68
600.444	380.93
600.791	434.55
601.138	403.91
601.485	434.55
601.833	416.68
602.18	449.87
602.527	454.98
602.874	434.55
603.221	414.13
603.568	442.21
603.914	432
604.261	368.17
604.608	373.27
604.955	403.91
605.301	419.23
605.648	444.77
605.995	493.28
606.341	475.41
606.688	454.98
607.034	375.83
607.38	398.81
607.727	398.81
608.073	373.27
608.419	403.91
608.765	416.68
609.112	411.57
609.458	447.32
609.804	419.23
610.15	465.19
610.496	416.68
610.842	439.66
611.187	462.64
611.533	380.93
611.879	388.59
612.225	432
612.57	483.07
612.916	414.13
613.261	403.91
613.607	421.79
613.952	398.81
614.298	373.27
614.643	409.02
614.989	439.66
615.334	388.59
615.679	365.61
616.024	460.09
616.369	391.15
616.714	421.79
617.059	396.25
617.404	401.36
617.749	421.79
618.094	383.49
618.439	444.77
618.784	432
619.129	429.45
619.473	444.77
619.818	383.49
620.163	414.13
620.507	327.31
620.852	432
621.196	444.77
621.54	449.87
621.885	414.13
622.229	416.68
622.573	434.55
622.918	470.3
623.262	462.64
623.606	434.55
623.95	375.83
624.294	460.09
624.638	411.57
624.982	424.34
625.326	444.77
625.67	467.75
626.013	421.79
626.357	383.49
626.701	480.51
627.044	363.06
627.388	360.51
627.731	409.02
628.075	449.87
628.418	442.21
628.762	373.27
629.105	414.13
629.448	391.15
629.792	437.11
630.135	470.3
630.478	419.23
630.821	378.38
631.164	393.7
631.507	370.72
631.85	365.61
632.193	360.51
632.536	365.61
632.879	419.23
633.221	398.81
633.564	421.79
633.907	475.41
634.249	442.21
634.592	421.79
634.935	442.21
635.277	434.55
635.619	368.17
635.962	403.91
636.304	419.23
636.646	429.45
636.989	424.34
637.331	386.04
637.673	398.81
638.015	426.89
638.357	452.43
638.699	378.38
639.041	396.25
639.383	401.36
639.725	411.57
640.067	429.45
640.408	401.36
640.75	437.11
641.092	429.45
641.433	449.87
641.775	416.68
642.116	363.06
642.458	411.57
642.799	380.93
643.141	416.68
643.482	411.57
643.823	460.09
644.164	414.13
644.506	444.77
644.847	472.85
645.188	424.34
645.529	406.47
645.87	419.23
646.211	465.19
646.552	363.06
646.893	363.06
647.233	416.68
647.574	421.79
647.915	444.77
648.255	470.3
648.596	444.77
648.937	416.68
649.277	373.27
649.618	398.81
649.958	437.11
650.298	419.23
650.639	406.47
650.979	444.77
651.319	477.96
651.659	406.47
651.999	421.79
652.339	386.04
652.679	322.2
653.019	386.04
653.359	406.47
653.699	393.7
654.039	508.6
654.379	439.66
654.719	488.17
655.058	411.57
655.398	322.2
655.737	503.49
656.077	452.43
656.416	426.89
656.756	429.45
657.095	378.38
657.435	424.34
657.774	439.66
658.113	380.93
658.452	426.89
658.792	432
659.131	454.98
659.47	401.36
659.809	414.13
660.148	416.68
660.487	429.45
660.826	363.06
661.164	414.13
661.503	444.77
661.842	391.15
662.181	416.68
662.519	419.23
662.858	439.66
663.196	388.59
663.535	454.98
663.873	416.68
664.212	375.83
664.55	467.75
664.888	365.61
665.226	363.06
665.565	365.61
665.903	641.38
666.241	447.32
666.579	472.85
666.917	409.02
667.255	421.79
667.593	426.89
667.931	508.6
668.268	403.91
668.606	416.68
668.944	439.66
669.282	432
669.619	406.47
669.957	388.59
670.294	416.68
670.632	411.57
670.969	409.02
671.307	462.64
671.644	401.36
671.981	416.68
672.318	485.62
672.656	396.25
672.993	373.27
673.33	424.34
673.667	457.53
674.004	460.09
674.341	411.57
674.678	398.81
675.015	409.02
675.351	360.51
675.688	319.65
676.025	393.7
676.362	391.15
676.698	432
677.035	393.7
677.371	373.27
677.708	460.09
678.044	429.45
678.38	434.55
678.717	378.38
679.053	383.49
679.389	411.57
679.725	401.36
680.062	439.66
680.398	437.11
680.734	383.49
681.07	393.7
681.406	378.38
681.742	370.72
682.077	401.36
682.413	475.41
682.749	454.98
683.085	396.25
683.42	419.23
683.756	383.49
684.091	434.55
684.427	424.34
684.762	401.36
685.098	386.04
685.433	409.02
685.768	444.77
686.104	414.13
686.439	409.02
686.774	401.36
687.109	396.25
687.444	429.45
687.779	409.02
688.114	432
688.449	409.02
688.784	340.08
689.119	350.29
689.454	391.15
689.789	398.81
690.123	432
690.458	409.02
690.792	470.3
691.127	414.13
691.461	416.68
691.796	429.45
692.13	483.07
692.465	426.89
692.799	378.38
693.133	360.51
693.467	396.25
693.802	414.13
694.136	401.36
694.47	437.11
694.804	506.05
695.138	426.89
695.472	429.45
695.806	393.7
696.139	396.25
696.473	454.98
696.807	406.47
697.141	426.89
697.474	424.34
697.808	498.39
698.141	434.55
698.475	401.36
698.808	462.64
699.142	363.06
699.475	350.29
699.808	403.91
700.142	434.55
700.475	444.77
700.808	383.49
701.141	429.45
701.474	393.7
701.807	414.13
702.14	424.34
702.473	398.81
702.806	401.36
703.139	383.49
703.472	352.84
703.804	409.02
704.137	375.83
704.47	363.06
704.802	352.84
705.135	352.84
705.467	386.04
705.8	380.93
706.132	409.02
706.464	363.06
706.797	383.49
707.129	401.36
707.461	414.13
707.793	411.57
708.125	414.13
708.457	388.59
708.789	424.34
709.121	383.49
709.453	378.38
709.785	388.59
710.117	462.64
710.449	424.34
710.781	409.02
711.112	386.04
711.444	406.47
711.775	444.77
712.107	419.23
712.438	467.75
712.77	447.32
713.101	421.79
713.433	429.45
713.764	365.61
714.095	391.15
714.426	365.61
714.757	403.91
715.089	411.57
715.42	421.79
715.751	398.81
716.082	370.72
716.412	352.84
716.743	373.27
717.074	388.59
717.405	421.79
717.736	449.87
718.066	373.27
718.397	480.51
718.727	426.89
719.058	460.09
719.388	442.21
719.719	475.41
720.049	426.89
720.38	447.32
720.71	391.15
721.04	373.27
721.37	352.84
721.7	380.93
722.031	426.89
722.361	301.78
722.691	419.23
723.021	409.02
723.35	403.91
723.68	421.79
724.01	398.81
724.34	477.96
724.67	391.15
724.999	419.23
725.329	398.81
725.658	426.89
725.988	462.64
726.317	439.66
726.647	447.32
726.976	416.68
727.306	319.65
727.635	368.17
727.964	401.36
728.293	467.75
728.622	477.96
728.952	393.7
729.281	386.04
729.61	393.7
729.939	406.47
730.267	350.29
730.596	414.13
730.925	447.32
731.254	444.77
731.583	416.68
731.911	414.13
732.24	444.77
732.568	493.28
732.897	378.38
733.225	396.25
733.554	393.7
733.882	403.91
734.21	398.81
734.539	406.47
734.867	401.36
735.195	388.59
735.523	368.17
735.851	442.21
736.179	411.57
736.507	414.13
736.835	375.83
737.163	426.89
737.491	500.94
737.819	454.98
738.147	414.13
738.474	411.57
738.802	467.75
739.13	457.53
739.457	465.19
739.785	398.81
740.112	398.81
740.44	416.68
740.767	462.64
741.094	449.87
741.422	421.79
741.749	406.47
742.076	442.21
742.403	414.13
742.73	401.36
743.057	393.7
743.384	396.25
743.711	429.45
744.038	368.17
744.365	521.37
744.692	429.45
745.018	396.25
745.345	437.11
745.672	416.68
745.998	406.47
746.325	426.89
746.651	391.15
746.978	401.36
747.304	442.21
747.631	365.61
747.957	345.18
748.283	414.13
748.61	378.38
748.936	378.38
749.262	406.47
749.588	370.72
749.914	409.02
750.24	442.21
750.566	406.47
750.892	386.04
751.218	409.02
751.543	391.15
751.869	403.91
752.195	472.85
752.521	411.57
752.846	391.15
753.172	414.13
753.497	373.27
753.823	398.81
754.148	439.66
754.473	419.23
754.799	460.09
755.124	398.81
755.449	370.72
755.774	370.72
756.1	411.57
756.425	365.61
756.75	396.25
757.075	434.55
757.4	521.37
757.724	429.45
758.049	370.72
758.374	426.89
758.699	409.02
759.024	437.11
759.348	457.53
759.673	393.7
759.997	432
760.322	401.36
760.646	370.72
760.971	355.4
761.295	368.17
761.619	419.23
761.944	383.49
762.268	414.13
762.592	437.11
762.916	437.11
763.24	467.75
763.564	480.51
763.888	449.87
764.212	452.43
764.536	544.35
764.86	493.28
765.184	483.07
765.508	483.07
765.831	403.91
766.155	735.85
766.478	475.41
766.802	511.15
767.126	460.09
767.449	531.58
767.772	574.99
768.096	562.22
768.419	529.03
768.742	600.52
769.066	559.67
769.389	562.22
769.712	646.48
770.035	651.59
770.358	763.94
770.681	748.62
771.004	687.34
771.327	695
771.65	620.95
771.972	672.02
772.295	771.6
772.618	740.96
772.941	758.83
773.263	763.94
773.586	697.55
773.908	929.91
774.231	894.16
774.553	909.48
774.875	978.42
775.198	1006.51
775.52	1024.38
775.842	1001.4
776.164	963.1
776.487	1024.38
776.809	1062.68
777.131	1026.94
777.453	1014.17
777.775	1088.22
778.096	1113.75
778.418	1065.24
778.74	1103.54
779.062	1123.97
779.384	1175.03
779.705	1315.47
780.027	1399.73
780.348	1346.11
780.67	1341
780.991	1438.03
781.313	1468.67
781.634	1478.88
781.955	1504.42
782.277	1455.9
782.598	1560.59
782.919	1555.49
783.24	1473.78
783.561	1629.53
783.882	1506.97
784.203	1637.19
784.524	1588.68
784.845	1634.64
785.166	1593.79
785.487	1629.53
785.807	1614.21
786.128	1649.96
786.449	1540.17
786.769	1626.98
787.09	1752.1
787.41	1810.82
787.731	1961.47
788.051	2076.38
788.372	2140.21
788.692	2186.17
789.012	2288.31
789.332	2173.4
789.653	2211.7
789.973	2354.69
790.293	2341.93
790.613	2173.4
790.933	2066.16
791.253	2027.86
791.573	2119.78
791.893	2237.24
792.212	2142.76
792.532	2242.34
792.852	2089.14
793.171	1981.9
793.491	1877.21
793.811	1928.28
794.13	1884.87
794.45	1767.42
794.769	1713.8
795.088	1769.97
795.408	1769.97
795.727	1701.03
796.046	1795.5
796.365	1805.72
796.684	1808.27
797.004	1706.14
797.323	1849.12
797.642	2204.04
797.96	2331.71
798.279	2464.49
798.598	2306.18
798.917	2142.76
799.236	2122.34
799.554	2007.43
799.873	1930.83
800.192	1810.82
