Data from 2025-12-03_xpw_interference_micrometer_634_reference_FLMS141361__22__472.txt Node

Date: Wed Dec 03 15:52:21 MST 2025
User: james
Spectrometer: FLMS14136
Trigger mode: 0
Integration Time (sec): 1.000000E-1
Scans to average: 1
Electric dark correction enabled: true
Nonlinearity correction enabled: false
Boxcar width: 0
XAxis mode: Wavelengths
Number of Pixels in Spectrum: 2048
>>>>>Begin Spectral Data<<<<<
339.315	-22.02
339.697	-22.02
340.079	-22.02
340.461	-129.26
340.843	-65.43
341.225	-88.41
341.607	-90.96
341.989	-55.22
342.371	-121.6
342.752	-88.41
343.134	11.17
343.516	-14.36
343.897	13.72
344.279	-50.11
344.661	-65.43
345.042	46.92
345.423	90.33
345.805	57.13
346.186	92.88
346.567	151.61
346.949	110.75
347.33	207.78
347.711	202.67
348.092	215.44
348.473	253.74
348.854	258.85
349.235	266.51
349.616	233.31
349.997	343.11
350.378	396.73
350.758	281.83
351.139	292.04
351.52	289.49
351.9	330.34
352.281	335.45
352.661	417.16
353.042	335.45
353.422	307.36
353.803	429.93
354.183	345.66
354.563	432.48
354.943	386.52
355.324	373.75
355.704	332.9
356.084	304.81
356.464	358.43
356.844	473.33
357.224	412.05
357.603	376.3
357.983	376.3
358.363	378.86
358.743	368.64
359.122	281.83
359.502	355.88
359.882	391.62
360.261	399.28
360.641	363.54
361.02	299.7
361.399	330.34
361.779	327.79
362.158	399.28
362.537	366.09
362.916	373.75
363.296	358.43
363.675	332.9
364.054	338
364.433	335.45
364.812	350.77
365.19	338
365.569	320.13
365.948	338
366.327	371.2
366.705	353.32
367.084	358.43
367.463	322.68
367.841	286.94
368.22	414.6
368.598	309.92
368.977	353.32
369.355	335.45
369.733	271.62
370.111	330.34
370.49	353.32
370.868	289.49
371.246	360.98
371.624	325.24
372.002	343.11
372.38	391.62
372.758	368.64
373.136	338
373.513	355.88
373.891	432.48
374.269	353.32
374.646	312.47
375.024	338
375.402	366.09
375.779	368.64
376.157	340.56
376.534	350.77
376.911	338
377.289	340.56
377.666	343.11
378.043	327.79
378.42	338
378.797	404.39
379.175	358.43
379.552	366.09
379.929	312.47
380.305	368.64
380.682	396.73
381.059	419.71
381.436	381.41
381.813	320.13
382.189	353.32
382.566	330.34
382.943	322.68
383.319	343.11
383.696	343.11
384.072	340.56
384.448	404.39
384.825	309.92
385.201	325.24
385.577	376.3
385.953	378.86
386.329	304.81
386.706	281.83
387.082	325.24
387.458	355.88
387.834	327.79
388.209	325.24
388.585	335.45
388.961	325.24
389.337	371.2
389.713	343.11
390.088	381.41
390.464	330.34
390.839	386.52
391.215	378.86
391.59	427.37
391.966	368.64
392.341	358.43
392.716	315.02
393.092	368.64
393.467	360.98
393.842	424.82
394.217	363.54
394.592	345.66
394.967	404.39
395.342	358.43
395.717	325.24
396.092	391.62
396.467	366.09
396.841	345.66
397.216	348.22
397.591	391.62
397.965	343.11
398.34	350.77
398.714	417.16
399.089	353.32
399.463	383.96
399.838	330.34
400.212	368.64
400.586	396.73
400.961	427.37
401.335	427.37
401.709	373.75
402.083	353.32
402.457	289.49
402.831	422.26
403.205	376.3
403.579	412.05
403.953	325.24
404.326	358.43
404.7	338
405.074	417.16
405.447	424.82
405.821	381.41
406.195	394.18
406.568	343.11
406.942	391.62
407.315	355.88
407.688	358.43
408.062	432.48
408.435	299.7
408.808	363.54
409.181	330.34
409.554	378.86
409.927	373.75
410.3	343.11
410.673	422.26
411.046	368.64
411.419	363.54
411.792	386.52
412.165	401.84
412.537	378.86
412.91	394.18
413.283	386.52
413.655	309.92
414.028	343.11
414.4	343.11
414.773	355.88
415.145	355.88
415.517	383.96
415.889	381.41
416.262	386.52
416.634	330.34
417.006	381.41
417.378	458.01
417.75	394.18
418.122	427.37
418.494	368.64
418.866	383.96
419.238	360.98
419.609	396.73
419.981	391.62
420.353	343.11
420.725	371.2
421.096	363.54
421.468	401.84
421.839	414.6
422.211	386.52
422.582	394.18
422.953	340.56
423.325	383.96
423.696	366.09
424.067	422.26
424.438	386.52
424.809	399.28
425.18	345.66
425.551	437.59
425.922	409.5
426.293	442.69
426.664	409.5
427.035	437.59
427.406	350.77
427.776	389.07
428.147	276.72
428.518	399.28
428.888	381.41
429.259	378.86
429.629	440.14
429.999	429.93
430.37	373.75
430.74	389.07
431.11	389.07
431.481	414.6
431.851	343.11
432.221	366.09
432.591	363.54
432.961	419.71
433.331	381.41
433.701	345.66
434.071	386.52
434.441	391.62
434.81	470.78
435.18	368.64
435.55	345.66
435.919	355.88
436.289	358.43
436.658	353.32
437.028	435.03
437.397	417.16
437.767	437.59
438.136	373.75
438.505	432.48
438.875	396.73
439.244	447.8
439.613	366.09
439.982	442.69
440.351	419.71
440.72	406.94
441.089	330.34
441.458	320.13
441.827	414.6
442.196	368.64
442.564	509.08
442.933	378.86
443.302	409.5
443.67	401.84
444.039	378.86
444.407	427.37
444.776	414.6
445.144	383.96
445.513	409.5
445.881	435.03
446.249	468.23
446.617	401.84
446.986	376.3
447.354	312.47
447.722	371.2
448.09	432.48
448.458	389.07
448.826	406.94
449.194	437.59
449.561	383.96
449.929	394.18
450.297	373.75
450.665	371.2
451.032	401.84
451.4	355.88
451.767	360.98
452.135	376.3
452.502	399.28
452.87	389.07
453.237	422.26
453.604	389.07
453.971	366.09
454.339	373.75
454.706	363.54
455.073	332.9
455.44	353.32
455.807	396.73
456.174	412.05
456.541	422.26
456.908	350.77
457.274	309.92
457.641	371.2
458.008	404.39
458.374	353.32
458.741	409.5
459.108	389.07
459.474	373.75
459.841	294.6
460.207	422.26
460.573	389.07
460.94	363.54
461.306	401.84
461.672	355.88
462.038	368.64
462.404	409.5
462.771	381.41
463.137	435.03
463.503	447.8
463.868	424.82
464.234	389.07
464.6	429.93
464.966	452.91
465.332	376.3
465.697	335.45
466.063	399.28
466.429	358.43
466.794	424.82
467.16	432.48
467.525	427.37
467.89	348.22
468.256	445.25
468.621	360.98
468.986	445.25
469.351	417.16
469.717	399.28
470.082	340.56
470.447	404.39
470.812	401.84
471.177	463.12
471.542	419.71
471.906	501.42
472.271	412.05
472.636	389.07
473.001	297.15
473.365	378.86
473.73	440.14
474.094	465.67
474.459	378.86
474.823	373.75
475.188	373.75
475.552	348.22
475.917	371.2
476.281	440.14
476.645	452.91
477.009	442.69
477.373	435.03
477.737	353.32
478.101	409.5
478.465	363.54
478.829	424.82
479.193	335.45
479.557	391.62
479.921	445.25
480.284	376.3
480.648	406.94
481.012	304.81
481.375	353.32
481.739	376.3
482.102	412.05
482.466	417.16
482.829	524.4
483.193	437.59
483.556	417.16
483.919	399.28
484.282	401.84
484.645	353.32
485.009	376.3
485.372	422.26
485.735	358.43
486.098	404.39
486.46	396.73
486.823	345.66
487.186	327.79
487.549	368.64
487.912	355.88
488.274	447.8
488.637	463.12
488.999	445.25
489.362	424.82
489.724	396.73
490.087	442.69
490.449	424.82
490.811	371.2
491.174	371.2
491.536	335.45
491.898	343.11
492.26	452.91
492.622	394.18
492.984	338
493.346	386.52
493.708	483.55
494.07	435.03
494.432	401.84
494.794	440.14
495.155	391.62
495.517	429.93
495.879	396.73
496.24	409.5
496.602	373.75
496.963	363.54
497.325	373.75
497.686	473.33
498.048	399.28
498.409	417.16
498.77	401.84
499.131	396.73
499.492	404.39
499.854	399.28
500.215	447.8
500.576	404.39
500.937	350.77
501.298	381.41
501.658	389.07
502.019	422.26
502.38	381.41
502.741	414.6
503.101	389.07
503.462	363.54
503.823	419.71
504.183	383.96
504.543	432.48
504.904	404.39
505.264	452.91
505.625	419.71
505.985	330.34
506.345	383.96
506.705	437.59
507.065	429.93
507.426	414.6
507.786	383.96
508.146	355.88
508.505	417.16
508.865	373.75
509.225	401.84
509.585	473.33
509.945	376.3
510.304	386.52
510.664	452.91
511.024	414.6
511.383	389.07
511.743	422.26
512.102	412.05
512.462	378.86
512.821	381.41
513.18	450.35
513.539	414.6
513.899	389.07
514.258	399.28
514.617	378.86
514.976	343.11
515.335	417.16
515.694	383.96
516.053	327.79
516.412	322.68
516.771	417.16
517.129	381.41
517.488	360.98
517.847	353.32
518.205	422.26
518.564	427.37
518.922	424.82
519.281	429.93
519.639	406.94
519.998	450.35
520.356	376.3
520.714	447.8
521.073	435.03
521.431	422.26
521.789	322.68
522.147	335.45
522.505	412.05
522.863	422.26
523.221	399.28
523.579	381.41
523.937	473.33
524.295	424.82
524.652	404.39
525.01	414.6
525.368	378.86
525.725	404.39
526.083	427.37
526.44	422.26
526.798	386.52
527.155	414.6
527.513	437.59
527.87	391.62
528.227	389.07
528.584	417.16
528.942	401.84
529.299	432.48
529.656	414.6
530.013	363.54
530.37	468.23
530.727	389.07
531.083	409.5
531.44	386.52
531.797	417.16
532.154	360.98
532.511	429.93
532.867	409.5
533.224	391.62
533.58	355.88
533.937	363.54
534.293	363.54
534.65	445.25
535.006	383.96
535.362	371.2
535.718	360.98
536.075	412.05
536.431	396.73
536.787	427.37
537.143	404.39
537.499	373.75
537.855	419.71
538.211	401.84
538.567	381.41
538.923	412.05
539.278	376.3
539.634	450.35
539.99	435.03
540.345	378.86
540.701	358.43
541.056	396.73
541.412	378.86
541.767	432.48
542.123	440.14
542.478	363.54
542.833	458.01
543.188	378.86
543.544	399.28
543.899	399.28
544.254	412.05
544.609	360.98
544.964	327.79
545.319	394.18
545.674	378.86
546.029	419.71
546.383	440.14
546.738	353.32
547.093	360.98
547.447	383.96
547.802	419.71
548.157	358.43
548.511	406.94
548.866	383.96
549.22	447.8
549.574	322.68
549.929	440.14
550.283	422.26
550.637	401.84
550.991	396.73
551.345	350.77
551.699	358.43
552.053	394.18
552.407	383.96
552.761	386.52
553.115	399.28
553.469	343.11
553.823	376.3
554.176	360.98
554.53	401.84
554.884	353.32
555.237	595.89
555.591	452.91
555.944	383.96
556.298	394.18
556.651	401.84
557.005	450.35
557.358	424.82
557.711	432.48
558.064	422.26
558.417	378.86
558.771	480.99
559.124	406.94
559.477	353.32
559.83	373.75
560.182	368.64
560.535	399.28
560.888	452.91
561.241	355.88
561.594	325.24
561.946	383.96
562.299	409.5
562.651	394.18
563.004	386.52
563.356	437.59
563.709	386.52
564.061	440.14
564.413	366.09
564.766	360.98
565.118	437.59
565.47	325.24
565.822	435.03
566.174	391.62
566.526	373.75
566.878	412.05
567.23	371.2
567.582	391.62
567.934	348.22
568.286	381.41
568.638	419.71
568.989	399.28
569.341	440.14
569.693	419.71
570.044	368.64
570.396	424.82
570.747	455.46
571.098	429.93
571.45	404.39
571.801	429.93
572.152	386.52
572.504	391.62
572.855	409.5
573.206	427.37
573.557	409.5
573.908	432.48
574.259	465.67
574.61	409.5
574.961	386.52
575.311	399.28
575.662	424.82
576.013	396.73
576.364	435.03
576.714	458.01
577.065	445.25
577.415	406.94
577.766	396.73
578.116	452.91
578.467	350.77
578.817	366.09
579.167	447.8
579.518	463.12
579.868	440.14
580.218	378.86
580.568	406.94
580.918	355.88
581.268	414.6
581.618	424.82
581.968	383.96
582.318	396.73
582.668	432.48
583.017	350.77
583.367	463.12
583.717	386.52
584.066	381.41
584.416	332.9
584.765	363.54
585.115	404.39
585.464	396.73
585.814	399.28
586.163	422.26
586.512	386.52
586.862	381.41
587.211	437.59
587.56	460.57
587.909	419.71
588.258	391.62
588.607	389.07
588.956	452.91
589.305	363.54
589.654	373.75
590.002	404.39
590.351	327.79
590.7	389.07
591.048	401.84
591.397	432.48
591.746	345.66
592.094	419.71
592.443	414.6
592.791	409.5
593.139	383.96
593.488	422.26
593.836	348.22
594.184	417.16
594.532	383.96
594.88	391.62
595.228	429.93
595.576	435.03
595.924	422.26
596.272	396.73
596.62	373.75
596.968	338
597.316	320.13
597.664	358.43
598.011	422.26
598.359	503.97
598.706	399.28
599.054	383.96
599.402	358.43
599.749	343.11
600.096	327.79
600.444	389.07
600.791	432.48
601.138	470.78
601.485	406.94
601.833	445.25
602.18	358.43
602.527	394.18
602.874	429.93
603.221	437.59
603.568	406.94
603.914	409.5
604.261	396.73
604.608	445.25
604.955	432.48
605.301	412.05
605.648	373.75
605.995	396.73
606.341	437.59
606.688	358.43
607.034	414.6
607.38	391.62
607.727	422.26
608.073	386.52
608.419	450.35
608.765	396.73
609.112	348.22
609.458	368.64
609.804	447.8
610.15	394.18
610.496	432.48
610.842	429.93
611.187	353.32
611.533	345.66
611.879	386.52
612.225	383.96
612.57	414.6
612.916	412.05
613.261	335.45
613.607	412.05
613.952	422.26
614.298	371.2
614.643	394.18
614.989	442.69
615.334	465.67
615.679	414.6
616.024	404.39
616.369	350.77
616.714	368.64
617.059	386.52
617.404	447.8
617.749	463.12
618.094	373.75
618.439	450.35
618.784	417.16
619.129	422.26
619.473	297.15
619.818	355.88
620.163	363.54
620.507	432.48
620.852	373.75
621.196	419.71
621.54	437.59
621.885	422.26
622.229	419.71
622.573	386.52
622.918	368.64
623.262	417.16
623.606	419.71
623.95	470.78
624.294	340.56
624.638	394.18
624.982	412.05
625.326	373.75
625.67	445.25
626.013	429.93
626.357	401.84
626.701	409.5
627.044	417.16
627.388	355.88
627.731	409.5
628.075	404.39
628.418	373.75
628.762	371.2
629.105	401.84
629.448	429.93
629.792	417.16
630.135	355.88
630.478	373.75
630.821	358.43
631.164	338
631.507	478.44
631.85	422.26
632.193	360.98
632.536	455.46
632.879	338
633.221	366.09
633.564	414.6
633.907	429.93
634.249	422.26
634.592	368.64
634.935	381.41
635.277	345.66
635.619	373.75
635.962	373.75
636.304	414.6
636.646	378.86
636.989	371.2
637.331	371.2
637.673	412.05
638.015	432.48
638.357	389.07
638.699	440.14
639.041	424.82
639.383	445.25
639.725	322.68
640.067	404.39
640.408	404.39
640.75	360.98
641.092	458.01
641.433	396.73
641.775	463.12
642.116	412.05
642.458	394.18
642.799	401.84
643.141	412.05
643.482	307.36
643.823	414.6
644.164	432.48
644.506	501.42
644.847	429.93
645.188	373.75
645.529	406.94
645.87	353.32
646.211	404.39
646.552	419.71
646.893	432.48
647.233	422.26
647.574	386.52
647.915	355.88
648.255	358.43
648.596	394.18
648.937	363.54
649.277	427.37
649.618	412.05
649.958	435.03
650.298	406.94
650.639	396.73
650.979	412.05
651.319	409.5
651.659	335.45
651.999	386.52
652.339	412.05
652.679	419.71
653.019	368.64
653.359	473.33
653.699	376.3
654.039	368.64
654.379	389.07
654.719	348.22
655.058	358.43
655.398	299.7
655.737	373.75
656.077	404.39
656.416	383.96
656.756	399.28
657.095	358.43
657.435	376.3
657.774	315.02
658.113	401.84
658.452	368.64
658.792	409.5
659.131	406.94
659.47	422.26
659.809	445.25
660.148	378.86
660.487	440.14
660.826	366.09
661.164	440.14
661.503	447.8
661.842	404.39
662.181	399.28
662.519	355.88
662.858	363.54
663.196	412.05
663.535	320.13
663.873	378.86
664.212	412.05
664.55	442.69
664.888	404.39
665.226	450.35
665.565	373.75
665.903	603.55
666.241	389.07
666.579	412.05
666.917	373.75
667.255	371.2
667.593	419.71
667.931	414.6
668.268	373.75
668.606	366.09
668.944	409.5
669.282	363.54
669.619	406.94
669.957	437.59
670.294	386.52
670.632	343.11
670.969	422.26
671.307	391.62
671.644	417.16
671.981	406.94
672.318	473.33
672.656	475.89
672.993	378.86
673.33	412.05
673.667	376.3
674.004	399.28
674.341	422.26
674.678	373.75
675.015	404.39
675.351	376.3
675.688	419.71
676.025	389.07
676.362	340.56
676.698	417.16
677.035	345.66
677.371	348.22
677.708	373.75
678.044	373.75
678.38	391.62
678.717	442.69
679.053	414.6
679.389	401.84
679.725	376.3
680.062	363.54
680.398	440.14
680.734	468.23
681.07	394.18
681.406	417.16
681.742	427.37
682.077	465.67
682.413	360.98
682.749	381.41
683.085	401.84
683.42	401.84
683.756	381.41
684.091	358.43
684.427	429.93
684.762	373.75
685.098	373.75
685.433	424.82
685.768	404.39
686.104	348.22
686.439	345.66
686.774	406.94
687.109	371.2
687.444	376.3
687.779	404.39
688.114	355.88
688.449	386.52
688.784	429.93
689.119	366.09
689.454	386.52
689.789	432.48
690.123	371.2
690.458	358.43
690.792	427.37
691.127	437.59
691.461	353.32
691.796	394.18
692.13	419.71
692.465	340.56
692.799	381.41
693.133	396.73
693.467	412.05
693.802	435.03
694.136	343.11
694.47	435.03
694.804	396.73
695.138	475.89
695.472	432.48
695.806	417.16
696.139	371.2
696.473	335.45
696.807	345.66
697.141	424.82
697.474	360.98
697.808	389.07
698.141	432.48
698.475	422.26
698.808	401.84
699.142	373.75
699.475	348.22
699.808	317.58
700.142	460.57
700.475	409.5
700.808	355.88
701.141	358.43
701.474	445.25
701.807	460.57
702.14	424.82
702.473	366.09
702.806	338
703.139	366.09
703.472	378.86
703.804	371.2
704.137	345.66
704.47	450.35
704.802	360.98
705.135	389.07
705.467	368.64
705.8	417.16
706.132	455.46
706.464	409.5
706.797	353.32
707.129	343.11
707.461	422.26
707.793	406.94
708.125	440.14
708.457	417.16
708.789	391.62
709.121	358.43
709.453	360.98
709.785	383.96
710.117	315.02
710.449	332.9
710.781	297.15
711.112	332.9
711.444	284.38
711.775	386.52
712.107	396.73
712.438	389.07
712.77	366.09
713.101	340.56
713.433	391.62
713.764	427.37
714.095	363.54
714.426	386.52
714.757	445.25
715.089	435.03
715.42	401.84
715.751	401.84
716.082	391.62
716.412	396.73
716.743	473.33
717.074	389.07
717.405	368.64
717.736	378.86
718.066	422.26
718.397	404.39
718.727	394.18
719.058	399.28
719.388	435.03
719.719	358.43
720.049	366.09
720.38	371.2
720.71	353.32
721.04	437.59
721.37	450.35
721.7	381.41
722.031	383.96
722.361	447.8
722.691	360.98
723.021	440.14
723.35	368.64
723.68	371.2
724.01	396.73
724.34	424.82
724.67	440.14
724.999	332.9
725.329	353.32
725.658	412.05
725.988	381.41
726.317	373.75
726.647	417.16
726.976	412.05
727.306	378.86
727.635	389.07
727.964	432.48
728.293	366.09
728.622	373.75
728.952	460.57
729.281	404.39
729.61	378.86
729.939	406.94
730.267	371.2
730.596	429.93
730.925	396.73
731.254	348.22
731.583	401.84
731.911	332.9
732.24	465.67
732.568	396.73
732.897	363.54
733.225	399.28
733.554	417.16
733.882	360.98
734.21	335.45
734.539	391.62
734.867	358.43
735.195	345.66
735.523	348.22
735.851	381.41
736.179	302.26
736.507	363.54
736.835	412.05
737.163	429.93
737.491	378.86
737.819	417.16
738.147	376.3
738.474	394.18
738.802	414.6
739.13	414.6
739.457	391.62
739.785	350.77
740.112	376.3
740.44	422.26
740.767	396.73
741.094	419.71
741.422	348.22
741.749	401.84
742.076	353.32
742.403	325.24
742.73	363.54
743.057	486.1
743.384	394.18
743.711	381.41
744.038	396.73
744.365	524.4
744.692	401.84
745.018	452.91
745.345	419.71
745.672	360.98
745.998	353.32
746.325	343.11
746.651	399.28
746.978	409.5
747.304	486.1
747.631	386.52
747.957	473.33
748.283	450.35
748.61	363.54
748.936	412.05
749.262	422.26
749.588	409.5
749.914	368.64
750.24	355.88
750.566	404.39
750.892	429.93
751.218	383.96
751.543	327.79
751.869	294.6
752.195	381.41
752.521	404.39
752.846	417.16
753.172	409.5
753.497	412.05
753.823	404.39
754.148	391.62
754.473	376.3
754.799	378.86
755.124	343.11
755.449	401.84
755.774	404.39
756.1	386.52
756.425	383.96
756.75	401.84
757.075	373.75
757.4	524.4
757.724	371.2
758.049	376.3
758.374	353.32
758.699	371.2
759.024	368.64
759.348	399.28
759.673	432.48
759.997	396.73
760.322	435.03
760.646	378.86
760.971	404.39
761.295	394.18
761.619	412.05
761.944	432.48
762.268	348.22
762.592	412.05
762.916	473.33
763.24	424.82
763.564	409.5
763.888	450.35
764.212	465.67
764.536	480.99
764.86	468.23
765.184	404.39
765.508	460.57
765.831	478.44
766.155	705.69
766.478	524.4
766.802	478.44
767.126	521.85
767.449	524.4
767.772	547.38
768.096	516.74
768.419	539.72
768.742	618.87
769.066	532.06
769.389	636.75
769.712	641.86
770.035	631.64
770.358	657.18
770.681	700.58
771.004	731.22
771.327	723.56
771.65	774.63
771.972	787.4
772.295	795.06
772.618	825.7
772.941	795.06
773.263	820.59
773.586	874.21
773.908	938.05
774.231	1040.18
774.553	989.11
774.875	1037.63
775.198	1147.42
775.52	1198.49
775.842	1060.61
776.164	1096.36
776.487	1096.36
776.809	1068.27
777.131	1114.23
777.453	1070.82
777.775	1068.27
778.096	1211.26
778.418	1239.35
778.74	1180.62
779.062	1167.85
779.384	1305.73
779.705	1407.87
780.027	1492.13
780.348	1555.96
780.67	1405.32
780.991	1622.35
781.313	1719.38
781.634	1721.93
781.955	1670.87
782.277	1668.31
782.598	1658.1
782.919	1783.22
783.24	1581.5
783.561	1714.27
783.882	1721.93
784.203	1803.64
784.524	1719.38
784.845	1724.49
785.166	1637.67
785.487	1750.02
785.807	1775.56
786.128	1767.9
786.449	1729.59
786.769	1936.42
787.09	1956.85
787.41	2005.36
787.731	2253.04
788.051	2329.64
788.372	2276.02
788.692	2378.15
789.012	2396.03
789.332	2306.66
789.653	2441.99
789.973	2582.42
790.293	2536.46
790.613	2342.41
790.933	2255.59
791.253	2426.67
791.573	2454.75
791.893	2253.04
792.212	2186.65
792.532	2255.59
792.852	2296.44
793.171	2140.69
793.491	2051.32
793.811	2110.05
794.13	2097.28
794.45	2010.47
794.769	1918.54
795.088	1811.3
795.408	1923.65
795.727	1926.2
796.046	1903.22
796.365	1959.4
796.684	1849.6
797.004	1773
797.323	1944.08
797.642	2273.46
797.96	2500.71
798.279	2513.48
798.598	2490.5
798.917	2375.6
799.236	2301.55
799.554	2056.43
799.873	1926.2
800.192	1984.93
800.51	2081.96
800.829	2099.83
801.147	2064.09
