Data from 2025-12-03_xpw_interference_micrometer_634_reference_FLMS141361__99__549.txt Node

Date: Wed Dec 03 15:52:29 MST 2025
User: james
Spectrometer: FLMS14136
Trigger mode: 0
Integration Time (sec): 1.000000E-1
Scans to average: 1
Electric dark correction enabled: true
Nonlinearity correction enabled: false
Boxcar width: 0
XAxis mode: Wavelengths
Number of Pixels in Spectrum: 2048
>>>>>Begin Spectral Data<<<<<
339.315	-33.83
339.697	-33.83
340.079	-33.83
340.461	-74.69
340.843	-97.67
341.225	-107.88
341.607	-174.27
341.989	-46.6
342.371	-143.63
342.752	-69.58
343.134	-54.26
343.516	-41.49
343.897	7.02
344.279	-21.07
344.661	47.88
345.042	30
345.423	40.22
345.805	116.82
346.186	116.82
346.567	157.67
346.949	142.35
347.33	183.2
347.711	195.97
348.092	257.25
348.473	211.29
348.854	213.85
349.235	239.38
349.616	267.47
349.997	293
350.378	264.91
350.758	270.02
351.139	318.53
351.52	379.81
351.9	346.62
352.281	310.87
352.661	313.43
353.042	303.21
353.422	487.06
353.803	428.33
354.183	400.24
354.563	402.8
354.943	402.8
355.324	413.01
355.704	361.94
356.084	395.14
356.464	492.16
356.844	415.56
357.224	420.67
357.603	384.92
357.983	392.58
358.363	384.92
358.743	413.01
359.122	354.28
359.502	402.8
359.882	349.17
360.261	361.94
360.641	354.28
361.02	361.94
361.399	364.49
361.779	308.32
362.158	323.64
362.537	351.73
362.916	349.17
363.296	361.94
363.675	313.43
364.054	285.34
364.433	338.96
364.812	354.28
365.19	338.96
365.569	402.8
365.948	290.45
366.327	318.53
366.705	382.37
367.084	298.11
367.463	349.17
367.841	349.17
368.22	364.49
368.598	349.17
368.977	298.11
369.355	374.71
369.733	308.32
370.111	310.87
370.49	338.96
370.868	308.32
371.246	367.05
371.624	298.11
372.002	298.11
372.38	277.68
372.758	282.79
373.136	295.55
373.513	318.53
373.891	282.79
374.269	349.17
374.646	305.77
375.024	326.19
375.402	303.21
375.779	397.69
376.157	374.71
376.534	310.87
376.911	315.98
377.289	315.98
377.666	367.05
378.043	305.77
378.42	354.28
378.797	351.73
379.175	326.19
379.552	331.3
379.929	305.77
380.305	418.12
380.682	400.24
381.059	290.45
381.436	318.53
381.813	377.26
382.189	336.41
382.566	257.25
382.943	349.17
383.319	323.64
383.696	249.59
384.072	315.98
384.448	364.49
384.825	328.75
385.201	336.41
385.577	405.35
385.953	361.94
386.329	346.62
386.706	354.28
387.082	372.15
387.458	367.05
387.834	298.11
388.209	413.01
388.585	295.55
388.961	323.64
389.337	382.37
389.713	410.46
390.088	369.6
390.464	351.73
390.839	315.98
391.215	277.68
391.59	344.07
391.966	395.14
392.341	420.67
392.716	377.26
393.092	364.49
393.467	326.19
393.842	356.83
394.217	446.2
394.592	469.18
394.967	407.9
395.342	387.48
395.717	387.48
396.092	392.58
396.467	387.48
396.841	346.62
397.216	351.73
397.591	336.41
397.965	359.39
398.34	413.01
398.714	387.48
399.089	308.32
399.463	418.12
399.838	379.81
400.212	313.43
400.586	336.41
400.961	313.43
401.335	377.26
401.709	379.81
402.083	336.41
402.457	326.19
402.831	346.62
403.205	346.62
403.579	333.85
403.953	367.05
404.326	351.73
404.7	377.26
405.074	305.77
405.447	377.26
405.821	367.05
406.195	328.75
406.568	407.9
406.942	479.4
407.315	448.76
407.688	392.58
408.062	318.53
408.435	341.51
408.808	377.26
409.181	341.51
409.554	354.28
409.927	298.11
410.3	395.14
410.673	336.41
411.046	390.03
411.419	367.05
411.792	384.92
412.165	397.69
412.537	402.8
412.91	384.92
413.283	407.9
413.655	351.73
414.028	397.69
414.4	390.03
414.773	336.41
415.145	407.9
415.517	420.67
415.889	392.58
416.262	359.39
416.634	331.3
417.006	392.58
417.378	425.78
417.75	349.17
418.122	400.24
418.494	359.39
418.866	364.49
419.238	356.83
419.609	374.71
419.981	466.63
420.353	390.03
420.725	372.15
421.096	326.19
421.468	387.48
421.839	387.48
422.211	405.35
422.582	410.46
422.953	382.37
423.325	407.9
423.696	428.33
424.067	361.94
424.438	379.81
424.809	374.71
425.18	448.76
425.551	372.15
425.922	405.35
426.293	374.71
426.664	290.45
427.035	382.37
427.406	400.24
427.776	382.37
428.147	326.19
428.518	410.46
428.888	298.11
429.259	415.56
429.629	338.96
429.999	321.09
430.37	344.07
430.74	410.46
431.11	361.94
431.481	384.92
431.851	359.39
432.221	418.12
432.591	461.52
432.961	354.28
433.331	331.3
433.701	364.49
434.071	326.19
434.441	405.35
434.81	367.05
435.18	369.6
435.55	351.73
435.919	367.05
436.289	372.15
436.658	428.33
437.028	374.71
437.397	405.35
437.767	377.26
438.136	354.28
438.505	407.9
438.875	448.76
439.244	479.4
439.613	295.55
439.982	397.69
440.351	382.37
440.72	443.65
441.089	372.15
441.458	382.37
441.827	382.37
442.196	364.49
442.564	379.81
442.933	476.84
443.302	451.31
443.67	369.6
444.039	315.98
444.407	374.71
444.776	361.94
445.144	415.56
445.513	379.81
445.881	315.98
446.249	346.62
446.617	344.07
446.986	397.69
447.354	435.99
447.722	336.41
448.09	377.26
448.458	361.94
448.826	361.94
449.194	351.73
449.561	407.9
449.929	346.62
450.297	349.17
450.665	344.07
451.032	379.81
451.4	372.15
451.767	336.41
452.135	384.92
452.502	382.37
452.87	364.49
453.237	425.78
453.604	361.94
453.971	351.73
454.339	415.56
454.706	361.94
455.073	387.48
455.44	333.85
455.807	384.92
456.174	387.48
456.541	390.03
456.908	361.94
457.274	382.37
457.641	382.37
458.008	351.73
458.374	364.49
458.741	384.92
459.108	400.24
459.474	333.85
459.841	395.14
460.207	382.37
460.573	367.05
460.94	333.85
461.306	346.62
461.672	397.69
462.038	400.24
462.404	397.69
462.771	479.4
463.137	351.73
463.503	387.48
463.868	410.46
464.234	397.69
464.6	423.22
464.966	400.24
465.332	392.58
465.697	395.14
466.063	469.18
466.429	400.24
466.794	471.74
467.16	456.42
467.525	418.12
467.89	407.9
468.256	466.63
468.621	405.35
468.986	428.33
469.351	382.37
469.717	397.69
470.082	361.94
470.447	458.97
470.812	377.26
471.177	384.92
471.542	387.48
471.906	410.46
472.271	402.8
472.636	413.01
473.001	377.26
473.365	413.01
473.73	410.46
474.094	420.67
474.459	415.56
474.823	361.94
475.188	415.56
475.552	369.6
475.917	461.52
476.281	469.18
476.645	384.92
477.009	397.69
477.373	430.88
477.737	405.35
478.101	443.65
478.465	484.5
478.829	418.12
479.193	430.88
479.557	418.12
479.921	420.67
480.284	441.1
480.648	453.86
481.012	400.24
481.375	387.48
481.739	384.92
482.102	379.81
482.466	420.67
482.829	487.06
483.193	423.22
483.556	361.94
483.919	435.99
484.282	415.56
484.645	392.58
485.009	451.31
485.372	400.24
485.735	387.48
486.098	453.86
486.46	384.92
486.823	415.56
487.186	435.99
487.549	392.58
487.912	410.46
488.274	367.05
488.637	382.37
488.999	377.26
489.362	390.03
489.724	379.81
490.087	377.26
490.449	379.81
490.811	397.69
491.174	456.42
491.536	374.71
491.898	326.19
492.26	308.32
492.622	418.12
492.984	423.22
493.346	341.51
493.708	423.22
494.07	395.14
494.432	402.8
494.794	344.07
495.155	430.88
495.517	390.03
495.879	382.37
496.24	405.35
496.602	418.12
496.963	461.52
497.325	451.31
497.686	425.78
498.048	377.26
498.409	346.62
498.77	369.6
499.131	415.56
499.492	372.15
499.854	326.19
500.215	351.73
500.576	374.71
500.937	402.8
501.298	384.92
501.658	382.37
502.019	410.46
502.38	428.33
502.741	390.03
503.101	392.58
503.462	435.99
503.823	441.1
504.183	423.22
504.543	338.96
504.904	374.71
505.264	392.58
505.625	456.42
505.985	441.1
506.345	400.24
506.705	474.29
507.065	415.56
507.426	402.8
507.786	451.31
508.146	430.88
508.505	359.39
508.865	413.01
509.225	430.88
509.585	441.1
509.945	344.07
510.304	374.71
510.664	364.49
511.024	333.85
511.383	415.56
511.743	448.76
512.102	367.05
512.462	382.37
512.821	372.15
513.18	407.9
513.539	351.73
513.899	361.94
514.258	446.2
514.617	400.24
514.976	474.29
515.335	313.43
515.694	466.63
516.053	443.65
516.412	374.71
516.771	344.07
517.129	438.54
517.488	418.12
517.847	338.96
518.205	474.29
518.564	392.58
518.922	377.26
519.281	346.62
519.639	364.49
519.998	384.92
520.356	410.46
520.714	361.94
521.073	336.41
521.431	387.48
521.789	346.62
522.147	384.92
522.505	435.99
522.863	367.05
523.221	428.33
523.579	402.8
523.937	418.12
524.295	377.26
524.652	336.41
525.01	423.22
525.368	395.14
525.725	423.22
526.083	474.29
526.44	402.8
526.798	400.24
527.155	423.22
527.513	390.03
527.87	425.78
528.227	349.17
528.584	359.39
528.942	354.28
529.299	420.67
529.656	402.8
530.013	425.78
530.37	354.28
530.727	346.62
531.083	435.99
531.44	430.88
531.797	407.9
532.154	418.12
532.511	392.58
532.867	382.37
533.224	384.92
533.58	402.8
533.937	458.97
534.293	441.1
534.65	354.28
535.006	407.9
535.362	374.71
535.718	372.15
536.075	374.71
536.431	367.05
536.787	407.9
537.143	489.61
537.499	405.35
537.855	407.9
538.211	402.8
538.567	402.8
538.923	418.12
539.278	361.94
539.634	367.05
539.99	364.49
540.345	415.56
540.701	433.44
541.056	456.42
541.412	418.12
541.767	433.44
542.123	351.73
542.478	359.39
542.833	418.12
543.188	433.44
543.544	410.46
543.899	415.56
544.254	384.92
544.609	372.15
544.964	415.56
545.319	435.99
545.674	448.76
546.029	413.01
546.383	410.46
546.738	377.26
547.093	418.12
547.447	413.01
547.802	344.07
548.157	369.6
548.511	331.3
548.866	356.83
549.22	344.07
549.574	377.26
549.929	359.39
550.283	318.53
550.637	341.51
550.991	367.05
551.345	377.26
551.699	405.35
552.053	349.17
552.407	323.64
552.761	336.41
553.115	387.48
553.469	443.65
553.823	420.67
554.176	382.37
554.53	418.12
554.884	372.15
555.237	660.69
555.591	415.56
555.944	502.38
556.298	377.26
556.651	446.2
557.005	413.01
557.358	382.37
557.711	359.39
558.064	310.87
558.417	443.65
558.771	522.8
559.124	410.46
559.477	379.81
559.83	430.88
560.182	405.35
560.535	384.92
560.888	359.39
561.241	379.81
561.594	359.39
561.946	321.09
562.299	321.09
562.651	395.14
563.004	471.74
563.356	374.71
563.709	293
564.061	405.35
564.413	418.12
564.766	435.99
565.118	392.58
565.47	382.37
565.822	377.26
566.174	356.83
566.526	387.48
566.878	425.78
567.23	466.63
567.582	469.18
567.934	361.94
568.286	372.15
568.638	377.26
568.989	372.15
569.341	443.65
569.693	344.07
570.044	405.35
570.396	341.51
570.747	344.07
571.098	379.81
571.45	377.26
571.801	351.73
572.152	374.71
572.504	407.9
572.855	359.39
573.206	392.58
573.557	425.78
573.908	402.8
574.259	433.44
574.61	415.56
574.961	333.85
575.311	367.05
575.662	441.1
576.013	430.88
576.364	377.26
576.714	367.05
577.065	285.34
577.415	415.56
577.766	420.67
578.116	377.26
578.467	326.19
578.817	382.37
579.167	392.58
579.518	451.31
579.868	402.8
580.218	438.54
580.568	344.07
580.918	430.88
581.268	425.78
581.618	446.2
581.968	428.33
582.318	418.12
582.668	359.39
583.017	392.58
583.367	423.22
583.717	392.58
584.066	367.05
584.416	390.03
584.765	379.81
585.115	415.56
585.464	287.89
585.814	346.62
586.163	425.78
586.512	384.92
586.862	392.58
587.211	400.24
587.56	387.48
587.909	361.94
588.258	372.15
588.607	425.78
588.956	395.14
589.305	407.9
589.654	349.17
590.002	405.35
590.351	372.15
590.7	331.3
591.048	361.94
591.397	415.56
591.746	423.22
592.094	384.92
592.443	415.56
592.791	405.35
593.139	407.9
593.488	410.46
593.836	428.33
594.184	413.01
594.532	321.09
594.88	382.37
595.228	425.78
595.576	367.05
595.924	435.99
596.272	405.35
596.62	441.1
596.968	341.51
597.316	413.01
597.664	377.26
598.011	423.22
598.359	405.35
598.706	430.88
599.054	410.46
599.402	367.05
599.749	420.67
600.096	407.9
600.444	369.6
600.791	395.14
601.138	413.01
601.485	405.35
601.833	372.15
602.18	374.71
602.527	474.29
602.874	338.96
603.221	423.22
603.568	420.67
603.914	438.54
604.261	420.67
604.608	369.6
604.955	379.81
605.301	369.6
605.648	428.33
605.995	349.17
606.341	379.81
606.688	425.78
607.034	384.92
607.38	387.48
607.727	400.24
608.073	359.39
608.419	402.8
608.765	372.15
609.112	453.86
609.458	400.24
609.804	481.95
610.15	308.32
610.496	405.35
610.842	349.17
611.187	405.35
611.533	338.96
611.879	344.07
612.225	407.9
612.57	338.96
612.916	397.69
613.261	430.88
613.607	387.48
613.952	387.48
614.298	466.63
614.643	392.58
614.989	349.17
615.334	382.37
615.679	382.37
616.024	413.01
616.369	384.92
616.714	395.14
617.059	405.35
617.404	344.07
617.749	354.28
618.094	382.37
618.439	346.62
618.784	423.22
619.129	423.22
619.473	321.09
619.818	395.14
620.163	418.12
620.507	374.71
620.852	369.6
621.196	410.46
621.54	397.69
621.885	402.8
622.229	413.01
622.573	379.81
622.918	369.6
623.262	336.41
623.606	487.06
623.95	430.88
624.294	359.39
624.638	390.03
624.982	377.26
625.326	397.69
625.67	369.6
626.013	415.56
626.357	410.46
626.701	346.62
627.044	402.8
627.388	349.17
627.731	361.94
628.075	359.39
628.418	361.94
628.762	430.88
629.105	425.78
629.448	415.56
629.792	435.99
630.135	430.88
630.478	313.43
630.821	331.3
631.164	413.01
631.507	448.76
631.85	400.24
632.193	392.58
632.536	390.03
632.879	369.6
633.221	346.62
633.564	405.35
633.907	441.1
634.249	430.88
634.592	369.6
634.935	418.12
635.277	392.58
635.619	446.2
635.962	374.71
636.304	384.92
636.646	413.01
636.989	400.24
637.331	341.51
637.673	402.8
638.015	387.48
638.357	451.31
638.699	323.64
639.041	435.99
639.383	435.99
639.725	448.76
640.067	369.6
640.408	418.12
640.75	423.22
641.092	372.15
641.433	356.83
641.775	328.75
642.116	310.87
642.458	390.03
642.799	405.35
643.141	351.73
643.482	374.71
643.823	430.88
644.164	369.6
644.506	433.44
644.847	400.24
645.188	418.12
645.529	400.24
645.87	405.35
646.211	441.1
646.552	405.35
646.893	402.8
647.233	395.14
647.574	382.37
647.915	425.78
648.255	443.65
648.596	344.07
648.937	448.76
649.277	395.14
649.618	407.9
649.958	390.03
650.298	351.73
650.639	448.76
650.979	382.37
651.319	351.73
651.659	364.49
651.999	379.81
652.339	448.76
652.679	430.88
653.019	323.64
653.359	300.66
653.699	400.24
654.039	382.37
654.379	420.67
654.719	382.37
655.058	410.46
655.398	400.24
655.737	430.88
656.077	400.24
656.416	446.2
656.756	410.46
657.095	395.14
657.435	369.6
657.774	338.96
658.113	418.12
658.452	344.07
658.792	356.83
659.131	415.56
659.47	405.35
659.809	443.65
660.148	413.01
660.487	361.94
660.826	402.8
661.164	448.76
661.503	369.6
661.842	364.49
662.181	395.14
662.519	415.56
662.858	346.62
663.196	435.99
663.535	397.69
663.873	392.58
664.212	387.48
664.55	392.58
664.888	402.8
665.226	418.12
665.565	374.71
665.903	576.43
666.241	420.67
666.579	374.71
666.917	367.05
667.255	402.8
667.593	359.39
667.931	420.67
668.268	407.9
668.606	413.01
668.944	395.14
669.282	410.46
669.619	344.07
669.957	413.01
670.294	384.92
670.632	428.33
670.969	313.43
671.307	382.37
671.644	364.49
671.981	413.01
672.318	326.19
672.656	336.41
672.993	369.6
673.33	407.9
673.667	369.6
674.004	377.26
674.341	321.09
674.678	374.71
675.015	372.15
675.351	359.39
675.688	310.87
676.025	374.71
676.362	382.37
676.698	410.46
677.035	400.24
677.371	338.96
677.708	361.94
678.044	456.42
678.38	390.03
678.717	349.17
679.053	344.07
679.389	359.39
679.725	423.22
680.062	405.35
680.398	425.78
680.734	448.76
681.07	400.24
681.406	369.6
681.742	413.01
682.077	392.58
682.413	413.01
682.749	364.49
683.085	379.81
683.42	359.39
683.756	354.28
684.091	384.92
684.427	402.8
684.762	405.35
685.098	354.28
685.433	372.15
685.768	346.62
686.104	405.35
686.439	367.05
686.774	407.9
687.109	395.14
687.444	397.69
687.779	372.15
688.114	341.51
688.449	372.15
688.784	361.94
689.119	392.58
689.454	435.99
689.789	364.49
690.123	369.6
690.458	395.14
690.792	425.78
691.127	367.05
691.461	402.8
691.796	425.78
692.13	387.48
692.465	367.05
692.799	387.48
693.133	333.85
693.467	336.41
693.802	423.22
694.136	367.05
694.47	397.69
694.804	438.54
695.138	382.37
695.472	390.03
695.806	331.3
696.139	336.41
696.473	428.33
696.807	390.03
697.141	338.96
697.474	405.35
697.808	407.9
698.141	387.48
698.475	349.17
698.808	359.39
699.142	346.62
699.475	387.48
699.808	453.86
700.142	384.92
700.475	384.92
700.808	367.05
701.141	321.09
701.474	364.49
701.807	418.12
702.14	372.15
702.473	433.44
702.806	420.67
703.139	433.44
703.472	382.37
703.804	379.81
704.137	405.35
704.47	390.03
704.802	354.28
705.135	390.03
705.467	369.6
705.8	413.01
706.132	369.6
706.464	407.9
706.797	369.6
707.129	354.28
707.461	354.28
707.793	374.71
708.125	341.51
708.457	328.75
708.789	438.54
709.121	367.05
709.453	356.83
709.785	359.39
710.117	318.53
710.449	407.9
710.781	418.12
711.112	387.48
711.444	349.17
711.775	405.35
712.107	423.22
712.438	413.01
712.77	438.54
713.101	379.81
713.433	397.69
713.764	410.46
714.095	425.78
714.426	413.01
714.757	405.35
715.089	392.58
715.42	390.03
715.751	453.86
716.082	446.2
716.412	382.37
716.743	308.32
717.074	349.17
717.405	359.39
717.736	438.54
718.066	451.31
718.397	451.31
718.727	400.24
719.058	405.35
719.388	341.51
719.719	395.14
720.049	446.2
720.38	364.49
720.71	361.94
721.04	359.39
721.37	351.73
721.7	423.22
722.031	382.37
722.361	369.6
722.691	395.14
723.021	420.67
723.35	390.03
723.68	354.28
724.01	333.85
724.34	361.94
724.67	395.14
724.999	349.17
725.329	418.12
725.658	448.76
725.988	369.6
726.317	361.94
726.647	354.28
726.976	382.37
727.306	315.98
727.635	359.39
727.964	298.11
728.293	382.37
728.622	441.1
728.952	377.26
729.281	405.35
729.61	395.14
729.939	379.81
730.267	344.07
730.596	407.9
730.925	377.26
731.254	331.3
731.583	374.71
731.911	418.12
732.24	392.58
732.568	474.29
732.897	384.92
733.225	407.9
733.554	361.94
733.882	446.2
734.21	395.14
734.539	413.01
734.867	392.58
735.195	374.71
735.523	402.8
735.851	377.26
736.179	379.81
736.507	359.39
736.835	402.8
737.163	390.03
737.491	387.48
737.819	354.28
738.147	420.67
738.474	400.24
738.802	374.71
739.13	346.62
739.457	387.48
739.785	420.67
740.112	435.99
740.44	402.8
740.767	397.69
741.094	295.55
741.422	384.92
741.749	367.05
742.076	349.17
742.403	336.41
742.73	377.26
743.057	382.37
743.384	331.3
743.711	354.28
744.038	382.37
744.365	356.83
744.692	410.46
745.018	349.17
745.345	285.34
745.672	400.24
745.998	315.98
746.325	390.03
746.651	430.88
746.978	402.8
747.304	395.14
747.631	392.58
747.957	369.6
748.283	415.56
748.61	461.52
748.936	428.33
749.262	369.6
749.588	435.99
749.914	356.83
750.24	384.92
750.566	372.15
750.892	446.2
751.218	367.05
751.543	331.3
751.869	372.15
752.195	384.92
752.521	346.62
752.846	346.62
753.172	410.46
753.497	441.1
753.823	346.62
754.148	361.94
754.473	413.01
754.799	395.14
755.124	395.14
755.449	428.33
755.774	374.71
756.1	430.88
756.425	433.44
756.75	372.15
757.075	285.34
757.4	494.72
757.724	359.39
758.049	333.85
758.374	354.28
758.699	407.9
759.024	400.24
759.348	384.92
759.673	382.37
759.997	382.37
760.322	361.94
760.646	369.6
760.971	397.69
761.295	405.35
761.619	364.49
761.944	364.49
762.268	451.31
762.592	423.22
762.916	458.97
763.24	402.8
763.564	351.73
763.888	430.88
764.212	430.88
764.536	407.9
764.86	395.14
765.184	466.63
765.508	471.74
765.831	533.02
766.155	739.84
766.478	540.68
766.802	453.86
767.126	527.91
767.449	584.09
767.772	558.55
768.096	545.78
768.419	624.94
768.742	596.85
769.066	640.26
769.389	658.13
769.712	676.01
770.035	681.11
770.358	701.54
770.681	765.38
771.004	686.22
771.327	721.97
771.65	770.48
771.972	882.83
772.295	821.55
772.618	798.57
772.941	811.34
773.263	910.92
773.586	890.49
773.908	1099.87
774.231	1043.69
774.553	1064.12
774.875	1094.76
775.198	1186.68
775.52	1204.56
775.842	1104.97
776.164	1094.76
776.487	1038.59
776.809	1110.08
777.131	1153.49
777.453	1166.26
777.775	1196.9
778.096	1260.73
778.418	1398.61
778.74	1219.88
779.062	1202
779.384	1309.24
779.705	1457.34
780.027	1531.39
780.348	1559.48
780.67	1480.32
780.991	1595.22
781.313	1766.3
781.634	1888.86
781.955	1750.98
782.277	1694.8
782.598	1809.71
782.919	1837.79
783.24	1766.3
783.561	1825.03
783.882	1893.97
784.203	1952.7
784.524	1924.61
784.845	1791.83
785.166	1812.26
785.487	1789.28
785.807	1814.81
786.128	1840.35
786.449	1768.85
786.769	1922.06
787.09	2080.36
787.41	2098.24
787.731	2386.77
788.051	2585.93
788.372	2570.61
788.692	2583.38
789.012	2723.82
789.332	2593.59
789.653	2585.93
789.973	2802.97
790.293	2746.8
790.613	2629.34
790.933	2588.49
791.253	2667.64
791.573	2545.08
791.893	2440.39
792.212	2478.69
792.532	2407.2
792.852	2269.31
793.171	2264.21
793.491	2154.41
793.811	2179.95
794.13	2108.45
794.45	2019.08
794.769	1924.61
795.088	1945.04
795.408	1993.55
795.727	2029.3
796.046	2006.32
796.365	2070.15
796.684	1922.06
797.004	1881.2
797.323	2093.13
797.642	2652.32
797.96	2797.86
798.279	2708.5
798.598	2611.47
798.917	2547.63
799.236	2414.86
799.554	2302.51
799.873	2197.82
800.192	2195.27
800.51	2274.42
