Data from 2025-12-03_xpw_interference_micrometer_634_reference_FLMS141361__46__496.txt Node

Date: Wed Dec 03 15:52:23 MST 2025
User: james
Spectrometer: FLMS14136
Trigger mode: 0
Integration Time (sec): 1.000000E-1
Scans to average: 1
Electric dark correction enabled: true
Nonlinearity correction enabled: false
Boxcar width: 0
XAxis mode: Wavelengths
Number of Pixels in Spectrum: 2048
>>>>>Begin Spectral Data<<<<<
339.315	-25.37
339.697	-25.37
340.079	-25.37
340.461	-122.4
340.843	-79
341.225	-117.3
341.607	-25.37
341.989	-61.12
342.371	-63.67
342.752	-50.91
343.134	-107.08
343.516	-56.01
343.897	-38.14
344.279	-43.25
344.661	-7.5
345.042	35.91
345.423	46.12
345.805	61.44
346.186	155.92
346.567	132.94
346.949	138.04
347.33	199.32
347.711	181.45
348.092	199.32
348.473	212.09
348.854	275.92
349.235	291.24
349.616	309.12
349.997	326.99
350.378	273.37
350.758	355.08
351.139	296.35
351.52	367.85
351.9	355.08
352.281	385.72
352.661	426.57
353.042	339.76
353.422	319.33
353.803	406.15
354.183	365.29
354.563	380.61
354.943	429.13
355.324	510.84
355.704	349.97
356.084	370.4
356.464	342.31
356.844	416.36
357.224	441.89
357.603	434.23
357.983	388.27
358.363	485.3
358.743	406.15
359.122	326.99
359.502	383.17
359.882	411.25
360.261	352.53
360.641	349.97
361.02	401.04
361.399	429.13
361.779	398.49
362.158	393.38
362.537	408.7
362.916	434.23
363.296	380.61
363.675	370.4
364.054	362.74
364.433	334.65
364.812	286.14
365.19	316.78
365.569	362.74
365.948	342.31
366.327	360.19
366.705	370.4
367.084	334.65
367.463	352.53
367.841	352.53
368.22	357.63
368.598	367.85
368.977	329.55
369.355	352.53
369.733	439.34
370.111	365.29
370.49	370.4
370.868	270.82
371.246	347.42
371.624	390.83
372.002	314.23
372.38	352.53
372.758	367.85
373.136	375.51
373.513	388.27
373.891	324.44
374.269	388.27
374.646	375.51
375.024	370.4
375.402	355.08
375.779	309.12
376.157	390.83
376.534	370.4
376.911	367.85
377.289	309.12
377.666	408.7
378.043	383.17
378.42	388.27
378.797	421.47
379.175	357.63
379.552	360.19
379.929	383.17
380.305	365.29
380.682	316.78
381.059	304.01
381.436	362.74
381.813	337.21
382.189	360.19
382.566	370.4
382.943	401.04
383.319	439.34
383.696	411.25
384.072	429.13
384.448	413.81
384.825	378.06
385.201	375.51
385.577	301.46
385.953	375.51
386.329	286.14
386.706	426.57
387.082	385.72
387.458	408.7
387.834	375.51
388.209	431.68
388.585	339.76
388.961	314.23
389.337	375.51
389.713	436.79
390.088	393.38
390.464	408.7
390.839	360.19
391.215	447
391.59	416.36
391.966	393.38
392.341	395.93
392.716	337.21
393.092	365.29
393.467	370.4
393.842	403.59
394.217	401.04
394.592	319.33
394.967	395.93
395.342	352.53
395.717	424.02
396.092	372.95
396.467	459.77
396.841	395.93
397.216	362.74
397.591	388.27
397.965	398.49
398.34	426.57
398.714	431.68
399.089	439.34
399.463	365.29
399.838	390.83
400.212	390.83
400.586	372.95
400.961	319.33
401.335	365.29
401.709	388.27
402.083	439.34
402.457	347.42
402.831	383.17
403.205	447
403.579	390.83
403.953	411.25
404.326	365.29
404.7	367.85
405.074	314.23
405.447	362.74
405.821	424.02
406.195	329.55
406.568	324.44
406.942	355.08
407.315	413.81
407.688	393.38
408.062	342.31
408.435	375.51
408.808	293.8
409.181	362.74
409.554	480.19
409.927	378.06
410.3	344.87
410.673	370.4
411.046	429.13
411.419	370.4
411.792	416.36
412.165	380.61
412.537	413.81
412.91	416.36
413.283	429.13
413.655	365.29
414.028	398.49
414.4	388.27
414.773	385.72
415.145	375.51
415.517	298.9
415.889	436.79
416.262	436.79
416.634	426.57
417.006	375.51
417.378	372.95
417.75	390.83
418.122	452.11
418.494	395.93
418.866	406.15
419.238	434.23
419.609	459.77
419.981	480.19
420.353	395.93
420.725	329.55
421.096	321.89
421.468	426.57
421.839	426.57
422.211	411.25
422.582	413.81
422.953	372.95
423.325	390.83
423.696	395.93
424.067	393.38
424.438	464.87
424.809	408.7
425.18	372.95
425.551	467.43
425.922	418.91
426.293	388.27
426.664	375.51
427.035	388.27
427.406	401.04
427.776	329.55
428.147	421.47
428.518	416.36
428.888	436.79
429.259	398.49
429.629	454.66
429.999	398.49
430.37	441.89
430.74	365.29
431.11	447
431.481	342.31
431.851	447
432.221	342.31
432.591	411.25
432.961	360.19
433.331	434.23
433.701	436.79
434.071	464.87
434.441	408.7
434.81	393.38
435.18	352.53
435.55	416.36
435.919	408.7
436.289	406.15
436.658	418.91
437.028	388.27
437.397	436.79
437.767	355.08
438.136	421.47
438.505	355.08
438.875	385.72
439.244	472.53
439.613	482.75
439.982	424.02
440.351	416.36
440.72	431.68
441.089	408.7
441.458	403.59
441.827	408.7
442.196	462.32
442.564	521.05
442.933	395.93
443.302	434.23
443.67	421.47
444.039	459.77
444.407	406.15
444.776	411.25
445.144	413.81
445.513	352.53
445.881	411.25
446.249	375.51
446.617	393.38
446.986	413.81
447.354	413.81
447.722	480.19
448.09	406.15
448.458	398.49
448.826	403.59
449.194	408.7
449.561	426.57
449.929	385.72
450.297	365.29
450.665	398.49
451.032	472.53
451.4	411.25
451.767	416.36
452.135	411.25
452.502	385.72
452.87	403.59
453.237	408.7
453.604	447
453.971	485.3
454.339	406.15
454.706	464.87
455.073	370.4
455.44	436.79
455.807	490.41
456.174	365.29
456.541	449.55
456.908	388.27
457.274	462.32
457.641	380.61
458.008	477.64
458.374	441.89
458.741	452.11
459.108	480.19
459.474	449.55
459.841	360.19
460.207	383.17
460.573	367.85
460.94	395.93
461.306	385.72
461.672	372.95
462.038	393.38
462.404	441.89
462.771	436.79
463.137	411.25
463.503	444.45
463.868	449.55
464.234	480.19
464.6	380.61
464.966	362.74
465.332	449.55
465.697	447
466.063	401.04
466.429	372.95
466.794	372.95
467.16	472.53
467.525	477.64
467.89	424.02
468.256	388.27
468.621	413.81
468.986	408.7
469.351	436.79
469.717	398.49
470.082	447
470.447	439.34
470.812	365.29
471.177	380.61
471.542	339.76
471.906	431.68
472.271	447
472.636	421.47
473.001	398.49
473.365	454.66
473.73	378.06
474.094	431.68
474.459	439.34
474.823	416.36
475.188	393.38
475.552	395.93
475.917	372.95
476.281	436.79
476.645	406.15
477.009	449.55
477.373	431.68
477.737	469.98
478.101	482.75
478.465	401.04
478.829	452.11
479.193	439.34
479.557	375.51
479.921	480.19
480.284	398.49
480.648	393.38
481.012	385.72
481.375	528.71
481.739	426.57
482.102	447
482.466	408.7
482.829	492.96
483.193	431.68
483.556	431.68
483.919	436.79
484.282	406.15
484.645	413.81
485.009	490.41
485.372	429.13
485.735	462.32
486.098	375.51
486.46	413.81
486.823	416.36
487.186	426.57
487.549	357.63
487.912	344.87
488.274	424.02
488.637	385.72
488.999	421.47
489.362	360.19
489.724	426.57
490.087	444.45
490.449	462.32
490.811	418.91
491.174	490.41
491.536	447
491.898	418.91
492.26	449.55
492.622	380.61
492.984	431.68
493.346	452.11
493.708	421.47
494.07	441.89
494.432	429.13
494.794	398.49
495.155	393.38
495.517	378.06
495.879	393.38
496.24	344.87
496.602	421.47
496.963	449.55
497.325	411.25
497.686	393.38
498.048	411.25
498.409	444.45
498.77	421.47
499.131	429.13
499.492	418.91
499.854	403.59
500.215	434.23
500.576	429.13
500.937	406.15
501.298	406.15
501.658	403.59
502.019	301.46
502.38	395.93
502.741	406.15
503.101	441.89
503.462	464.87
503.823	429.13
504.183	375.51
504.543	406.15
504.904	418.91
505.264	439.34
505.625	401.04
505.985	385.72
506.345	390.83
506.705	431.68
507.065	426.57
507.426	459.77
507.786	360.19
508.146	398.49
508.505	424.02
508.865	375.51
509.225	426.57
509.585	510.84
509.945	385.72
510.304	444.45
510.664	395.93
511.024	441.89
511.383	395.93
511.743	431.68
512.102	357.63
512.462	467.43
512.821	413.81
513.18	431.68
513.539	429.13
513.899	441.89
514.258	436.79
514.617	413.81
514.976	444.45
515.335	385.72
515.694	475.09
516.053	411.25
516.412	459.77
516.771	449.55
517.129	380.61
517.488	418.91
517.847	383.17
518.205	395.93
518.564	390.83
518.922	418.91
519.281	436.79
519.639	418.91
519.998	406.15
520.356	444.45
520.714	452.11
521.073	426.57
521.431	380.61
521.789	431.68
522.147	459.77
522.505	449.55
522.863	401.04
523.221	444.45
523.579	444.45
523.937	360.19
524.295	431.68
524.652	367.85
525.01	393.38
525.368	362.74
525.725	459.77
526.083	449.55
526.44	467.43
526.798	378.06
527.155	393.38
527.513	395.93
527.87	431.68
528.227	395.93
528.584	457.21
528.942	444.45
529.299	360.19
529.656	413.81
530.013	421.47
530.37	436.79
530.727	475.09
531.083	388.27
531.44	439.34
531.797	413.81
532.154	452.11
532.511	429.13
532.867	431.68
533.224	349.97
533.58	383.17
533.937	388.27
534.293	395.93
534.65	434.23
535.006	408.7
535.362	454.66
535.718	426.57
536.075	416.36
536.431	372.95
536.787	401.04
537.143	480.19
537.499	426.57
537.855	421.47
538.211	439.34
538.567	444.45
538.923	416.36
539.278	431.68
539.634	413.81
539.99	426.57
540.345	424.02
540.701	421.47
541.056	424.02
541.412	459.77
541.767	385.72
542.123	357.63
542.478	403.59
542.833	403.59
543.188	406.15
543.544	406.15
543.899	380.61
544.254	475.09
544.609	357.63
544.964	421.47
545.319	436.79
545.674	434.23
546.029	424.02
546.383	355.08
546.738	388.27
547.093	395.93
547.447	372.95
547.802	393.38
548.157	380.61
548.511	380.61
548.866	477.64
549.22	367.85
549.574	357.63
549.929	439.34
550.283	418.91
550.637	416.36
550.991	380.61
551.345	365.29
551.699	421.47
552.053	416.36
552.407	380.61
552.761	424.02
553.115	334.65
553.469	459.77
553.823	401.04
554.176	413.81
554.53	459.77
554.884	395.93
555.237	743.19
555.591	449.55
555.944	388.27
556.298	390.83
556.651	467.43
557.005	436.79
557.358	385.72
557.711	390.83
558.064	393.38
558.417	441.89
558.771	467.43
559.124	370.4
559.477	367.85
559.83	449.55
560.182	378.06
560.535	411.25
560.888	403.59
561.241	426.57
561.594	370.4
561.946	416.36
562.299	464.87
562.651	439.34
563.004	355.08
563.356	434.23
563.709	370.4
564.061	378.06
564.413	431.68
564.766	360.19
565.118	408.7
565.47	388.27
565.822	447
566.174	429.13
566.526	418.91
566.878	431.68
567.23	416.36
567.582	431.68
567.934	447
568.286	447
568.638	398.49
568.989	441.89
569.341	424.02
569.693	406.15
570.044	426.57
570.396	395.93
570.747	362.74
571.098	413.81
571.45	416.36
571.801	421.47
572.152	431.68
572.504	413.81
572.855	464.87
573.206	406.15
573.557	388.27
573.908	424.02
574.259	444.45
574.61	429.13
574.961	431.68
575.311	426.57
575.662	398.49
576.013	393.38
576.364	355.08
576.714	439.34
577.065	395.93
577.415	421.47
577.766	378.06
578.116	385.72
578.467	447
578.817	416.36
579.167	444.45
579.518	431.68
579.868	411.25
580.218	344.87
580.568	452.11
580.918	469.98
581.268	347.42
581.618	393.38
581.968	416.36
582.318	372.95
582.668	401.04
583.017	355.08
583.367	444.45
583.717	380.61
584.066	403.59
584.416	454.66
584.765	385.72
585.115	469.98
585.464	444.45
585.814	454.66
586.163	398.49
586.512	421.47
586.862	406.15
587.211	347.42
587.56	418.91
587.909	447
588.258	393.38
588.607	406.15
588.956	390.83
589.305	421.47
589.654	421.47
590.002	378.06
590.351	431.68
590.7	383.17
591.048	434.23
591.397	454.66
591.746	395.93
592.094	413.81
592.443	459.77
592.791	398.49
593.139	403.59
593.488	395.93
593.836	413.81
594.184	452.11
594.532	375.51
594.88	434.23
595.228	426.57
595.576	362.74
595.924	449.55
596.272	411.25
596.62	408.7
596.968	360.19
597.316	408.7
597.664	487.85
598.011	413.81
598.359	431.68
598.706	408.7
599.054	370.4
599.402	457.21
599.749	434.23
600.096	418.91
600.444	421.47
600.791	413.81
601.138	421.47
601.485	449.55
601.833	411.25
602.18	413.81
602.527	475.09
602.874	418.91
603.221	447
603.568	347.42
603.914	429.13
604.261	388.27
604.608	344.87
604.955	365.29
605.301	401.04
605.648	370.4
605.995	518.5
606.341	533.82
606.688	472.53
607.034	439.34
607.38	378.06
607.727	426.57
608.073	449.55
608.419	424.02
608.765	395.93
609.112	457.21
609.458	411.25
609.804	441.89
610.15	439.34
610.496	385.72
610.842	395.93
611.187	347.42
611.533	403.59
611.879	431.68
612.225	441.89
612.57	421.47
612.916	406.15
613.261	469.98
613.607	434.23
613.952	434.23
614.298	424.02
614.643	380.61
614.989	406.15
615.334	398.49
615.679	301.46
616.024	388.27
616.369	352.53
616.714	390.83
617.059	421.47
617.404	408.7
617.749	380.61
618.094	367.85
618.439	439.34
618.784	383.17
619.129	416.36
619.473	357.63
619.818	457.21
620.163	492.96
620.507	429.13
620.852	436.79
621.196	329.55
621.54	385.72
621.885	429.13
622.229	452.11
622.573	406.15
622.918	490.41
623.262	462.32
623.606	472.53
623.95	408.7
624.294	370.4
624.638	436.79
624.982	480.19
625.326	454.66
625.67	395.93
626.013	444.45
626.357	380.61
626.701	401.04
627.044	464.87
627.388	447
627.731	490.41
628.075	434.23
628.418	362.74
628.762	372.95
629.105	401.04
629.448	329.55
629.792	434.23
630.135	372.95
630.478	434.23
630.821	403.59
631.164	347.42
631.507	383.17
631.85	413.81
632.193	449.55
632.536	444.45
632.879	401.04
633.221	393.38
633.564	388.27
633.907	360.19
634.249	429.13
634.592	372.95
634.935	398.49
635.277	385.72
635.619	383.17
635.962	426.57
636.304	398.49
636.646	431.68
636.989	401.04
637.331	301.46
637.673	452.11
638.015	390.83
638.357	403.59
638.699	388.27
639.041	403.59
639.383	342.31
639.725	393.38
640.067	424.02
640.408	380.61
640.75	418.91
641.092	398.49
641.433	434.23
641.775	459.77
642.116	429.13
642.458	467.43
642.799	411.25
643.141	352.53
643.482	472.53
643.823	401.04
644.164	401.04
644.506	459.77
644.847	418.91
645.188	424.02
645.529	434.23
645.87	444.45
646.211	426.57
646.552	380.61
646.893	413.81
647.233	388.27
647.574	383.17
647.915	431.68
648.255	398.49
648.596	378.06
648.937	431.68
649.277	403.59
649.618	352.53
649.958	436.79
650.298	324.44
650.639	378.06
650.979	418.91
651.319	393.38
651.659	390.83
651.999	457.21
652.339	447
652.679	441.89
653.019	418.91
653.359	408.7
653.699	395.93
654.039	503.18
654.379	393.38
654.719	401.04
655.058	349.97
655.398	421.47
655.737	454.66
656.077	429.13
656.416	372.95
656.756	500.62
657.095	449.55
657.435	418.91
657.774	375.51
658.113	398.49
658.452	411.25
658.792	426.57
659.131	447
659.47	380.61
659.809	467.43
660.148	424.02
660.487	421.47
660.826	492.96
661.164	398.49
661.503	395.93
661.842	378.06
662.181	408.7
662.519	434.23
662.858	462.32
663.196	360.19
663.535	365.29
663.873	349.97
664.212	418.91
664.55	434.23
664.888	439.34
665.226	462.32
665.565	352.53
665.903	630.84
666.241	362.74
666.579	431.68
666.917	434.23
667.255	434.23
667.593	426.57
667.931	454.66
668.268	439.34
668.606	398.49
668.944	367.85
669.282	375.51
669.619	444.45
669.957	385.72
670.294	283.58
670.632	426.57
670.969	416.36
671.307	393.38
671.644	447
671.981	334.65
672.318	436.79
672.656	426.57
672.993	444.45
673.33	390.83
673.667	339.76
674.004	431.68
674.341	416.36
674.678	403.59
675.015	408.7
675.351	393.38
675.688	439.34
676.025	401.04
676.362	408.7
676.698	390.83
677.035	418.91
677.371	380.61
677.708	454.66
678.044	395.93
678.38	352.53
678.717	365.29
679.053	393.38
679.389	372.95
679.725	426.57
680.062	464.87
680.398	457.21
680.734	418.91
681.07	388.27
681.406	431.68
681.742	439.34
682.077	380.61
682.413	447
682.749	426.57
683.085	357.63
683.42	395.93
683.756	357.63
684.091	344.87
684.427	426.57
684.762	416.36
685.098	472.53
685.433	401.04
685.768	421.47
686.104	447
686.439	447
686.774	403.59
687.109	372.95
687.444	424.02
687.779	355.08
688.114	421.47
688.449	367.85
688.784	429.13
689.119	383.17
689.454	416.36
689.789	398.49
690.123	441.89
690.458	416.36
690.792	434.23
691.127	380.61
691.461	401.04
691.796	403.59
692.13	370.4
692.465	459.77
692.799	449.55
693.133	439.34
693.467	429.13
693.802	398.49
694.136	421.47
694.47	406.15
694.804	467.43
695.138	416.36
695.472	349.97
695.806	439.34
696.139	421.47
696.473	421.47
696.807	390.83
697.141	383.17
697.474	380.61
697.808	413.81
698.141	357.63
698.475	434.23
698.808	418.91
699.142	393.38
699.475	424.02
699.808	416.36
700.142	388.27
700.475	406.15
700.808	372.95
701.141	372.95
701.474	447
701.807	390.83
702.14	370.4
702.473	418.91
702.806	398.49
703.139	421.47
703.472	418.91
703.804	413.81
704.137	355.08
704.47	370.4
704.802	352.53
705.135	349.97
705.467	347.42
705.8	401.04
706.132	378.06
706.464	429.13
706.797	454.66
707.129	452.11
707.461	347.42
707.793	436.79
708.125	426.57
708.457	418.91
708.789	454.66
709.121	401.04
709.453	421.47
709.785	411.25
710.117	416.36
710.449	413.81
710.781	332.1
711.112	326.99
711.444	429.13
711.775	457.21
712.107	424.02
712.438	429.13
712.77	406.15
713.101	401.04
713.433	406.15
713.764	403.59
714.095	421.47
714.426	395.93
714.757	352.53
715.089	385.72
715.42	408.7
715.751	424.02
716.082	365.29
716.412	398.49
716.743	365.29
717.074	360.19
717.405	418.91
717.736	390.83
718.066	401.04
718.397	401.04
718.727	459.77
719.058	416.36
719.388	357.63
719.719	444.45
720.049	413.81
720.38	411.25
720.71	360.19
721.04	375.51
721.37	393.38
721.7	454.66
722.031	444.45
722.361	408.7
722.691	390.83
723.021	403.59
723.35	434.23
723.68	464.87
724.01	467.43
724.34	429.13
724.67	383.17
724.999	439.34
725.329	424.02
725.658	406.15
725.988	355.08
726.317	378.06
726.647	385.72
726.976	418.91
727.306	385.72
727.635	324.44
727.964	421.47
728.293	426.57
728.622	421.47
728.952	390.83
729.281	406.15
729.61	388.27
729.939	431.68
730.267	393.38
730.596	367.85
730.925	360.19
731.254	375.51
731.583	480.19
731.911	403.59
732.24	390.83
732.568	469.98
732.897	436.79
733.225	411.25
733.554	480.19
733.882	403.59
734.21	390.83
734.539	421.47
734.867	393.38
735.195	416.36
735.523	393.38
735.851	326.99
736.179	352.53
736.507	372.95
736.835	365.29
737.163	424.02
737.491	416.36
737.819	352.53
738.147	342.31
738.474	385.72
738.802	424.02
739.13	462.32
739.457	388.27
739.785	383.17
740.112	416.36
740.44	454.66
740.767	403.59
741.094	375.51
741.422	434.23
741.749	355.08
742.076	372.95
742.403	378.06
742.73	401.04
743.057	337.21
743.384	375.51
743.711	454.66
744.038	411.25
744.365	485.3
744.692	395.93
745.018	365.29
745.345	342.31
745.672	413.81
745.998	424.02
746.325	431.68
746.651	401.04
746.978	413.81
747.304	398.49
747.631	418.91
747.957	372.95
748.283	424.02
748.61	464.87
748.936	375.51
749.262	406.15
749.588	398.49
749.914	459.77
750.24	500.62
750.566	441.89
750.892	401.04
751.218	385.72
751.543	385.72
751.869	416.36
752.195	429.13
752.521	372.95
752.846	375.51
753.172	375.51
753.497	421.47
753.823	411.25
754.148	413.81
754.473	406.15
754.799	406.15
755.124	424.02
755.449	429.13
755.774	388.27
756.1	385.72
756.425	395.93
756.75	459.77
757.075	411.25
757.4	523.6
757.724	487.85
758.049	375.51
758.374	421.47
758.699	398.49
759.024	367.85
759.348	390.83
759.673	477.64
759.997	434.23
760.322	390.83
760.646	441.89
760.971	439.34
761.295	457.21
761.619	459.77
761.944	296.35
762.268	403.59
762.592	452.11
762.916	390.83
763.24	395.93
763.564	401.04
763.888	383.17
764.212	469.98
764.536	490.41
764.86	503.18
765.184	459.77
765.508	495.51
765.831	462.32
766.155	738.09
766.478	475.09
766.802	523.6
767.126	572.12
767.449	567.01
767.772	582.33
768.096	592.54
768.419	572.12
768.742	498.07
769.066	556.8
769.389	589.99
769.712	651.27
770.035	692.13
770.358	692.13
770.681	699.79
771.004	727.87
771.327	789.15
771.65	743.19
771.972	768.73
772.295	842.77
772.618	827.45
772.941	822.35
773.263	804.47
773.586	893.84
773.908	924.48
774.231	906.61
774.553	1026.62
774.875	967.89
775.198	1077.69
775.52	1072.58
775.842	1003.64
776.164	1021.51
776.487	942.36
776.809	1006.19
777.131	1080.24
777.453	1047.04
777.775	1039.38
778.096	1103.22
778.418	1154.29
778.74	1110.88
779.062	1118.54
779.384	1197.69
779.705	1310.04
780.027	1432.6
780.348	1488.78
780.67	1450.48
780.991	1445.37
781.313	1639.43
781.634	1588.36
781.955	1539.85
782.277	1560.27
782.598	1562.83
782.919	1593.47
783.24	1624.11
783.561	1560.27
783.882	1667.52
784.203	1667.52
784.524	1667.52
784.845	1693.05
785.166	1687.94
785.487	1603.68
785.807	1772.2
786.128	1705.82
786.449	1672.62
786.769	1736.46
787.09	1922.85
787.41	2022.43
787.731	2142.44
788.051	2300.75
788.372	2305.86
788.692	2308.41
789.012	2275.22
789.332	2244.58
789.653	2390.12
789.973	2515.24
790.293	2423.32
790.613	2310.97
790.933	2193.51
791.253	2213.94
791.573	2226.71
791.893	2114.36
792.212	2201.17
792.532	2173.08
792.852	2101.59
793.171	2019.88
793.491	2035.2
793.811	2032.65
794.13	2091.38
794.45	1902.43
794.769	1779.86
795.088	1802.84
795.408	1677.73
795.727	1871.79
796.046	1879.45
796.365	1813.06
796.684	1823.27
797.004	1644.54
797.323	1971.37
797.642	2387.57
797.96	2420.76
798.279	2461.62
798.598	2356.93
798.917	2290.54
799.236	2213.94
799.554	2024.99
799.873	1984.13
800.192	2019.88
