Data from 2025-12-03_xpw_interference_micrometer_634_reference_FLMS141361__2__452.txt Node

Date: Wed Dec 03 15:52:19 MST 2025
User: james
Spectrometer: FLMS14136
Trigger mode: 0
Integration Time (sec): 1.000000E-1
Scans to average: 1
Electric dark correction enabled: true
Nonlinearity correction enabled: false
Boxcar width: 0
XAxis mode: Wavelengths
Number of Pixels in Spectrum: 2048
>>>>>Begin Spectral Data<<<<<
339.315	-48.04
339.697	-48.04
340.079	-48.04
340.461	-104.21
340.843	-60.8
341.225	-60.8
341.607	-137.4
341.989	-124.64
342.371	-109.32
342.752	-50.59
343.134	-86.34
343.516	-63.36
343.897	-48.04
344.279	15.8
344.661	26.01
345.042	48.99
345.423	89.85
345.805	87.29
346.186	94.95
346.567	105.17
346.949	212.41
347.33	181.77
347.711	161.34
348.092	204.75
348.473	276.24
348.854	217.52
349.235	304.33
349.616	309.44
349.997	311.99
350.378	337.52
350.758	291.56
351.139	340.08
351.52	352.84
351.9	350.29
352.281	322.2
352.661	324.76
353.042	352.84
353.422	370.72
353.803	383.49
354.183	386.04
354.563	442.21
354.943	360.51
355.324	363.06
355.704	370.72
356.084	421.79
356.464	398.81
356.844	388.59
357.224	370.72
357.603	378.38
357.983	352.84
358.363	419.23
358.743	388.59
359.122	378.38
359.502	337.52
359.882	350.29
360.261	337.52
360.641	409.02
361.02	352.84
361.399	357.95
361.779	296.67
362.158	373.27
362.537	342.63
362.916	386.04
363.296	357.95
363.675	322.2
364.054	375.83
364.433	334.97
364.812	340.08
365.19	393.7
365.569	314.54
365.948	416.68
366.327	350.29
366.705	363.06
367.084	304.33
367.463	319.65
367.841	324.76
368.22	322.2
368.598	416.68
368.977	355.4
369.355	337.52
369.733	324.76
370.111	345.18
370.49	314.54
370.868	380.93
371.246	337.52
371.624	370.72
372.002	386.04
372.38	345.18
372.758	398.81
373.136	317.1
373.513	311.99
373.891	345.18
374.269	370.72
374.646	398.81
375.024	322.2
375.402	314.54
375.779	386.04
376.157	352.84
376.534	311.99
376.911	319.65
377.289	365.61
377.666	350.29
378.043	365.61
378.42	355.4
378.797	357.95
379.175	319.65
379.552	347.74
379.929	391.15
380.305	329.86
380.682	337.52
381.059	322.2
381.436	409.02
381.813	352.84
382.189	378.38
382.566	332.42
382.943	319.65
383.319	403.91
383.696	360.51
384.072	266.03
384.448	365.61
384.825	332.42
385.201	350.29
385.577	424.34
385.953	296.67
386.329	370.72
386.706	345.18
387.082	352.84
387.458	350.29
387.834	357.95
388.209	342.63
388.585	416.68
388.961	365.61
389.337	357.95
389.713	373.27
390.088	391.15
390.464	452.43
390.839	360.51
391.215	296.67
391.59	360.51
391.966	337.52
392.341	342.63
392.716	322.2
393.092	327.31
393.467	342.63
393.842	424.34
394.217	309.44
394.592	345.18
394.967	352.84
395.342	421.79
395.717	375.83
396.092	419.23
396.467	416.68
396.841	329.86
397.216	317.1
397.591	289.01
397.965	383.49
398.34	329.86
398.714	352.84
399.089	419.23
399.463	332.42
399.838	386.04
400.212	414.13
400.586	483.07
400.961	378.38
401.335	386.04
401.709	396.25
402.083	416.68
402.457	393.7
402.831	383.49
403.205	365.61
403.579	396.25
403.953	345.18
404.326	391.15
404.7	370.72
405.074	340.08
405.447	345.18
405.821	370.72
406.195	337.52
406.568	393.7
406.942	409.02
407.315	370.72
407.688	398.81
408.062	352.84
408.435	370.72
408.808	347.74
409.181	378.38
409.554	465.19
409.927	401.36
410.3	378.38
410.673	383.49
411.046	434.55
411.419	375.83
411.792	434.55
412.165	403.91
412.537	411.57
412.91	319.65
413.283	350.29
413.655	360.51
414.028	355.4
414.4	373.27
414.773	393.7
415.145	352.84
415.517	352.84
415.889	340.08
416.262	309.44
416.634	406.47
417.006	294.12
417.378	360.51
417.75	357.95
418.122	403.91
418.494	345.18
418.866	365.61
419.238	409.02
419.609	357.95
419.981	334.97
420.353	365.61
420.725	421.79
421.096	398.81
421.468	368.17
421.839	396.25
422.211	360.51
422.582	409.02
422.953	378.38
423.325	373.27
423.696	386.04
424.067	347.74
424.438	296.67
424.809	322.2
425.18	380.93
425.551	416.68
425.922	388.59
426.293	383.49
426.664	360.51
427.035	429.45
427.406	391.15
427.776	337.52
428.147	437.11
428.518	378.38
428.888	383.49
429.259	388.59
429.629	419.23
429.999	442.21
430.37	393.7
430.74	334.97
431.11	439.66
431.481	368.17
431.851	409.02
432.221	396.25
432.591	401.36
432.961	434.55
433.331	383.49
433.701	347.74
434.071	319.65
434.441	439.66
434.81	370.72
435.18	334.97
435.55	388.59
435.919	373.27
436.289	409.02
436.658	403.91
437.028	411.57
437.397	378.38
437.767	416.68
438.136	429.45
438.505	391.15
438.875	388.59
439.244	444.77
439.613	401.36
439.982	449.87
440.351	439.66
440.72	506.05
441.089	421.79
441.458	373.27
441.827	383.49
442.196	388.59
442.564	513.71
442.933	393.7
443.302	370.72
443.67	406.47
444.039	347.74
444.407	419.23
444.776	370.72
445.144	409.02
445.513	447.32
445.881	414.13
446.249	444.77
446.617	393.7
446.986	398.81
447.354	442.21
447.722	426.89
448.09	355.4
448.458	370.72
448.826	500.94
449.194	403.91
449.561	432
449.929	396.25
450.297	363.06
450.665	306.88
451.032	375.83
451.4	373.27
451.767	370.72
452.135	309.44
452.502	363.06
452.87	401.36
453.237	334.97
453.604	398.81
453.971	419.23
454.339	380.93
454.706	393.7
455.073	380.93
455.44	378.38
455.807	414.13
456.174	429.45
456.541	406.47
456.908	419.23
457.274	434.55
457.641	386.04
458.008	398.81
458.374	406.47
458.741	475.41
459.108	406.47
459.474	375.83
459.841	444.77
460.207	401.36
460.573	416.68
460.94	365.61
461.306	380.93
461.672	442.21
462.038	414.13
462.404	401.36
462.771	370.72
463.137	403.91
463.503	373.27
463.868	334.97
464.234	311.99
464.6	378.38
464.966	452.43
465.332	411.57
465.697	365.61
466.063	314.54
466.429	363.06
466.794	424.34
467.16	388.59
467.525	355.4
467.89	365.61
468.256	370.72
468.621	416.68
468.986	403.91
469.351	396.25
469.717	350.29
470.082	414.13
470.447	355.4
470.812	345.18
471.177	467.75
471.542	409.02
471.906	442.21
472.271	396.25
472.636	329.86
473.001	319.65
473.365	378.38
473.73	409.02
474.094	462.64
474.459	409.02
474.823	342.63
475.188	388.59
475.552	342.63
475.917	414.13
476.281	434.55
476.645	365.61
477.009	363.06
477.373	309.44
477.737	421.79
478.101	386.04
478.465	416.68
478.829	340.08
479.193	434.55
479.557	357.95
479.921	421.79
480.284	406.47
480.648	363.06
481.012	416.68
481.375	378.38
481.739	352.84
482.102	477.96
482.466	416.68
482.829	493.28
483.193	414.13
483.556	380.93
483.919	416.68
484.282	391.15
484.645	363.06
485.009	467.75
485.372	419.23
485.735	360.51
486.098	332.42
486.46	401.36
486.823	396.25
487.186	393.7
487.549	419.23
487.912	437.11
488.274	403.91
488.637	329.86
488.999	462.64
489.362	429.45
489.724	386.04
490.087	345.18
490.449	388.59
490.811	398.81
491.174	403.91
491.536	432
491.898	401.36
492.26	429.45
492.622	449.87
492.984	386.04
493.346	383.49
493.708	480.51
494.07	465.19
494.432	403.91
494.794	391.15
495.155	386.04
495.517	383.49
495.879	304.33
496.24	365.61
496.602	495.83
496.963	391.15
497.325	370.72
497.686	370.72
498.048	350.29
498.409	416.68
498.77	317.1
499.131	383.49
499.492	383.49
499.854	363.06
500.215	411.57
500.576	434.55
500.937	432
501.298	401.36
501.658	406.47
502.019	383.49
502.38	416.68
502.741	403.91
503.101	414.13
503.462	477.96
503.823	432
504.183	426.89
504.543	406.47
504.904	391.15
505.264	380.93
505.625	409.02
505.985	406.47
506.345	380.93
506.705	352.84
507.065	378.38
507.426	342.63
507.786	401.36
508.146	419.23
508.505	406.47
508.865	429.45
509.225	345.18
509.585	454.98
509.945	429.45
510.304	391.15
510.664	393.7
511.024	437.11
511.383	447.32
511.743	429.45
512.102	403.91
512.462	457.53
512.821	386.04
513.18	370.72
513.539	419.23
513.899	411.57
514.258	477.96
514.617	421.79
514.976	347.74
515.335	398.81
515.694	419.23
516.053	447.32
516.412	414.13
516.771	403.91
517.129	470.3
517.488	393.7
517.847	386.04
518.205	411.57
518.564	437.11
518.922	378.38
519.281	319.65
519.639	350.29
519.998	352.84
520.356	406.47
520.714	347.74
521.073	409.02
521.431	398.81
521.789	421.79
522.147	370.72
522.505	444.77
522.863	383.49
523.221	439.66
523.579	383.49
523.937	419.23
524.295	432
524.652	401.36
525.01	378.38
525.368	416.68
525.725	434.55
526.083	454.98
526.44	414.13
526.798	398.81
527.155	447.32
527.513	421.79
527.87	391.15
528.227	380.93
528.584	373.27
528.942	411.57
529.299	398.81
529.656	342.63
530.013	373.27
530.37	432
530.727	500.94
531.083	424.34
531.44	447.32
531.797	432
532.154	363.06
532.511	388.59
532.867	314.54
533.224	421.79
533.58	347.74
533.937	380.93
534.293	434.55
534.65	370.72
535.006	322.2
535.362	419.23
535.718	383.49
536.075	401.36
536.431	368.17
536.787	386.04
537.143	373.27
537.499	375.83
537.855	439.66
538.211	393.7
538.567	370.72
538.923	477.96
539.278	432
539.634	393.7
539.99	447.32
540.345	409.02
540.701	432
541.056	419.23
541.412	416.68
541.767	432
542.123	357.95
542.478	373.27
542.833	490.73
543.188	380.93
543.544	357.95
543.899	429.45
544.254	426.89
544.609	414.13
544.964	449.87
545.319	429.45
545.674	419.23
546.029	416.68
546.383	360.51
546.738	439.66
547.093	419.23
547.447	368.17
547.802	355.4
548.157	434.55
548.511	439.66
548.866	419.23
549.22	378.38
549.574	375.83
549.929	406.47
550.283	393.7
550.637	383.49
550.991	383.49
551.345	401.36
551.699	426.89
552.053	452.43
552.407	350.29
552.761	467.75
553.115	429.45
553.469	432
553.823	480.51
554.176	393.7
554.53	365.61
554.884	368.17
555.237	689.89
555.591	378.38
555.944	421.79
556.298	355.4
556.651	470.3
557.005	432
557.358	347.74
557.711	429.45
558.064	452.43
558.417	424.34
558.771	485.62
559.124	409.02
559.477	516.26
559.83	398.81
560.182	375.83
560.535	406.47
560.888	403.91
561.241	396.25
561.594	357.95
561.946	340.08
562.299	340.08
562.651	416.68
563.004	386.04
563.356	327.31
563.709	383.49
564.061	403.91
564.413	447.32
564.766	416.68
565.118	388.59
565.47	437.11
565.822	406.47
566.174	380.93
566.526	370.72
566.878	363.06
567.23	406.47
567.582	380.93
567.934	347.74
568.286	342.63
568.638	432
568.989	375.83
569.341	388.59
569.693	357.95
570.044	329.86
570.396	357.95
570.747	401.36
571.098	393.7
571.45	383.49
571.801	383.49
572.152	439.66
572.504	414.13
572.855	432
573.206	386.04
573.557	426.89
573.908	352.84
574.259	411.57
574.61	383.49
574.961	452.43
575.311	437.11
575.662	401.36
576.013	424.34
576.364	447.32
576.714	470.3
577.065	442.21
577.415	322.2
577.766	432
578.116	426.89
578.467	383.49
578.817	409.02
579.167	462.64
579.518	409.02
579.868	411.57
580.218	457.53
580.568	429.45
580.918	449.87
581.268	403.91
581.618	429.45
581.968	401.36
582.318	454.98
582.668	409.02
583.017	391.15
583.367	409.02
583.717	470.3
584.066	396.25
584.416	414.13
584.765	388.59
585.115	424.34
585.464	393.7
585.814	360.51
586.163	416.68
586.512	414.13
586.862	340.08
587.211	432
587.56	434.55
587.909	442.21
588.258	396.25
588.607	383.49
588.956	434.55
589.305	416.68
589.654	403.91
590.002	416.68
590.351	355.4
590.7	406.47
591.048	411.57
591.397	406.47
591.746	442.21
592.094	472.85
592.443	375.83
592.791	393.7
593.139	406.47
593.488	414.13
593.836	352.84
594.184	345.18
594.532	416.68
594.88	401.36
595.228	426.89
595.576	355.4
595.924	391.15
596.272	375.83
596.62	357.95
596.968	345.18
597.316	416.68
597.664	373.27
598.011	437.11
598.359	393.7
598.706	421.79
599.054	467.75
599.402	421.79
599.749	386.04
600.096	396.25
600.444	439.66
600.791	329.86
601.138	414.13
601.485	355.4
601.833	416.68
602.18	424.34
602.527	378.38
602.874	386.04
603.221	406.47
603.568	334.97
603.914	437.11
604.261	337.52
604.608	401.36
604.955	426.89
605.301	401.36
605.648	396.25
605.995	434.55
606.341	429.45
606.688	426.89
607.034	378.38
607.38	452.43
607.727	355.4
608.073	363.06
608.419	411.57
608.765	342.63
609.112	388.59
609.458	442.21
609.804	406.47
610.15	327.31
610.496	334.97
610.842	393.7
611.187	419.23
611.533	416.68
611.879	439.66
612.225	472.85
612.57	426.89
612.916	414.13
613.261	380.93
613.607	414.13
613.952	383.49
614.298	386.04
614.643	391.15
614.989	322.2
615.334	345.18
615.679	401.36
616.024	406.47
616.369	383.49
616.714	360.51
617.059	345.18
617.404	424.34
617.749	457.53
618.094	421.79
618.439	352.84
618.784	386.04
619.129	355.4
619.473	432
619.818	373.27
620.163	447.32
620.507	493.28
620.852	396.25
621.196	393.7
621.54	375.83
621.885	370.72
622.229	419.23
622.573	416.68
622.918	416.68
623.262	406.47
623.606	332.42
623.95	434.55
624.294	426.89
624.638	355.4
624.982	355.4
625.326	432
625.67	380.93
626.013	386.04
626.357	355.4
626.701	350.29
627.044	378.38
627.388	342.63
627.731	447.32
628.075	457.53
628.418	434.55
628.762	332.42
629.105	391.15
629.448	340.08
629.792	350.29
630.135	406.47
630.478	391.15
630.821	357.95
631.164	373.27
631.507	342.63
631.85	406.47
632.193	373.27
632.536	383.49
632.879	299.22
633.221	391.15
633.564	437.11
633.907	391.15
634.249	386.04
634.592	409.02
634.935	454.98
635.277	421.79
635.619	378.38
635.962	375.83
636.304	414.13
636.646	401.36
636.989	378.38
637.331	409.02
637.673	421.79
638.015	365.61
638.357	393.7
638.699	465.19
639.041	439.66
639.383	439.66
639.725	467.75
640.067	396.25
640.408	380.93
640.75	398.81
641.092	485.62
641.433	447.32
641.775	432
642.116	398.81
642.458	460.09
642.799	442.21
643.141	365.61
643.482	332.42
643.823	368.17
644.164	465.19
644.506	388.59
644.847	360.51
645.188	396.25
645.529	419.23
645.87	442.21
646.211	460.09
646.552	429.45
646.893	411.57
647.233	434.55
647.574	419.23
647.915	332.42
648.255	378.38
648.596	383.49
648.937	340.08
649.277	393.7
649.618	442.21
649.958	490.73
650.298	386.04
650.639	449.87
650.979	329.86
651.319	383.49
651.659	424.34
651.999	350.29
652.339	363.06
652.679	332.42
653.019	345.18
653.359	345.18
653.699	317.1
654.039	406.47
654.379	396.25
654.719	360.51
655.058	386.04
655.398	449.87
655.737	452.43
656.077	380.93
656.416	409.02
656.756	380.93
657.095	449.87
657.435	383.49
657.774	434.55
658.113	403.91
658.452	363.06
658.792	373.27
659.131	360.51
659.47	314.54
659.809	437.11
660.148	396.25
660.487	401.36
660.826	311.99
661.164	391.15
661.503	375.83
661.842	365.61
662.181	383.49
662.519	324.76
662.858	327.31
663.196	386.04
663.535	421.79
663.873	365.61
664.212	396.25
664.55	373.27
664.888	401.36
665.226	357.95
665.565	421.79
665.903	620.95
666.241	416.68
666.579	398.81
666.917	414.13
667.255	393.7
667.593	350.29
667.931	421.79
668.268	434.55
668.606	370.72
668.944	401.36
669.282	414.13
669.619	368.17
669.957	406.47
670.294	419.23
670.632	444.77
670.969	380.93
671.307	337.52
671.644	324.76
671.981	419.23
672.318	421.79
672.656	378.38
672.993	409.02
673.33	472.85
673.667	429.45
674.004	424.34
674.341	403.91
674.678	424.34
675.015	414.13
675.351	429.45
675.688	447.32
676.025	426.89
676.362	416.68
676.698	447.32
677.035	403.91
677.371	411.57
677.708	370.72
678.044	360.51
678.38	411.57
678.717	375.83
679.053	373.27
679.389	403.91
679.725	383.49
680.062	398.81
680.398	416.68
680.734	365.61
681.07	334.97
681.406	421.79
681.742	429.45
682.077	472.85
682.413	375.83
682.749	391.15
683.085	383.49
683.42	383.49
683.756	409.02
684.091	375.83
684.427	393.7
684.762	380.93
685.098	370.72
685.433	398.81
685.768	355.4
686.104	370.72
686.439	429.45
686.774	368.17
687.109	363.06
687.444	309.44
687.779	414.13
688.114	363.06
688.449	409.02
688.784	421.79
689.119	419.23
689.454	391.15
689.789	340.08
690.123	352.84
690.458	337.52
690.792	373.27
691.127	403.91
691.461	393.7
691.796	304.33
692.13	393.7
692.465	421.79
692.799	360.51
693.133	391.15
693.467	426.89
693.802	406.47
694.136	357.95
694.47	368.17
694.804	424.34
695.138	432
695.472	406.47
695.806	342.63
696.139	388.59
696.473	380.93
696.807	363.06
697.141	416.68
697.474	421.79
697.808	414.13
698.141	347.74
698.475	426.89
698.808	360.51
699.142	383.49
699.475	375.83
699.808	357.95
700.142	421.79
700.475	368.17
700.808	340.08
701.141	370.72
701.474	434.55
701.807	409.02
702.14	383.49
702.473	403.91
702.806	470.3
703.139	334.97
703.472	424.34
703.804	401.36
704.137	355.4
704.47	378.38
704.802	365.61
705.135	375.83
705.467	419.23
705.8	411.57
706.132	357.95
706.464	340.08
706.797	396.25
707.129	383.49
707.461	398.81
707.793	337.52
708.125	403.91
708.457	437.11
708.789	421.79
709.121	363.06
709.453	398.81
709.785	334.97
710.117	406.47
710.449	373.27
710.781	386.04
711.112	352.84
711.444	375.83
711.775	411.57
712.107	421.79
712.438	365.61
712.77	375.83
713.101	360.51
713.433	419.23
713.764	383.49
714.095	421.79
714.426	421.79
714.757	363.06
715.089	388.59
715.42	375.83
715.751	388.59
716.082	414.13
716.412	386.04
716.743	409.02
717.074	401.36
717.405	414.13
717.736	401.36
718.066	334.97
718.397	424.34
718.727	424.34
719.058	380.93
719.388	388.59
719.719	345.18
720.049	360.51
720.38	447.32
720.71	378.38
721.04	403.91
721.37	355.4
721.7	434.55
722.031	406.47
722.361	393.7
722.691	370.72
723.021	411.57
723.35	380.93
723.68	375.83
724.01	416.68
724.34	449.87
724.67	373.27
724.999	414.13
725.329	380.93
725.658	406.47
725.988	419.23
726.317	411.57
726.647	391.15
726.976	281.35
727.306	416.68
727.635	357.95
727.964	449.87
728.293	368.17
728.622	406.47
728.952	350.29
729.281	393.7
729.61	393.7
729.939	347.74
730.267	442.21
730.596	388.59
730.925	380.93
731.254	401.36
731.583	434.55
731.911	363.06
732.24	393.7
732.568	393.7
732.897	363.06
733.225	350.29
733.554	365.61
733.882	432
734.21	442.21
734.539	391.15
734.867	424.34
735.195	421.79
735.523	388.59
735.851	347.74
736.179	363.06
736.507	350.29
736.835	342.63
737.163	414.13
737.491	388.59
737.819	452.43
738.147	352.84
738.474	355.4
738.802	380.93
739.13	337.52
739.457	317.1
739.785	386.04
740.112	375.83
740.44	398.81
740.767	322.2
741.094	357.95
741.422	386.04
741.749	391.15
742.076	357.95
742.403	426.89
742.73	424.34
743.057	442.21
743.384	368.17
743.711	352.84
744.038	391.15
744.365	467.75
744.692	424.34
745.018	388.59
745.345	365.61
745.672	347.74
745.998	416.68
746.325	483.07
746.651	388.59
746.978	401.36
747.304	398.81
747.631	355.4
747.957	383.49
748.283	398.81
748.61	439.66
748.936	419.23
749.262	386.04
749.588	396.25
749.914	398.81
750.24	393.7
750.566	409.02
750.892	406.47
751.218	416.68
751.543	337.52
751.869	334.97
752.195	373.27
752.521	355.4
752.846	421.79
753.172	449.87
753.497	411.57
753.823	437.11
754.148	442.21
754.473	403.91
754.799	317.1
755.124	327.31
755.449	386.04
755.774	337.52
756.1	391.15
756.425	419.23
756.75	357.95
757.075	324.76
757.4	444.77
757.724	470.3
758.049	388.59
758.374	414.13
758.699	334.97
759.024	386.04
759.348	383.49
759.673	378.38
759.997	401.36
760.322	309.44
760.646	380.93
760.971	360.51
761.295	465.19
761.619	419.23
761.944	419.23
762.268	332.42
762.592	424.34
762.916	416.68
763.24	424.34
763.564	378.38
763.888	386.04
764.212	442.21
764.536	421.79
764.86	447.32
765.184	562.22
765.508	529.03
765.831	500.94
766.155	725.64
766.478	508.6
766.802	470.3
767.126	462.64
767.449	603.08
767.772	577.54
768.096	590.31
768.419	572.44
768.742	577.54
769.066	577.54
769.389	682.23
769.712	666.91
770.035	603.08
770.358	723.08
770.681	728.19
771.004	743.51
771.327	725.64
771.65	730.74
771.972	804.79
772.295	710.32
772.618	707.76
772.941	756.28
773.263	794.58
773.586	845.65
773.908	896.71
774.231	1006.51
774.553	919.69
774.875	1075.45
775.198	1146.95
775.52	1080.56
775.842	1121.41
776.164	986.08
776.487	1021.83
776.809	980.98
777.131	1014.17
777.453	958
777.775	1090.77
778.096	1195.46
778.418	1226.1
778.74	1195.46
779.062	1162.27
779.384	1198.01
779.705	1348.66
780.027	1450.8
780.348	1445.69
780.67	1341
780.991	1409.94
781.313	1609.11
781.634	1634.64
781.955	1626.98
782.277	1695.92
782.598	1736.78
782.919	1626.98
783.24	1604
783.561	1604
783.882	1726.56
784.203	1624.43
784.524	1695.92
784.845	1634.64
785.166	1649.96
785.487	1675.49
785.807	1685.71
786.128	1634.64
786.449	1598.89
786.769	1836.36
787.09	1869.55
787.41	2012.54
787.731	2191.28
788.051	2234.68
788.372	2193.83
788.692	2395.55
789.012	2375.12
789.332	2280.65
789.653	2398.1
789.973	2490.02
790.293	2479.81
790.613	2306.18
790.933	2303.63
791.253	2316.39
791.573	2285.75
791.893	2316.39
792.212	2158.08
792.532	2275.54
792.852	2173.4
793.171	2127.44
793.491	2015.09
793.811	2002.33
794.13	1856.78
794.45	1943.6
794.769	1844.02
795.088	1838.91
795.408	1746.99
795.727	1928.28
796.046	1864.44
796.365	1769.97
796.684	1792.95
797.004	1731.67
797.323	1892.53
797.642	2316.39
797.96	2497.68
798.279	2541.09
798.598	2469.6
798.917	2477.26
799.236	2362.35
799.554	2122.34
799.873	2040.63
800.192	2081.48
800.51	2188.72
800.829	2145.32
