Data from 2025-12-03_xpw_interference_micrometer_634_reference_FLMS141361__82__532.txt Node

Date: Wed Dec 03 15:52:27 MST 2025
User: james
Spectrometer: FLMS14136
Trigger mode: 0
Integration Time (sec): 1.000000E-1
Scans to average: 1
Electric dark correction enabled: true
Nonlinearity correction enabled: false
Boxcar width: 0
XAxis mode: Wavelengths
Number of Pixels in Spectrum: 2048
>>>>>Begin Spectral Data<<<<<
339.315	-31.44
339.697	-31.44
340.079	-31.44
340.461	-54.42
340.843	-69.74
341.225	-95.27
341.607	-102.93
341.989	-82.51
342.371	-62.08
342.752	-54.42
343.134	-77.4
343.516	-59.53
343.897	-18.67
344.279	-3.35
344.661	-5.9
345.042	34.95
345.423	32.4
345.805	52.82
346.186	172.83
346.567	162.62
346.949	106.44
347.33	211.13
347.711	175.39
348.092	180.49
348.473	170.28
348.854	259.65
349.235	249.43
349.616	277.52
349.997	331.14
350.378	244.33
350.758	249.43
351.139	351.57
351.52	333.69
351.9	315.82
352.281	405.19
352.661	377.1
353.042	341.35
353.422	402.64
353.803	435.83
354.183	382.21
354.563	333.69
354.943	417.96
355.324	372
355.704	392.42
356.084	407.74
356.464	438.38
356.844	502.22
357.224	453.7
357.603	417.96
357.983	384.76
358.363	410.3
358.743	415.4
359.122	331.14
359.502	400.08
359.882	361.78
360.261	343.91
360.641	366.89
361.02	351.57
361.399	364.34
361.779	315.82
362.158	433.28
362.537	379.66
362.916	346.46
363.296	372
363.675	349.01
364.054	336.25
364.433	328.59
364.812	374.55
365.19	351.57
365.569	354.12
365.948	369.44
366.327	364.34
366.705	392.42
367.084	372
367.463	356.67
367.841	369.44
368.22	407.74
368.598	336.25
368.977	295.39
369.355	389.87
369.733	308.16
370.111	359.23
370.49	318.37
370.868	343.91
371.246	328.59
371.624	359.23
372.002	379.66
372.38	369.44
372.758	361.78
373.136	374.55
373.513	425.62
373.891	415.4
374.269	354.12
374.646	315.82
375.024	305.61
375.402	331.14
375.779	382.21
376.157	310.71
376.534	374.55
376.911	410.3
377.289	356.67
377.666	356.67
378.043	407.74
378.42	387.32
378.797	349.01
379.175	343.91
379.552	318.37
379.929	400.08
380.305	333.69
380.682	379.66
381.059	372
381.436	354.12
381.813	374.55
382.189	387.32
382.566	389.87
382.943	412.85
383.319	320.93
383.696	397.53
384.072	384.76
384.448	384.76
384.825	346.46
385.201	351.57
385.577	241.77
385.953	361.78
386.329	326.03
386.706	379.66
387.082	428.17
387.458	392.42
387.834	305.61
388.209	359.23
388.585	349.01
388.961	420.51
389.337	463.92
389.713	359.23
390.088	364.34
390.464	425.62
390.839	486.9
391.215	417.96
391.59	343.91
391.966	428.17
392.341	428.17
392.716	366.89
393.092	400.08
393.467	417.96
393.842	349.01
394.217	364.34
394.592	394.98
394.967	425.62
395.342	333.69
395.717	303.05
396.092	377.1
396.467	407.74
396.841	351.57
397.216	377.1
397.591	280.07
397.965	328.59
398.34	374.55
398.714	387.32
399.089	384.76
399.463	341.35
399.838	410.3
400.212	372
400.586	400.08
400.961	351.57
401.335	346.46
401.709	400.08
402.083	387.32
402.457	394.98
402.831	443.49
403.205	446.04
403.579	400.08
403.953	410.3
404.326	341.35
404.7	392.42
405.074	346.46
405.447	420.51
405.821	507.32
406.195	382.21
406.568	351.57
406.942	394.98
407.315	354.12
407.688	448.6
408.062	346.46
408.435	336.25
408.808	351.57
409.181	351.57
409.554	282.63
409.927	338.8
410.3	374.55
410.673	290.29
411.046	433.28
411.419	433.28
411.792	384.76
412.165	382.21
412.537	356.67
412.91	361.78
413.283	315.82
413.655	361.78
414.028	438.38
414.4	415.4
414.773	382.21
415.145	349.01
415.517	407.74
415.889	354.12
416.262	372
416.634	300.5
417.006	333.69
417.378	384.76
417.75	474.13
418.122	412.85
418.494	377.1
418.866	417.96
419.238	494.56
419.609	387.32
419.981	407.74
420.353	369.44
420.725	415.4
421.096	397.53
421.468	446.04
421.839	425.62
422.211	394.98
422.582	463.92
422.953	430.72
423.325	407.74
423.696	351.57
424.067	356.67
424.438	382.21
424.809	374.55
425.18	369.44
425.551	377.1
425.922	461.36
426.293	479.24
426.664	392.42
427.035	446.04
427.406	451.15
427.776	492
428.147	440.94
428.518	412.85
428.888	392.42
429.259	389.87
429.629	425.62
429.999	359.23
430.37	423.06
430.74	407.74
431.11	425.62
431.481	402.64
431.851	410.3
432.221	469.02
432.591	446.04
432.961	326.03
433.331	356.67
433.701	435.83
434.071	435.83
434.441	407.74
434.81	415.4
435.18	446.04
435.55	377.1
435.919	392.42
436.289	456.26
436.658	372
437.028	443.49
437.397	400.08
437.767	387.32
438.136	402.64
438.505	433.28
438.875	463.92
439.244	466.47
439.613	430.72
439.982	438.38
440.351	412.85
440.72	407.74
441.089	346.46
441.458	420.51
441.827	461.36
442.196	433.28
442.564	502.22
442.933	400.08
443.302	471.58
443.67	359.23
444.039	397.53
444.407	369.44
444.776	405.19
445.144	359.23
445.513	343.91
445.881	394.98
446.249	400.08
446.617	433.28
446.986	374.55
447.354	417.96
447.722	382.21
448.09	405.19
448.458	397.53
448.826	479.24
449.194	461.36
449.561	412.85
449.929	397.53
450.297	384.76
450.665	400.08
451.032	400.08
451.4	331.14
451.767	420.51
452.135	438.38
452.502	420.51
452.87	405.19
453.237	428.17
453.604	446.04
453.971	420.51
454.339	379.66
454.706	417.96
455.073	410.3
455.44	377.1
455.807	420.51
456.174	379.66
456.541	400.08
456.908	435.83
457.274	405.19
457.641	456.26
458.008	481.79
458.374	384.76
458.741	494.56
459.108	438.38
459.474	458.81
459.841	420.51
460.207	438.38
460.573	392.42
460.94	415.4
461.306	410.3
461.672	405.19
462.038	384.76
462.404	448.6
462.771	463.92
463.137	349.01
463.503	448.6
463.868	438.38
464.234	430.72
464.6	428.17
464.966	354.12
465.332	394.98
465.697	394.98
466.063	446.04
466.429	461.36
466.794	315.82
467.16	377.1
467.525	423.06
467.89	361.78
468.256	420.51
468.621	435.83
468.986	374.55
469.351	407.74
469.717	448.6
470.082	400.08
470.447	469.02
470.812	428.17
471.177	446.04
471.542	451.15
471.906	394.98
472.271	440.94
472.636	400.08
473.001	423.06
473.365	364.34
473.73	453.7
474.094	420.51
474.459	405.19
474.823	443.49
475.188	433.28
475.552	392.42
475.917	384.76
476.281	407.74
476.645	397.53
477.009	356.67
477.373	428.17
477.737	341.35
478.101	364.34
478.465	400.08
478.829	420.51
479.193	435.83
479.557	448.6
479.921	372
480.284	415.4
480.648	440.94
481.012	407.74
481.375	435.83
481.739	443.49
482.102	463.92
482.466	400.08
482.829	420.51
483.193	412.85
483.556	448.6
483.919	346.46
484.282	394.98
484.645	425.62
485.009	463.92
485.372	379.66
485.735	323.48
486.098	361.78
486.46	377.1
486.823	372
487.186	430.72
487.549	377.1
487.912	412.85
488.274	522.64
488.637	458.81
488.999	435.83
489.362	379.66
489.724	443.49
490.087	446.04
490.449	415.4
490.811	423.06
491.174	451.15
491.536	377.1
491.898	448.6
492.26	397.53
492.622	361.78
492.984	374.55
493.346	354.12
493.708	451.15
494.07	379.66
494.432	346.46
494.794	479.24
495.155	402.64
495.517	492
495.879	389.87
496.24	451.15
496.602	410.3
496.963	458.81
497.325	369.44
497.686	394.98
498.048	359.23
498.409	394.98
498.77	379.66
499.131	415.4
499.492	423.06
499.854	384.76
500.215	479.24
500.576	415.4
500.937	372
501.298	443.49
501.658	392.42
502.019	466.47
502.38	402.64
502.741	397.53
503.101	361.78
503.462	407.74
503.823	499.66
504.183	443.49
504.543	420.51
504.904	469.02
505.264	389.87
505.625	466.47
505.985	387.32
506.345	446.04
506.705	456.26
507.065	435.83
507.426	438.38
507.786	486.9
508.146	443.49
508.505	438.38
508.865	366.89
509.225	415.4
509.585	499.66
509.945	438.38
510.304	430.72
510.664	415.4
511.024	387.32
511.383	405.19
511.743	410.3
512.102	410.3
512.462	469.02
512.821	410.3
513.18	392.42
513.539	435.83
513.899	430.72
514.258	425.62
514.617	369.44
514.976	412.85
515.335	392.42
515.694	440.94
516.053	448.6
516.412	461.36
516.771	433.28
517.129	356.67
517.488	400.08
517.847	471.58
518.205	456.26
518.564	412.85
518.922	328.59
519.281	476.68
519.639	435.83
519.998	397.53
520.356	331.14
520.714	389.87
521.073	443.49
521.431	453.7
521.789	420.51
522.147	397.53
522.505	384.76
522.863	412.85
523.221	387.32
523.579	369.44
523.937	343.91
524.295	453.7
524.652	423.06
525.01	400.08
525.368	400.08
525.725	412.85
526.083	351.57
526.44	392.42
526.798	328.59
527.155	379.66
527.513	356.67
527.87	458.81
528.227	407.74
528.584	435.83
528.942	425.62
529.299	338.8
529.656	328.59
530.013	374.55
530.37	356.67
530.727	423.06
531.083	430.72
531.44	384.76
531.797	417.96
532.154	476.68
532.511	433.28
532.867	384.76
533.224	361.78
533.58	389.87
533.937	351.57
534.293	423.06
534.65	484.34
535.006	402.64
535.362	364.34
535.718	438.38
536.075	417.96
536.431	412.85
536.787	433.28
537.143	387.32
537.499	394.98
537.855	389.87
538.211	469.02
538.567	463.92
538.923	466.47
539.278	504.77
539.634	415.4
539.99	415.4
540.345	417.96
540.701	382.21
541.056	407.74
541.412	423.06
541.767	397.53
542.123	440.94
542.478	402.64
542.833	451.15
543.188	469.02
543.544	394.98
543.899	435.83
544.254	387.32
544.609	384.76
544.964	369.44
545.319	428.17
545.674	402.64
546.029	389.87
546.383	407.74
546.738	394.98
547.093	354.12
547.447	356.67
547.802	400.08
548.157	394.98
548.511	458.81
548.866	474.13
549.22	343.91
549.574	425.62
549.929	428.17
550.283	440.94
550.637	417.96
550.991	377.1
551.345	417.96
551.699	374.55
552.053	379.66
552.407	369.44
552.761	415.4
553.115	410.3
553.469	438.38
553.823	400.08
554.176	451.15
554.53	438.38
554.884	415.4
555.237	614.57
555.591	466.47
555.944	492
556.298	389.87
556.651	392.42
557.005	420.51
557.358	443.49
557.711	435.83
558.064	354.12
558.417	423.06
558.771	481.79
559.124	469.02
559.477	443.49
559.83	448.6
560.182	458.81
560.535	430.72
560.888	512.43
561.241	428.17
561.594	384.76
561.946	420.51
562.299	359.23
562.651	435.83
563.004	420.51
563.356	351.57
563.709	415.4
564.061	420.51
564.413	407.74
564.766	430.72
565.118	412.85
565.47	417.96
565.822	425.62
566.174	440.94
566.526	405.19
566.878	463.92
567.23	410.3
567.582	448.6
567.934	440.94
568.286	423.06
568.638	448.6
568.989	410.3
569.341	374.55
569.693	338.8
570.044	397.53
570.396	461.36
570.747	379.66
571.098	402.64
571.45	400.08
571.801	389.87
572.152	384.76
572.504	384.76
572.855	412.85
573.206	481.79
573.557	394.98
573.908	484.34
574.259	514.98
574.61	346.46
574.961	481.79
575.311	433.28
575.662	341.35
576.013	372
576.364	440.94
576.714	389.87
577.065	428.17
577.415	377.1
577.766	489.45
578.116	394.98
578.467	410.3
578.817	466.47
579.167	440.94
579.518	338.8
579.868	438.38
580.218	456.26
580.568	392.42
580.918	405.19
581.268	451.15
581.618	400.08
581.968	423.06
582.318	320.93
582.668	382.21
583.017	400.08
583.367	435.83
583.717	463.92
584.066	423.06
584.416	402.64
584.765	466.47
585.115	458.81
585.464	458.81
585.814	372
586.163	397.53
586.512	331.14
586.862	405.19
587.211	410.3
587.56	412.85
587.909	456.26
588.258	443.49
588.607	443.49
588.956	446.04
589.305	443.49
589.654	397.53
590.002	423.06
590.351	423.06
590.7	443.49
591.048	407.74
591.397	420.51
591.746	392.42
592.094	377.1
592.443	448.6
592.791	425.62
593.139	405.19
593.488	387.32
593.836	400.08
594.184	374.55
594.532	397.53
594.88	438.38
595.228	471.58
595.576	410.3
595.924	514.98
596.272	420.51
596.62	400.08
596.968	359.23
597.316	446.04
597.664	407.74
598.011	379.66
598.359	405.19
598.706	405.19
599.054	341.35
599.402	389.87
599.749	420.51
600.096	346.46
600.444	366.89
600.791	423.06
601.138	420.51
601.485	405.19
601.833	369.44
602.18	440.94
602.527	397.53
602.874	384.76
603.221	428.17
603.568	446.04
603.914	379.66
604.261	369.44
604.608	463.92
604.955	446.04
605.301	387.32
605.648	400.08
605.995	359.23
606.341	443.49
606.688	372
607.034	343.91
607.38	446.04
607.727	394.98
608.073	356.67
608.419	402.64
608.765	428.17
609.112	443.49
609.458	402.64
609.804	400.08
610.15	361.78
610.496	415.4
610.842	387.32
611.187	392.42
611.533	415.4
611.879	377.1
612.225	397.53
612.57	405.19
612.916	417.96
613.261	453.7
613.607	354.12
613.952	354.12
614.298	392.42
614.643	343.91
614.989	428.17
615.334	417.96
615.679	443.49
616.024	417.96
616.369	412.85
616.714	384.76
617.059	410.3
617.404	479.24
617.749	481.79
618.094	407.74
618.439	417.96
618.784	400.08
619.129	359.23
619.473	328.59
619.818	415.4
620.163	512.43
620.507	410.3
620.852	384.76
621.196	379.66
621.54	412.85
621.885	410.3
622.229	420.51
622.573	361.78
622.918	333.69
623.262	387.32
623.606	369.44
623.95	446.04
624.294	377.1
624.638	469.02
624.982	354.12
625.326	415.4
625.67	387.32
626.013	461.36
626.357	400.08
626.701	428.17
627.044	428.17
627.388	415.4
627.731	379.66
628.075	359.23
628.418	379.66
628.762	400.08
629.105	494.56
629.448	435.83
629.792	379.66
630.135	369.44
630.478	486.9
630.821	448.6
631.164	361.78
631.507	379.66
631.85	359.23
632.193	397.53
632.536	410.3
632.879	331.14
633.221	410.3
633.564	425.62
633.907	435.83
634.249	349.01
634.592	356.67
634.935	384.76
635.277	407.74
635.619	387.32
635.962	425.62
636.304	420.51
636.646	331.14
636.989	394.98
637.331	410.3
637.673	504.77
638.015	369.44
638.357	428.17
638.699	392.42
639.041	466.47
639.383	479.24
639.725	364.34
640.067	389.87
640.408	361.78
640.75	407.74
641.092	425.62
641.433	407.74
641.775	379.66
642.116	433.28
642.458	471.58
642.799	428.17
643.141	512.43
643.482	430.72
643.823	377.1
644.164	435.83
644.506	420.51
644.847	389.87
645.188	349.01
645.529	343.91
645.87	377.1
646.211	440.94
646.552	425.62
646.893	389.87
647.233	366.89
647.574	354.12
647.915	415.4
648.255	412.85
648.596	394.98
648.937	354.12
649.277	356.67
649.618	428.17
649.958	469.02
650.298	438.38
650.639	341.35
650.979	359.23
651.319	451.15
651.659	394.98
651.999	420.51
652.339	397.53
652.679	374.55
653.019	343.91
653.359	417.96
653.699	410.3
654.039	400.08
654.379	387.32
654.719	417.96
655.058	430.72
655.398	425.62
655.737	486.9
656.077	492
656.416	410.3
656.756	405.19
657.095	372
657.435	382.21
657.774	430.72
658.113	486.9
658.452	417.96
658.792	377.1
659.131	387.32
659.47	379.66
659.809	428.17
660.148	440.94
660.487	333.69
660.826	379.66
661.164	435.83
661.503	384.76
661.842	400.08
662.181	377.1
662.519	389.87
662.858	463.92
663.196	463.92
663.535	389.87
663.873	405.19
664.212	430.72
664.55	433.28
664.888	300.5
665.226	323.48
665.565	387.32
665.903	517.54
666.241	438.38
666.579	392.42
666.917	356.67
667.255	492
667.593	366.89
667.931	435.83
668.268	417.96
668.606	405.19
668.944	400.08
669.282	410.3
669.619	361.78
669.957	374.55
670.294	361.78
670.632	456.26
670.969	379.66
671.307	397.53
671.644	320.93
671.981	392.42
672.318	448.6
672.656	384.76
672.993	333.69
673.33	448.6
673.667	341.35
674.004	425.62
674.341	453.7
674.678	407.74
675.015	394.98
675.351	402.64
675.688	407.74
676.025	433.28
676.362	425.62
676.698	469.02
677.035	407.74
677.371	435.83
677.708	402.64
678.044	397.53
678.38	435.83
678.717	384.76
679.053	387.32
679.389	423.06
679.725	451.15
680.062	366.89
680.398	397.53
680.734	400.08
681.07	438.38
681.406	379.66
681.742	364.34
682.077	415.4
682.413	430.72
682.749	420.51
683.085	410.3
683.42	377.1
683.756	397.53
684.091	359.23
684.427	364.34
684.762	369.44
685.098	364.34
685.433	369.44
685.768	369.44
686.104	407.74
686.439	410.3
686.774	356.67
687.109	405.19
687.444	440.94
687.779	384.76
688.114	430.72
688.449	410.3
688.784	366.89
689.119	374.55
689.454	412.85
689.789	379.66
690.123	466.47
690.458	354.12
690.792	428.17
691.127	397.53
691.461	369.44
691.796	372
692.13	458.81
692.465	446.04
692.799	456.26
693.133	430.72
693.467	463.92
693.802	471.58
694.136	377.1
694.47	412.85
694.804	451.15
695.138	443.49
695.472	384.76
695.806	338.8
696.139	382.21
696.473	456.26
696.807	402.64
697.141	377.1
697.474	430.72
697.808	356.67
698.141	520.09
698.475	382.21
698.808	374.55
699.142	343.91
699.475	461.36
699.808	394.98
700.142	438.38
700.475	417.96
700.808	428.17
701.141	374.55
701.474	397.53
701.807	420.51
702.14	359.23
702.473	364.34
702.806	366.89
703.139	379.66
703.472	400.08
703.804	359.23
704.137	392.42
704.47	384.76
704.802	476.68
705.135	405.19
705.467	349.01
705.8	412.85
706.132	361.78
706.464	412.85
706.797	402.64
707.129	389.87
707.461	392.42
707.793	438.38
708.125	443.49
708.457	392.42
708.789	410.3
709.121	428.17
709.453	394.98
709.785	382.21
710.117	346.46
710.449	420.51
710.781	415.4
711.112	417.96
711.444	392.42
711.775	405.19
712.107	435.83
712.438	397.53
712.77	384.76
713.101	407.74
713.433	417.96
713.764	484.34
714.095	430.72
714.426	402.64
714.757	420.51
715.089	364.34
715.42	392.42
715.751	359.23
716.082	346.46
716.412	323.48
716.743	397.53
717.074	372
717.405	400.08
717.736	333.69
718.066	356.67
718.397	369.44
718.727	402.64
719.058	481.79
719.388	382.21
719.719	405.19
720.049	349.01
720.38	372
720.71	379.66
721.04	397.53
721.37	366.89
721.7	333.69
722.031	372
722.361	446.04
722.691	410.3
723.021	400.08
723.35	423.06
723.68	438.38
724.01	377.1
724.34	364.34
724.67	415.4
724.999	412.85
725.329	435.83
725.658	410.3
725.988	428.17
726.317	417.96
726.647	423.06
726.976	417.96
727.306	410.3
727.635	451.15
727.964	425.62
728.293	407.74
728.622	354.12
728.952	456.26
729.281	425.62
729.61	433.28
729.939	486.9
730.267	382.21
730.596	448.6
730.925	397.53
731.254	377.1
731.583	428.17
731.911	372
732.24	333.69
732.568	400.08
732.897	425.62
733.225	354.12
733.554	463.92
733.882	402.64
734.21	359.23
734.539	377.1
734.867	412.85
735.195	361.78
735.523	387.32
735.851	446.04
736.179	451.15
736.507	341.35
736.835	417.96
737.163	379.66
737.491	377.1
737.819	415.4
738.147	392.42
738.474	333.69
738.802	420.51
739.13	415.4
739.457	412.85
739.785	377.1
740.112	377.1
740.44	400.08
740.767	412.85
741.094	438.38
741.422	405.19
741.749	374.55
742.076	410.3
742.403	423.06
742.73	389.87
743.057	458.81
743.384	392.42
743.711	394.98
744.038	372
744.365	481.79
744.692	446.04
745.018	463.92
745.345	494.56
745.672	412.85
745.998	446.04
746.325	448.6
746.651	397.53
746.978	397.53
747.304	351.57
747.631	361.78
747.957	446.04
748.283	430.72
748.61	425.62
748.936	417.96
749.262	438.38
749.588	438.38
749.914	394.98
750.24	397.53
750.566	400.08
750.892	384.76
751.218	405.19
751.543	382.21
751.869	420.51
752.195	389.87
752.521	402.64
752.846	387.32
753.172	377.1
753.497	425.62
753.823	405.19
754.148	372
754.473	384.76
754.799	446.04
755.124	412.85
755.449	402.64
755.774	428.17
756.1	382.21
756.425	346.46
756.75	341.35
757.075	402.64
757.4	481.79
757.724	417.96
758.049	430.72
758.374	382.21
758.699	331.14
759.024	446.04
759.348	435.83
759.673	359.23
759.997	448.6
760.322	366.89
760.646	377.1
760.971	402.64
761.295	384.76
761.619	369.44
761.944	420.51
762.268	440.94
762.592	448.6
762.916	433.28
763.24	420.51
763.564	394.98
763.888	384.76
764.212	451.15
764.536	479.24
764.86	466.47
765.184	453.7
765.508	484.34
765.831	446.04
766.155	650.31
766.478	509.88
766.802	617.12
767.126	474.13
767.449	504.77
767.772	509.88
768.096	568.61
768.419	525.2
768.742	612.01
769.066	586.48
769.389	711.59
769.712	642.65
770.035	647.76
770.358	686.06
770.681	688.61
771.004	663.08
771.327	706.49
771.65	719.25
771.972	726.91
772.295	790.75
772.618	823.94
772.941	910.76
773.263	877.56
773.586	956.72
773.908	928.63
774.231	1000.13
774.553	956.72
774.875	1079.28
775.198	1102.26
775.52	1012.89
775.842	1043.53
776.164	1000.13
776.487	989.91
776.809	992.47
777.131	1074.17
777.453	1191.63
777.775	1099.71
778.096	1120.14
778.418	1237.59
778.74	1176.31
779.062	1153.33
779.384	1240.14
779.705	1357.6
780.027	1441.86
780.348	1436.75
780.67	1431.65
780.991	1521.02
781.313	1676.77
781.634	1646.13
781.955	1587.4
782.277	1584.85
782.598	1641.02
782.919	1630.81
783.24	1635.92
783.561	1664
783.882	1635.92
784.203	1766.14
784.524	1689.54
784.845	1794.23
785.166	1661.45
785.487	1794.23
785.807	1794.23
786.128	1618.04
786.449	1658.9
786.769	1745.71
787.09	1878.49
787.41	1990.84
787.731	2184.89
788.051	2287.03
788.372	2253.83
788.692	2340.65
789.012	2396.82
789.332	2401.93
789.653	2437.68
789.973	2664.93
790.293	2575.56
790.613	2230.85
790.933	2243.62
791.253	2389.16
791.573	2417.25
791.893	2304.9
792.212	2169.57
792.532	2225.75
792.852	2146.59
793.171	2072.55
793.491	2092.97
793.811	2047.01
794.13	2029.14
794.45	1927
794.769	1850.4
795.088	1819.76
795.408	1873.38
795.727	1939.77
796.046	1934.66
796.365	1875.93
796.684	1855.51
797.004	1924.45
797.323	1972.96
797.642	2378.95
797.96	2475.98
798.279	2440.23
798.598	2358.52
798.917	2473.43
799.236	2376.4
799.554	2138.93
799.873	2049.56
800.192	2121.06
800.51	2228.3
800.829	2179.79
801.147	2108.29
801.466	2006.16
801.784	1944.88
802.102	1978.07
