Data from 2025-12-03_xpw_interference_micrometer_634_reference_FLMS141361__91__541.txt Node

Date: Wed Dec 03 15:52:28 MST 2025
User: james
Spectrometer: FLMS14136
Trigger mode: 0
Integration Time (sec): 1.000000E-1
Scans to average: 1
Electric dark correction enabled: true
Nonlinearity correction enabled: false
Boxcar width: 0
XAxis mode: Wavelengths
Number of Pixels in Spectrum: 2048
>>>>>Begin Spectral Data<<<<<
339.315	16.44
339.697	16.44
340.079	16.44
340.461	-75.48
340.843	-124
341.225	-70.38
341.607	-80.59
341.989	-75.48
342.371	-80.59
342.752	-11.65
343.134	-42.29
343.516	-52.5
343.897	-14.2
344.279	-1.44
344.661	-26.97
345.042	49.63
345.423	-11.65
345.805	108.36
346.186	13.88
346.567	149.21
346.949	146.66
347.33	156.87
347.711	225.81
348.092	210.49
348.473	205.39
348.854	271.78
349.235	338.16
349.616	274.33
349.997	287.1
350.378	304.97
350.758	312.63
351.139	350.93
351.52	345.82
351.9	361.14
352.281	396.89
352.661	373.91
353.042	368.8
353.422	437.74
353.803	424.98
354.183	391.78
354.563	368.8
354.943	366.25
355.324	340.72
355.704	384.12
356.084	389.23
356.464	402
356.844	427.53
357.224	368.8
357.603	419.87
357.983	361.14
358.363	409.66
358.743	391.78
359.122	417.32
359.502	396.89
359.882	445.4
360.261	402
360.641	419.87
361.02	376.46
361.399	386.68
361.779	424.98
362.158	373.91
362.537	356.04
362.916	391.78
363.296	356.04
363.675	333.06
364.054	348.38
364.433	289.65
364.812	445.4
365.19	345.82
365.569	363.7
365.948	407.1
366.327	399.44
366.705	363.7
367.084	407.1
367.463	276.88
367.841	361.14
368.22	371.36
368.598	430.08
368.977	371.36
369.355	294.76
369.733	409.66
370.111	358.59
370.49	325.4
370.868	322.84
371.246	402
371.624	335.61
372.002	335.61
372.38	386.68
372.758	389.23
373.136	302.42
373.513	422.42
373.891	402
374.269	335.61
374.646	391.78
375.024	363.7
375.402	394.34
375.779	384.12
376.157	371.36
376.534	430.08
376.911	384.12
377.289	353.48
377.666	379.02
378.043	404.55
378.42	335.61
378.797	353.48
379.175	348.38
379.552	325.4
379.929	353.48
380.305	345.82
380.682	338.16
381.059	402
381.436	386.68
381.813	399.44
382.189	427.53
382.566	396.89
382.943	414.76
383.319	412.21
383.696	376.46
384.072	330.5
384.448	381.57
384.825	348.38
385.201	384.12
385.577	320.29
385.953	343.27
386.329	384.12
386.706	335.61
387.082	368.8
387.458	297.31
387.834	384.12
388.209	424.98
388.585	391.78
388.961	463.28
389.337	442.85
389.713	414.76
390.088	353.48
390.464	358.59
390.839	353.48
391.215	399.44
391.59	409.66
391.966	343.27
392.341	381.57
392.716	353.48
393.092	350.93
393.467	402
393.842	333.06
394.217	317.74
394.592	445.4
394.967	399.44
395.342	358.59
395.717	419.87
396.092	396.89
396.467	430.08
396.841	437.74
397.216	432.64
397.591	391.78
397.965	402
398.34	371.36
398.714	376.46
399.089	394.34
399.463	419.87
399.838	343.27
400.212	414.76
400.586	468.39
400.961	430.08
401.335	371.36
401.709	445.4
402.083	384.12
402.457	376.46
402.831	381.57
403.205	348.38
403.579	363.7
403.953	419.87
404.326	371.36
404.7	384.12
405.074	432.64
405.447	379.02
405.821	407.1
406.195	440.3
406.568	312.63
406.942	460.73
407.315	381.57
407.688	447.96
408.062	356.04
408.435	384.12
408.808	391.78
409.181	368.8
409.554	402
409.927	407.1
410.3	419.87
410.673	430.08
411.046	422.42
411.419	399.44
411.792	458.17
412.165	417.32
412.537	447.96
412.91	394.34
413.283	366.25
413.655	376.46
414.028	386.68
414.4	366.25
414.773	358.59
415.145	361.14
415.517	396.89
415.889	427.53
416.262	391.78
416.634	402
417.006	348.38
417.378	432.64
417.75	453.07
418.122	379.02
418.494	455.62
418.866	427.53
419.238	389.23
419.609	394.34
419.981	412.21
420.353	450.51
420.725	350.93
421.096	407.1
421.468	486.26
421.839	424.98
422.211	376.46
422.582	333.06
422.953	402
423.325	460.73
423.696	404.55
424.067	402
424.438	414.76
424.809	379.02
425.18	391.78
425.551	404.55
425.922	394.34
426.293	353.48
426.664	381.57
427.035	501.58
427.406	465.83
427.776	424.98
428.147	440.3
428.518	322.84
428.888	422.42
429.259	409.66
429.629	460.73
429.999	402
430.37	404.55
430.74	414.76
431.11	361.14
431.481	371.36
431.851	506.69
432.221	384.12
432.591	379.02
432.961	379.02
433.331	343.27
433.701	404.55
434.071	409.66
434.441	422.42
434.81	442.85
435.18	399.44
435.55	435.19
435.919	432.64
436.289	445.4
436.658	343.27
437.028	320.29
437.397	414.76
437.767	409.66
438.136	394.34
438.505	419.87
438.875	368.8
439.244	404.55
439.613	463.28
439.982	527.11
440.351	432.64
440.72	417.32
441.089	389.23
441.458	394.34
441.827	409.66
442.196	343.27
442.564	473.49
442.933	381.57
443.302	343.27
443.67	432.64
444.039	414.76
444.407	450.51
444.776	435.19
445.144	424.98
445.513	394.34
445.881	409.66
446.249	381.57
446.617	348.38
446.986	404.55
447.354	465.83
447.722	437.74
448.09	389.23
448.458	381.57
448.826	491.37
449.194	338.16
449.561	463.28
449.929	442.85
450.297	379.02
450.665	391.78
451.032	437.74
451.4	363.7
451.767	424.98
452.135	402
452.502	430.08
452.87	412.21
453.237	404.55
453.604	430.08
453.971	440.3
454.339	402
454.706	430.08
455.073	440.3
455.44	453.07
455.807	442.85
456.174	440.3
456.541	432.64
456.908	432.64
457.274	465.83
457.641	435.19
458.008	499.03
458.374	424.98
458.741	445.4
459.108	379.02
459.474	491.37
459.841	361.14
460.207	399.44
460.573	430.08
460.94	381.57
461.306	381.57
461.672	435.19
462.038	447.96
462.404	442.85
462.771	435.19
463.137	435.19
463.503	414.76
463.868	417.32
464.234	353.48
464.6	455.62
464.966	424.98
465.332	450.51
465.697	412.21
466.063	419.87
466.429	414.76
466.794	424.98
467.16	442.85
467.525	409.66
467.89	453.07
468.256	435.19
468.621	394.34
468.986	465.83
469.351	386.68
469.717	368.8
470.082	419.87
470.447	486.26
470.812	455.62
471.177	386.68
471.542	483.71
471.906	447.96
472.271	476.05
472.636	424.98
473.001	437.74
473.365	470.94
473.73	412.21
474.094	450.51
474.459	419.87
474.823	422.42
475.188	386.68
475.552	491.37
475.917	391.78
476.281	463.28
476.645	470.94
477.009	371.36
477.373	407.1
477.737	450.51
478.101	430.08
478.465	468.39
478.829	450.51
479.193	463.28
479.557	442.85
479.921	407.1
480.284	407.1
480.648	391.78
481.012	384.12
481.375	358.59
481.739	432.64
482.102	432.64
482.466	384.12
482.829	516.9
483.193	412.21
483.556	353.48
483.919	414.76
484.282	470.94
484.645	373.91
485.009	455.62
485.372	409.66
485.735	455.62
486.098	509.24
486.46	394.34
486.823	424.98
487.186	417.32
487.549	460.73
487.912	432.64
488.274	368.8
488.637	435.19
488.999	396.89
489.362	473.49
489.724	486.26
490.087	412.21
490.449	338.16
490.811	412.21
491.174	384.12
491.536	455.62
491.898	394.34
492.26	386.68
492.622	384.12
492.984	455.62
493.346	424.98
493.708	435.19
494.07	396.89
494.432	450.51
494.794	353.48
495.155	394.34
495.517	430.08
495.879	391.78
496.24	350.93
496.602	379.02
496.963	430.08
497.325	396.89
497.686	424.98
498.048	379.02
498.409	407.1
498.77	412.21
499.131	402
499.492	409.66
499.854	432.64
500.215	447.96
500.576	333.06
500.937	455.62
501.298	417.32
501.658	486.26
502.019	447.96
502.38	481.15
502.741	424.98
503.101	396.89
503.462	353.48
503.823	391.78
504.183	463.28
504.543	424.98
504.904	437.74
505.264	430.08
505.625	409.66
505.985	435.19
506.345	404.55
506.705	453.07
507.065	499.03
507.426	442.85
507.786	465.83
508.146	399.44
508.505	389.23
508.865	381.57
509.225	384.12
509.585	435.19
509.945	366.25
510.304	412.21
510.664	404.55
511.024	435.19
511.383	440.3
511.743	402
512.102	399.44
512.462	404.55
512.821	440.3
513.18	345.82
513.539	368.8
513.899	447.96
514.258	409.66
514.617	396.89
514.976	447.96
515.335	371.36
515.694	402
516.053	442.85
516.412	407.1
516.771	412.21
517.129	389.23
517.488	419.87
517.847	491.37
518.205	381.57
518.564	476.05
518.922	437.74
519.281	396.89
519.639	402
519.998	389.23
520.356	430.08
520.714	417.32
521.073	453.07
521.431	450.51
521.789	453.07
522.147	432.64
522.505	422.42
522.863	404.55
523.221	427.53
523.579	419.87
523.937	419.87
524.295	419.87
524.652	404.55
525.01	437.74
525.368	453.07
525.725	417.32
526.083	407.1
526.44	430.08
526.798	391.78
527.155	450.51
527.513	483.71
527.87	432.64
528.227	453.07
528.584	450.51
528.942	447.96
529.299	435.19
529.656	409.66
530.013	455.62
530.37	427.53
530.727	483.71
531.083	501.58
531.44	376.46
531.797	348.38
532.154	391.78
532.511	368.8
532.867	422.42
533.224	488.81
533.58	437.74
533.937	435.19
534.293	427.53
534.65	460.73
535.006	442.85
535.362	366.25
535.718	455.62
536.075	407.1
536.431	386.68
536.787	399.44
537.143	442.85
537.499	404.55
537.855	407.1
538.211	366.25
538.567	478.6
538.923	440.3
539.278	414.76
539.634	407.1
539.99	427.53
540.345	402
540.701	386.68
541.056	379.02
541.412	371.36
541.767	473.49
542.123	404.55
542.478	483.71
542.833	473.49
543.188	394.34
543.544	389.23
543.899	430.08
544.254	486.26
544.609	379.02
544.964	389.23
545.319	345.82
545.674	381.57
546.029	368.8
546.383	407.1
546.738	412.21
547.093	417.32
547.447	455.62
547.802	432.64
548.157	422.42
548.511	363.7
548.866	361.14
549.22	445.4
549.574	430.08
549.929	460.73
550.283	445.4
550.637	424.98
550.991	414.76
551.345	417.32
551.699	396.89
552.053	445.4
552.407	404.55
552.761	373.91
553.115	417.32
553.469	396.89
553.823	404.55
554.176	333.06
554.53	384.12
554.884	371.36
555.237	611.37
555.591	435.19
555.944	440.3
556.298	414.76
556.651	486.26
557.005	391.78
557.358	389.23
557.711	437.74
558.064	455.62
558.417	409.66
558.771	481.15
559.124	427.53
559.477	468.39
559.83	384.12
560.182	437.74
560.535	386.68
560.888	427.53
561.241	427.53
561.594	486.26
561.946	386.68
562.299	427.53
562.651	453.07
563.004	427.53
563.356	455.62
563.709	437.74
564.061	427.53
564.413	506.69
564.766	417.32
565.118	399.44
565.47	345.82
565.822	391.78
566.174	455.62
566.526	432.64
566.878	366.25
567.23	463.28
567.582	399.44
567.934	404.55
568.286	373.91
568.638	468.39
568.989	424.98
569.341	396.89
569.693	424.98
570.044	394.34
570.396	412.21
570.747	435.19
571.098	386.68
571.45	419.87
571.801	373.91
572.152	465.83
572.504	353.48
572.855	402
573.206	427.53
573.557	440.3
573.908	430.08
574.259	470.94
574.61	450.51
574.961	422.42
575.311	509.24
575.662	447.96
576.013	412.21
576.364	422.42
576.714	373.91
577.065	396.89
577.415	407.1
577.766	353.48
578.116	430.08
578.467	465.83
578.817	478.6
579.167	478.6
579.518	435.19
579.868	407.1
580.218	460.73
580.568	483.71
580.918	478.6
581.268	379.02
581.618	417.32
581.968	402
582.318	465.83
582.668	376.46
583.017	371.36
583.367	463.28
583.717	384.12
584.066	419.87
584.416	468.39
584.765	460.73
585.115	511.79
585.464	414.76
585.814	371.36
586.163	386.68
586.512	396.89
586.862	310.08
587.211	414.76
587.56	445.4
587.909	442.85
588.258	381.57
588.607	404.55
588.956	414.76
589.305	430.08
589.654	460.73
590.002	379.02
590.351	404.55
590.7	486.26
591.048	402
591.397	376.46
591.746	437.74
592.094	460.73
592.443	389.23
592.791	353.48
593.139	417.32
593.488	447.96
593.836	402
594.184	458.17
594.532	394.34
594.88	468.39
595.228	488.81
595.576	404.55
595.924	463.28
596.272	404.55
596.62	453.07
596.968	417.32
597.316	430.08
597.664	562.86
598.011	450.51
598.359	419.87
598.706	437.74
599.054	407.1
599.402	407.1
599.749	396.89
600.096	330.5
600.444	407.1
600.791	442.85
601.138	422.42
601.485	402
601.833	424.98
602.18	417.32
602.527	440.3
602.874	424.98
603.221	404.55
603.568	460.73
603.914	427.53
604.261	442.85
604.608	470.94
604.955	409.66
605.301	417.32
605.648	391.78
605.995	414.76
606.341	371.36
606.688	493.92
607.034	453.07
607.38	373.91
607.727	389.23
608.073	424.98
608.419	440.3
608.765	435.19
609.112	379.02
609.458	381.57
609.804	470.94
610.15	417.32
610.496	394.34
610.842	407.1
611.187	465.83
611.533	427.53
611.879	453.07
612.225	414.76
612.57	402
612.916	399.44
613.261	417.32
613.607	430.08
613.952	368.8
614.298	353.48
614.643	402
614.989	412.21
615.334	417.32
615.679	412.21
616.024	399.44
616.369	368.8
616.714	440.3
617.059	427.53
617.404	450.51
617.749	473.49
618.094	442.85
618.439	412.21
618.784	335.61
619.129	447.96
619.473	399.44
619.818	445.4
620.163	389.23
620.507	437.74
620.852	396.89
621.196	427.53
621.54	476.05
621.885	427.53
622.229	427.53
622.573	417.32
622.918	468.39
623.262	404.55
623.606	427.53
623.95	412.21
624.294	417.32
624.638	391.78
624.982	424.98
625.326	437.74
625.67	399.44
626.013	437.74
626.357	368.8
626.701	389.23
627.044	386.68
627.388	407.1
627.731	412.21
628.075	442.85
628.418	407.1
628.762	391.78
629.105	427.53
629.448	465.83
629.792	414.76
630.135	417.32
630.478	363.7
630.821	407.1
631.164	435.19
631.507	430.08
631.85	427.53
632.193	409.66
632.536	350.93
632.879	404.55
633.221	396.89
633.564	468.39
633.907	453.07
634.249	424.98
634.592	424.98
634.935	391.78
635.277	407.1
635.619	317.74
635.962	322.84
636.304	384.12
636.646	430.08
636.989	417.32
637.331	422.42
637.673	424.98
638.015	394.34
638.357	458.17
638.699	437.74
639.041	368.8
639.383	445.4
639.725	481.15
640.067	376.46
640.408	499.03
640.75	350.93
641.092	440.3
641.433	453.07
641.775	509.24
642.116	417.32
642.458	424.98
642.799	468.39
643.141	348.38
643.482	402
643.823	386.68
644.164	414.76
644.506	488.81
644.847	442.85
645.188	368.8
645.529	386.68
645.87	399.44
646.211	437.74
646.552	348.38
646.893	386.68
647.233	371.36
647.574	381.57
647.915	345.82
648.255	417.32
648.596	493.92
648.937	409.66
649.277	338.16
649.618	402
649.958	442.85
650.298	404.55
650.639	320.29
650.979	310.08
651.319	404.55
651.659	368.8
651.999	430.08
652.339	389.23
652.679	379.02
653.019	424.98
653.359	386.68
653.699	453.07
654.039	432.64
654.379	350.93
654.719	389.23
655.058	458.17
655.398	404.55
655.737	470.94
656.077	465.83
656.416	442.85
656.756	402
657.095	353.48
657.435	396.89
657.774	358.59
658.113	435.19
658.452	404.55
658.792	455.62
659.131	478.6
659.47	417.32
659.809	399.44
660.148	435.19
660.487	430.08
660.826	340.72
661.164	427.53
661.503	453.07
661.842	460.73
662.181	437.74
662.519	389.23
662.858	432.64
663.196	353.48
663.535	356.04
663.873	391.78
664.212	427.53
664.55	394.34
664.888	399.44
665.226	386.68
665.565	414.76
665.903	652.23
666.241	481.15
666.579	407.1
666.917	315.18
667.255	419.87
667.593	458.17
667.931	330.5
668.268	468.39
668.606	407.1
668.944	407.1
669.282	407.1
669.619	353.48
669.957	396.89
670.294	447.96
670.632	386.68
670.969	402
671.307	414.76
671.644	427.53
671.981	478.6
672.318	437.74
672.656	424.98
672.993	394.34
673.33	422.42
673.667	381.57
674.004	437.74
674.341	455.62
674.678	435.19
675.015	394.34
675.351	358.59
675.688	391.78
676.025	394.34
676.362	368.8
676.698	424.98
677.035	386.68
677.371	424.98
677.708	333.06
678.044	437.74
678.38	348.38
678.717	386.68
679.053	424.98
679.389	419.87
679.725	396.89
680.062	478.6
680.398	437.74
680.734	440.3
681.07	371.36
681.406	386.68
681.742	422.42
682.077	371.36
682.413	396.89
682.749	409.66
683.085	514.35
683.42	394.34
683.756	435.19
684.091	371.36
684.427	376.46
684.762	430.08
685.098	394.34
685.433	404.55
685.768	419.87
686.104	447.96
686.439	407.1
686.774	373.91
687.109	445.4
687.444	427.53
687.779	442.85
688.114	402
688.449	440.3
688.784	384.12
689.119	356.04
689.454	384.12
689.789	363.7
690.123	458.17
690.458	373.91
690.792	417.32
691.127	419.87
691.461	455.62
691.796	417.32
692.13	450.51
692.465	402
692.799	386.68
693.133	424.98
693.467	356.04
693.802	407.1
694.136	419.87
694.47	427.53
694.804	384.12
695.138	371.36
695.472	350.93
695.806	412.21
696.139	402
696.473	460.73
696.807	419.87
697.141	424.98
697.474	394.34
697.808	455.62
698.141	447.96
698.475	391.78
698.808	384.12
699.142	414.76
699.475	394.34
699.808	412.21
700.142	363.7
700.475	409.66
700.808	358.59
701.141	404.55
701.474	440.3
701.807	363.7
702.14	417.32
702.473	458.17
702.806	419.87
703.139	422.42
703.472	404.55
703.804	437.74
704.137	437.74
704.47	412.21
704.802	368.8
705.135	440.3
705.467	407.1
705.8	371.36
706.132	455.62
706.464	417.32
706.797	361.14
707.129	391.78
707.461	373.91
707.793	430.08
708.125	437.74
708.457	394.34
708.789	424.98
709.121	430.08
709.453	437.74
709.785	442.85
710.117	450.51
710.449	409.66
710.781	447.96
711.112	391.78
711.444	419.87
711.775	391.78
712.107	412.21
712.438	402
712.77	368.8
713.101	376.46
713.433	430.08
713.764	486.26
714.095	465.83
714.426	442.85
714.757	447.96
715.089	366.25
715.42	327.95
715.751	424.98
716.082	409.66
716.412	453.07
716.743	488.81
717.074	350.93
717.405	394.34
717.736	442.85
718.066	389.23
718.397	386.68
718.727	394.34
719.058	430.08
719.388	435.19
719.719	447.96
720.049	427.53
720.38	460.73
720.71	396.89
721.04	379.02
721.37	417.32
721.7	427.53
722.031	478.6
722.361	396.89
722.691	447.96
723.021	366.25
723.35	350.93
723.68	407.1
724.01	427.53
724.34	437.74
724.67	381.57
724.999	317.74
725.329	417.32
725.658	427.53
725.988	371.36
726.317	373.91
726.647	458.17
726.976	356.04
727.306	453.07
727.635	409.66
727.964	404.55
728.293	391.78
728.622	463.28
728.952	435.19
729.281	432.64
729.61	373.91
729.939	424.98
730.267	435.19
730.596	399.44
730.925	414.76
731.254	455.62
731.583	399.44
731.911	481.15
732.24	493.92
732.568	435.19
732.897	399.44
733.225	386.68
733.554	386.68
733.882	424.98
734.21	430.08
734.539	391.78
734.867	381.57
735.195	417.32
735.523	394.34
735.851	427.53
736.179	455.62
736.507	353.48
736.835	381.57
737.163	445.4
737.491	422.42
737.819	440.3
738.147	414.76
738.474	445.4
738.802	435.19
739.13	460.73
739.457	391.78
739.785	470.94
740.112	414.76
740.44	419.87
740.767	407.1
741.094	430.08
741.422	381.57
741.749	481.15
742.076	412.21
742.403	402
742.73	340.72
743.057	470.94
743.384	407.1
743.711	455.62
744.038	399.44
744.365	465.83
744.692	453.07
745.018	376.46
745.345	414.76
745.672	422.42
745.998	358.59
746.325	409.66
746.651	422.42
746.978	358.59
747.304	430.08
747.631	407.1
747.957	381.57
748.283	409.66
748.61	376.46
748.936	391.78
749.262	437.74
749.588	394.34
749.914	345.82
750.24	427.53
750.566	399.44
750.892	442.85
751.218	455.62
751.543	437.74
751.869	422.42
752.195	402
752.521	455.62
752.846	404.55
753.172	412.21
753.497	358.59
753.823	394.34
754.148	404.55
754.473	384.12
754.799	409.66
755.124	376.46
755.449	424.98
755.774	373.91
756.1	435.19
756.425	483.71
756.75	376.46
757.075	419.87
757.4	445.4
757.724	409.66
758.049	389.23
758.374	396.89
758.699	361.14
759.024	414.76
759.348	422.42
759.673	376.46
759.997	422.42
760.322	424.98
760.646	317.74
760.971	435.19
761.295	422.42
761.619	419.87
761.944	389.23
762.268	427.53
762.592	414.76
762.916	430.08
763.24	407.1
763.564	422.42
763.888	478.6
764.212	450.51
764.536	473.49
764.86	493.92
765.184	414.76
765.508	560.31
765.831	488.81
766.155	705.85
766.478	542.43
766.802	532.22
767.126	504.13
767.449	504.13
767.772	575.63
768.096	626.69
768.419	575.63
768.742	537.33
769.066	634.35
769.389	654.78
769.712	654.78
770.035	649.68
770.358	731.38
770.681	749.26
771.004	698.19
771.327	728.83
771.65	792.66
771.972	716.06
772.295	787.56
772.618	716.06
772.941	756.92
773.263	787.56
773.586	892.25
773.908	861.61
774.231	938.21
774.553	846.29
774.875	968.85
775.198	1139.92
775.52	1037.79
775.842	1055.66
776.164	1060.77
776.487	1009.7
776.809	1053.11
777.131	1002.04
777.453	1053.11
777.775	1070.98
778.096	1168.01
778.418	1106.73
778.74	1116.94
779.062	1070.98
779.384	1193.54
779.705	1226.74
780.027	1374.83
780.348	1374.83
780.67	1448.88
780.991	1408.03
781.313	1576.55
781.634	1522.93
781.955	1604.64
782.277	1530.59
782.598	1632.73
782.919	1625.07
783.24	1602.09
783.561	1622.51
783.882	1551.02
784.203	1678.69
784.524	1658.26
784.845	1586.76
785.166	1612.3
785.487	1632.73
785.807	1655.71
786.128	1614.85
786.449	1706.77
786.769	1694.01
787.09	1714.43
787.41	2000.41
787.731	2148.51
788.051	2225.11
788.372	2179.15
788.692	2332.35
789.012	2138.29
789.332	2197.02
789.653	2291.5
789.973	2385.97
790.293	2447.25
790.613	2171.49
790.933	2189.36
791.253	2227.66
791.573	2237.88
791.893	2176.6
792.212	2054.03
792.532	2135.74
792.852	2082.12
793.171	2189.36
793.491	2025.95
793.811	1985.09
794.13	1852.32
794.45	1780.82
794.769	1808.91
795.088	1793.59
795.408	1747.63
795.727	1752.73
796.046	1778.27
796.365	1816.57
796.684	1762.95
797.004	1719.54
797.323	1962.11
797.642	2230.22
797.96	2230.22
798.279	2421.72
798.598	2350.22
798.917	2225.11
799.236	2089.78
799.554	2028.5
799.873	1872.74
800.192	1969.77
800.51	2000.41
800.829	1962.11
801.147	1875.3
801.466	1875.3
801.784	1888.06
802.102	1872.74
802.421	2031.05
