Data from 2025-12-03_xpw_interference_micrometer_634_reference_FLMS141361__28__478.txt Node

Date: Wed Dec 03 15:52:22 MST 2025
User: james
Spectrometer: FLMS14136
Trigger mode: 0
Integration Time (sec): 1.000000E-1
Scans to average: 1
Electric dark correction enabled: true
Nonlinearity correction enabled: false
Boxcar width: 0
XAxis mode: Wavelengths
Number of Pixels in Spectrum: 2048
>>>>>Begin Spectral Data<<<<<
339.315	-37.98
339.697	-37.98
340.079	-37.98
340.461	-91.6
340.843	-60.96
341.225	-91.6
341.607	-83.94
341.989	-137.56
342.371	-63.52
342.752	-43.09
343.134	-63.52
343.516	-22.66
343.897	-50.75
344.279	-48.2
344.661	-7.34
345.042	64.15
345.423	64.15
345.805	84.58
346.186	107.56
346.567	117.77
346.949	173.95
347.33	184.16
347.711	168.84
348.092	204.59
348.473	230.12
348.854	314.38
349.235	258.21
349.616	265.87
349.997	227.57
350.378	276.08
350.758	360.35
351.139	352.69
351.52	355.24
351.9	332.26
352.281	370.56
352.661	337.37
353.042	347.58
353.422	345.03
353.803	465.03
354.183	444.61
354.563	411.41
354.943	411.41
355.324	385.88
355.704	408.86
356.084	342.47
356.464	332.26
356.844	398.65
357.224	365.45
357.603	375.67
357.983	408.86
358.363	347.58
358.743	365.45
359.122	436.95
359.502	401.2
359.882	360.35
360.261	329.7
360.641	360.35
361.02	288.85
361.399	408.86
361.779	368.01
362.158	398.65
362.537	378.22
362.916	368.01
363.296	360.35
363.675	334.81
364.054	324.6
364.433	380.77
364.812	385.88
365.19	352.69
365.569	345.03
365.948	355.24
366.327	281.19
366.705	268.42
367.084	260.76
367.463	350.13
367.841	345.03
368.22	316.94
368.598	357.79
368.977	301.62
369.355	332.26
369.733	355.24
370.111	314.38
370.49	314.38
370.868	311.83
371.246	281.19
371.624	253.1
372.002	299.06
372.38	299.06
372.758	291.4
373.136	311.83
373.513	304.17
373.891	286.3
374.269	352.69
374.646	373.11
375.024	378.22
375.402	324.6
375.779	390.99
376.157	357.79
376.534	316.94
376.911	345.03
377.289	365.45
377.666	306.72
378.043	339.92
378.42	334.81
378.797	345.03
379.175	426.73
379.552	324.6
379.929	332.26
380.305	360.35
380.682	339.92
381.059	447.16
381.436	411.41
381.813	398.65
382.189	408.86
382.566	311.83
382.943	304.17
383.319	362.9
383.696	345.03
384.072	360.35
384.448	352.69
384.825	360.35
385.201	368.01
385.577	319.49
385.953	362.9
386.329	408.86
386.706	383.33
387.082	370.56
387.458	388.43
387.834	434.39
388.209	385.88
388.585	337.37
388.961	408.86
389.337	334.81
389.713	352.69
390.088	334.81
390.464	339.92
390.839	380.77
391.215	370.56
391.59	368.01
391.966	365.45
392.341	378.22
392.716	403.75
393.092	357.79
393.467	436.95
393.842	380.77
394.217	360.35
394.592	322.04
394.967	350.13
395.342	370.56
395.717	373.11
396.092	352.69
396.467	357.79
396.841	403.75
397.216	357.79
397.591	362.9
397.965	347.58
398.34	390.99
398.714	388.43
399.089	360.35
399.463	357.79
399.838	416.52
400.212	419.07
400.586	396.09
400.961	388.43
401.335	401.2
401.709	360.35
402.083	390.99
402.457	406.31
402.831	355.24
403.205	332.26
403.579	362.9
403.953	403.75
404.326	350.13
404.7	375.67
405.074	373.11
405.447	368.01
405.821	378.22
406.195	368.01
406.568	375.67
406.942	439.5
407.315	416.52
407.688	436.95
408.062	309.28
408.435	345.03
408.808	401.2
409.181	370.56
409.554	375.67
409.927	378.22
410.3	365.45
410.673	378.22
411.046	388.43
411.419	288.85
411.792	436.95
412.165	406.31
412.537	319.49
412.91	447.16
413.283	373.11
413.655	385.88
414.028	390.99
414.4	398.65
414.773	401.2
415.145	434.39
415.517	462.48
415.889	352.69
416.262	304.17
416.634	311.83
417.006	306.72
417.378	362.9
417.75	373.11
418.122	365.45
418.494	327.15
418.866	390.99
419.238	393.54
419.609	347.58
419.981	350.13
420.353	350.13
420.725	362.9
421.096	342.47
421.468	355.24
421.839	357.79
422.211	327.15
422.582	368.01
422.953	378.22
423.325	380.77
423.696	416.52
424.067	411.41
424.438	375.67
424.809	431.84
425.18	419.07
425.551	355.24
425.922	403.75
426.293	329.7
426.664	398.65
427.035	472.69
427.406	426.73
427.776	403.75
428.147	403.75
428.518	431.84
428.888	408.86
429.259	431.84
429.629	439.5
429.999	388.43
430.37	480.35
430.74	370.56
431.11	393.54
431.481	334.81
431.851	380.77
432.221	375.67
432.591	357.79
432.961	388.43
433.331	447.16
433.701	362.9
434.071	339.92
434.441	345.03
434.81	360.35
435.18	401.2
435.55	368.01
435.919	429.29
436.289	401.2
436.658	408.86
437.028	378.22
437.397	380.77
437.767	406.31
438.136	413.97
438.505	385.88
438.875	406.31
439.244	378.22
439.613	380.77
439.982	383.33
440.351	426.73
440.72	390.99
441.089	416.52
441.458	465.03
441.827	408.86
442.196	406.31
442.564	526.32
442.933	411.41
443.302	393.54
443.67	350.13
444.039	406.31
444.407	373.11
444.776	393.54
445.144	332.26
445.513	413.97
445.881	401.2
446.249	419.07
446.617	296.51
446.986	342.47
447.354	429.29
447.722	449.71
448.09	467.59
448.458	380.77
448.826	465.03
449.194	406.31
449.561	436.95
449.929	426.73
450.297	413.97
450.665	393.54
451.032	355.24
451.4	436.95
451.767	309.28
452.135	419.07
452.502	475.25
452.87	431.84
453.237	447.16
453.604	475.25
453.971	411.41
454.339	398.65
454.706	439.5
455.073	442.05
455.44	383.33
455.807	413.97
456.174	426.73
456.541	406.31
456.908	429.29
457.274	393.54
457.641	357.79
458.008	447.16
458.374	385.88
458.741	436.95
459.108	413.97
459.474	426.73
459.841	411.41
460.207	380.77
460.573	375.67
460.94	475.25
461.306	411.41
461.672	424.18
462.038	413.97
462.404	390.99
462.771	337.37
463.137	403.75
463.503	429.29
463.868	408.86
464.234	429.29
464.6	426.73
464.966	347.58
465.332	396.09
465.697	421.63
466.063	390.99
466.429	416.52
466.794	421.63
467.16	396.09
467.525	424.18
467.89	429.29
468.256	401.2
468.621	383.33
468.986	390.99
469.351	424.18
469.717	375.67
470.082	383.33
470.447	413.97
470.812	368.01
471.177	413.97
471.542	365.45
471.906	352.69
472.271	357.79
472.636	472.69
473.001	424.18
473.365	411.41
473.73	419.07
474.094	457.37
474.459	465.03
474.823	444.61
475.188	419.07
475.552	375.67
475.917	385.88
476.281	419.07
476.645	444.61
477.009	436.95
477.373	462.48
477.737	426.73
478.101	442.05
478.465	424.18
478.829	431.84
479.193	413.97
479.557	334.81
479.921	419.07
480.284	408.86
480.648	398.65
481.012	413.97
481.375	334.81
481.739	385.88
482.102	426.73
482.466	380.77
482.829	470.14
483.193	390.99
483.556	406.31
483.919	365.45
484.282	362.9
484.645	406.31
485.009	403.75
485.372	447.16
485.735	416.52
486.098	357.79
486.46	482.91
486.823	378.22
487.186	411.41
487.549	355.24
487.912	304.17
488.274	357.79
488.637	360.35
488.999	408.86
489.362	370.56
489.724	482.91
490.087	457.37
490.449	449.71
490.811	401.2
491.174	388.43
491.536	378.22
491.898	442.05
492.26	442.05
492.622	352.69
492.984	426.73
493.346	385.88
493.708	424.18
494.07	459.93
494.432	398.65
494.794	442.05
495.155	416.52
495.517	408.86
495.879	390.99
496.24	436.95
496.602	408.86
496.963	360.35
497.325	467.59
497.686	465.03
498.048	431.84
498.409	457.37
498.77	495.67
499.131	370.56
499.492	362.9
499.854	362.9
500.215	334.81
500.576	368.01
500.937	459.93
501.298	429.29
501.658	424.18
502.019	482.91
502.38	360.35
502.741	401.2
503.101	380.77
503.462	352.69
503.823	362.9
504.183	444.61
504.543	465.03
504.904	332.26
505.264	383.33
505.625	408.86
505.985	342.47
506.345	413.97
506.705	475.25
507.065	383.33
507.426	345.03
507.786	434.39
508.146	419.07
508.505	408.86
508.865	398.65
509.225	431.84
509.585	480.35
509.945	416.52
510.304	447.16
510.664	462.48
511.024	454.82
511.383	442.05
511.743	380.77
512.102	431.84
512.462	475.25
512.821	311.83
513.18	434.39
513.539	439.5
513.899	454.82
514.258	413.97
514.617	449.71
514.976	434.39
515.335	396.09
515.694	373.11
516.053	408.86
516.412	380.77
516.771	388.43
517.129	426.73
517.488	383.33
517.847	462.48
518.205	500.78
518.564	416.52
518.922	365.45
519.281	429.29
519.639	413.97
519.998	390.99
520.356	431.84
520.714	442.05
521.073	370.56
521.431	480.35
521.789	383.33
522.147	383.33
522.505	413.97
522.863	403.75
523.221	436.95
523.579	408.86
523.937	408.86
524.295	398.65
524.652	408.86
525.01	401.2
525.368	401.2
525.725	334.81
526.083	390.99
526.44	426.73
526.798	419.07
527.155	373.11
527.513	396.09
527.87	429.29
528.227	406.31
528.584	442.05
528.942	424.18
529.299	436.95
529.656	370.56
530.013	431.84
530.37	408.86
530.727	383.33
531.083	396.09
531.44	429.29
531.797	429.29
532.154	411.41
532.511	434.39
532.867	467.59
533.224	396.09
533.58	462.48
533.937	362.9
534.293	388.43
534.65	411.41
535.006	452.27
535.362	444.61
535.718	403.75
536.075	416.52
536.431	378.22
536.787	449.71
537.143	413.97
537.499	373.11
537.855	401.2
538.211	360.35
538.567	370.56
538.923	521.21
539.278	413.97
539.634	439.5
539.99	398.65
540.345	398.65
540.701	390.99
541.056	439.5
541.412	431.84
541.767	345.03
542.123	370.56
542.478	424.18
542.833	462.48
543.188	398.65
543.544	482.91
543.899	408.86
544.254	347.58
544.609	408.86
544.964	416.52
545.319	378.22
545.674	365.45
546.029	421.63
546.383	390.99
546.738	436.95
547.093	370.56
547.447	355.24
547.802	342.47
548.157	429.29
548.511	457.37
548.866	393.54
549.22	416.52
549.574	398.65
549.929	457.37
550.283	401.2
550.637	419.07
550.991	355.24
551.345	411.41
551.699	426.73
552.053	393.54
552.407	457.37
552.761	442.05
553.115	434.39
553.469	442.05
553.823	398.65
554.176	365.45
554.53	403.75
554.884	413.97
555.237	664.2
555.591	498.23
555.944	436.95
556.298	393.54
556.651	403.75
557.005	431.84
557.358	380.77
557.711	436.95
558.064	378.22
558.417	403.75
558.771	403.75
559.124	373.11
559.477	431.84
559.83	457.37
560.182	388.43
560.535	378.22
560.888	362.9
561.241	368.01
561.594	385.88
561.946	375.67
562.299	309.28
562.651	470.14
563.004	370.56
563.356	426.73
563.709	406.31
564.061	388.43
564.413	396.09
564.766	439.5
565.118	350.13
565.47	385.88
565.822	396.09
566.174	370.56
566.526	375.67
566.878	368.01
567.23	431.84
567.582	385.88
567.934	429.29
568.286	385.88
568.638	406.31
568.989	434.39
569.341	411.41
569.693	396.09
570.044	488.01
570.396	339.92
570.747	388.43
571.098	398.65
571.45	493.12
571.801	436.95
572.152	403.75
572.504	390.99
572.855	416.52
573.206	383.33
573.557	339.92
573.908	413.97
574.259	383.33
574.61	421.63
574.961	383.33
575.311	434.39
575.662	454.82
576.013	459.93
576.364	424.18
576.714	327.15
577.065	408.86
577.415	373.11
577.766	324.6
578.116	434.39
578.467	370.56
578.817	431.84
579.167	393.54
579.518	431.84
579.868	388.43
580.218	434.39
580.568	434.39
580.918	424.18
581.268	424.18
581.618	457.37
581.968	403.75
582.318	373.11
582.668	383.33
583.017	403.75
583.367	431.84
583.717	378.22
584.066	434.39
584.416	398.65
584.765	373.11
585.115	373.11
585.464	401.2
585.814	357.79
586.163	370.56
586.512	306.72
586.862	424.18
587.211	434.39
587.56	436.95
587.909	352.69
588.258	411.41
588.607	368.01
588.956	444.61
589.305	457.37
589.654	475.25
590.002	393.54
590.351	426.73
590.7	413.97
591.048	431.84
591.397	398.65
591.746	332.26
592.094	436.95
592.443	398.65
592.791	373.11
593.139	406.31
593.488	408.86
593.836	442.05
594.184	447.16
594.532	388.43
594.88	482.91
595.228	339.92
595.576	465.03
595.924	401.2
596.272	390.99
596.62	403.75
596.968	378.22
597.316	368.01
597.664	444.61
598.011	373.11
598.359	413.97
598.706	411.41
599.054	350.13
599.402	352.69
599.749	378.22
600.096	403.75
600.444	413.97
600.791	413.97
601.138	424.18
601.485	411.41
601.833	322.04
602.18	373.11
602.527	413.97
602.874	388.43
603.221	459.93
603.568	434.39
603.914	434.39
604.261	383.33
604.608	426.73
604.955	385.88
605.301	424.18
605.648	449.71
605.995	327.15
606.341	442.05
606.688	360.35
607.034	434.39
607.38	345.03
607.727	421.63
608.073	403.75
608.419	439.5
608.765	444.61
609.112	350.13
609.458	362.9
609.804	383.33
610.15	411.41
610.496	337.37
610.842	357.79
611.187	383.33
611.533	347.58
611.879	429.29
612.225	436.95
612.57	385.88
612.916	413.97
613.261	421.63
613.607	452.27
613.952	442.05
614.298	406.31
614.643	419.07
614.989	388.43
615.334	444.61
615.679	393.54
616.024	442.05
616.369	401.2
616.714	482.91
617.059	388.43
617.404	413.97
617.749	393.54
618.094	388.43
618.439	429.29
618.784	370.56
619.129	403.75
619.473	383.33
619.818	426.73
620.163	442.05
620.507	388.43
620.852	419.07
621.196	378.22
621.54	482.91
621.885	439.5
622.229	365.45
622.573	345.03
622.918	447.16
623.262	378.22
623.606	426.73
623.95	370.56
624.294	482.91
624.638	406.31
624.982	370.56
625.326	401.2
625.67	403.75
626.013	368.01
626.357	390.99
626.701	388.43
627.044	378.22
627.388	368.01
627.731	390.99
628.075	419.07
628.418	380.77
628.762	375.67
629.105	426.73
629.448	444.61
629.792	411.41
630.135	378.22
630.478	421.63
630.821	390.99
631.164	424.18
631.507	449.71
631.85	457.37
632.193	403.75
632.536	383.33
632.879	403.75
633.221	406.31
633.564	406.31
633.907	362.9
634.249	368.01
634.592	362.9
634.935	385.88
635.277	436.95
635.619	342.47
635.962	385.88
636.304	419.07
636.646	360.35
636.989	370.56
637.331	378.22
637.673	442.05
638.015	452.27
638.357	403.75
638.699	429.29
639.041	396.09
639.383	388.43
639.725	373.11
640.067	419.07
640.408	426.73
640.75	447.16
641.092	314.38
641.433	373.11
641.775	421.63
642.116	426.73
642.458	365.45
642.799	360.35
643.141	413.97
643.482	454.82
643.823	360.35
644.164	411.41
644.506	459.93
644.847	393.54
645.188	413.97
645.529	373.11
645.87	357.79
646.211	396.09
646.552	368.01
646.893	419.07
647.233	398.65
647.574	380.77
647.915	442.05
648.255	385.88
648.596	442.05
648.937	396.09
649.277	429.29
649.618	291.4
649.958	416.52
650.298	434.39
650.639	334.81
650.979	396.09
651.319	403.75
651.659	401.2
651.999	449.71
652.339	380.77
652.679	421.63
653.019	419.07
653.359	347.58
653.699	375.67
654.039	429.29
654.379	373.11
654.719	421.63
655.058	396.09
655.398	426.73
655.737	452.27
656.077	393.54
656.416	378.22
656.756	309.28
657.095	339.92
657.435	393.54
657.774	337.37
658.113	396.09
658.452	413.97
658.792	373.11
659.131	357.79
659.47	360.35
659.809	401.2
660.148	403.75
660.487	475.25
660.826	375.67
661.164	408.86
661.503	373.11
661.842	439.5
662.181	368.01
662.519	411.41
662.858	416.52
663.196	362.9
663.535	416.52
663.873	370.56
664.212	383.33
664.55	472.69
664.888	429.29
665.226	416.52
665.565	419.07
665.903	577.38
666.241	439.5
666.579	380.77
666.917	390.99
667.255	380.77
667.593	347.58
667.931	452.27
668.268	388.43
668.606	388.43
668.944	454.82
669.282	462.48
669.619	311.83
669.957	452.27
670.294	390.99
670.632	327.15
670.969	368.01
671.307	378.22
671.644	362.9
671.981	408.86
672.318	375.67
672.656	426.73
672.993	396.09
673.33	388.43
673.667	370.56
674.004	396.09
674.341	482.91
674.678	345.03
675.015	416.52
675.351	403.75
675.688	345.03
676.025	403.75
676.362	421.63
676.698	334.81
677.035	378.22
677.371	350.13
677.708	434.39
678.044	429.29
678.38	447.16
678.717	416.52
679.053	398.65
679.389	403.75
679.725	329.7
680.062	375.67
680.398	421.63
680.734	370.56
681.07	408.86
681.406	352.69
681.742	406.31
682.077	459.93
682.413	413.97
682.749	380.77
683.085	373.11
683.42	406.31
683.756	360.35
684.091	393.54
684.427	357.79
684.762	362.9
685.098	304.17
685.433	373.11
685.768	337.37
686.104	436.95
686.439	362.9
686.774	324.6
687.109	357.79
687.444	350.13
687.779	370.56
688.114	424.18
688.449	370.56
688.784	370.56
689.119	378.22
689.454	434.39
689.789	373.11
690.123	398.65
690.458	419.07
690.792	385.88
691.127	352.69
691.461	373.11
691.796	411.41
692.13	350.13
692.465	345.03
692.799	378.22
693.133	429.29
693.467	393.54
693.802	403.75
694.136	380.77
694.47	462.48
694.804	380.77
695.138	419.07
695.472	357.79
695.806	342.47
696.139	424.18
696.473	429.29
696.807	350.13
697.141	339.92
697.474	352.69
697.808	398.65
698.141	447.16
698.475	439.5
698.808	439.5
699.142	408.86
699.475	462.48
699.808	457.37
700.142	385.88
700.475	375.67
700.808	436.95
701.141	378.22
701.474	436.95
701.807	319.49
702.14	339.92
702.473	385.88
702.806	416.52
703.139	401.2
703.472	408.86
703.804	362.9
704.137	442.05
704.47	411.41
704.802	419.07
705.135	406.31
705.467	398.65
705.8	327.15
706.132	373.11
706.464	380.77
706.797	365.45
707.129	319.49
707.461	411.41
707.793	327.15
708.125	393.54
708.457	370.56
708.789	403.75
709.121	429.29
709.453	396.09
709.785	383.33
710.117	398.65
710.449	383.33
710.781	411.41
711.112	385.88
711.444	342.47
711.775	365.45
712.107	388.43
712.438	429.29
712.77	436.95
713.101	383.33
713.433	385.88
713.764	457.37
714.095	421.63
714.426	411.41
714.757	424.18
715.089	380.77
715.42	380.77
715.751	352.69
716.082	347.58
716.412	398.65
716.743	388.43
717.074	373.11
717.405	403.75
717.736	355.24
718.066	401.2
718.397	452.27
718.727	413.97
719.058	398.65
719.388	370.56
719.719	368.01
720.049	383.33
720.38	378.22
720.71	421.63
721.04	383.33
721.37	452.27
721.7	388.43
722.031	385.88
722.361	413.97
722.691	383.33
723.021	311.83
723.35	396.09
723.68	385.88
724.01	439.5
724.34	388.43
724.67	347.58
724.999	380.77
725.329	390.99
725.658	523.76
725.988	416.52
726.317	345.03
726.647	332.26
726.976	398.65
727.306	459.93
727.635	396.09
727.964	385.88
728.293	413.97
728.622	426.73
728.952	396.09
729.281	406.31
729.61	452.27
729.939	388.43
730.267	457.37
730.596	467.59
730.925	436.95
731.254	378.22
731.583	401.2
731.911	339.92
732.24	436.95
732.568	416.52
732.897	426.73
733.225	398.65
733.554	388.43
733.882	411.41
734.21	360.35
734.539	360.35
734.867	293.96
735.195	339.92
735.523	368.01
735.851	362.9
736.179	403.75
736.507	396.09
736.835	378.22
737.163	350.13
737.491	444.61
737.819	449.71
738.147	411.41
738.474	411.41
738.802	459.93
739.13	357.79
739.457	370.56
739.785	439.5
740.112	398.65
740.44	380.77
740.767	360.35
741.094	408.86
741.422	385.88
741.749	416.52
742.076	439.5
742.403	362.9
742.73	385.88
743.057	416.52
743.384	370.56
743.711	411.41
744.038	378.22
744.365	390.99
744.692	396.09
745.018	424.18
745.345	403.75
745.672	421.63
745.998	352.69
746.325	385.88
746.651	454.82
746.978	424.18
747.304	373.11
747.631	362.9
747.957	447.16
748.283	342.47
748.61	419.07
748.936	449.71
749.262	403.75
749.588	355.24
749.914	424.18
750.24	421.63
750.566	401.2
750.892	398.65
751.218	350.13
751.543	352.69
751.869	296.51
752.195	337.37
752.521	380.77
752.846	408.86
753.172	403.75
753.497	365.45
753.823	401.2
754.148	362.9
754.473	396.09
754.799	383.33
755.124	396.09
755.449	362.9
755.774	368.01
756.1	390.99
756.425	393.54
756.75	370.56
757.075	388.43
757.4	554.4
757.724	500.78
758.049	347.58
758.374	393.54
758.699	411.41
759.024	373.11
759.348	365.45
759.673	370.56
759.997	342.47
760.322	327.15
760.646	419.07
760.971	396.09
761.295	424.18
761.619	393.54
761.944	452.27
762.268	406.31
762.592	396.09
762.916	368.01
763.24	388.43
763.564	362.9
763.888	416.52
764.212	498.23
764.536	523.76
764.86	436.95
765.184	434.39
765.508	462.48
765.831	498.23
766.155	694.84
766.478	590.15
766.802	444.61
767.126	454.82
767.449	442.05
767.772	579.94
768.096	508.44
768.419	521.21
768.742	572.28
769.066	551.85
769.389	528.87
769.712	641.22
770.035	590.15
770.358	666.75
770.681	682.07
771.004	666.75
771.327	728.03
771.65	697.39
771.972	730.59
772.295	743.35
772.618	730.59
772.941	740.8
773.263	807.19
773.586	807.19
773.908	876.13
774.231	909.32
774.553	848.04
774.875	978.26
775.198	1008.9
775.52	968.05
775.842	952.73
776.164	932.3
776.487	993.58
776.809	962.94
777.131	1014.01
777.453	960.39
777.775	1036.99
778.096	1185.09
778.418	1159.55
778.74	1082.95
779.062	1075.29
779.384	1154.45
779.705	1248.92
780.027	1374.04
780.348	1299.99
780.67	1287.22
780.991	1325.52
781.313	1414.89
781.634	1547.67
781.955	1465.96
782.277	1453.19
782.598	1565.54
782.919	1471.06
783.24	1511.92
783.561	1562.99
783.882	1608.95
784.203	1598.73
784.524	1601.29
784.845	1565.54
785.166	1560.43
785.487	1624.27
785.807	1603.84
786.128	1570.65
786.449	1644.69
786.769	1662.57
787.09	1749.38
787.41	1907.69
787.731	2040.47
788.051	2050.68
788.372	2076.22
788.692	2155.37
789.012	2214.1
789.332	2147.71
789.653	2372.41
789.973	2349.43
790.293	2377.51
790.613	2152.82
790.933	2094.09
791.253	2216.65
791.573	2055.79
791.893	2117.07
792.212	2060.9
792.532	2106.86
792.852	2101.75
793.171	2068.56
793.491	1833.64
793.811	1953.65
794.13	1940.89
794.45	1769.81
794.769	1721.3
795.088	1757.04
795.408	1757.04
795.727	1780.02
796.046	1792.79
796.365	1823.43
796.684	1723.85
797.004	1677.89
797.323	1869.39
797.642	2196.22
797.96	2426.03
798.279	2290.7
798.598	2247.29
798.917	2295.81
799.236	2147.71
799.554	1976.63
