Data from 2025-12-03_xpw_interference_micrometer_634_reference_FLMS141361__83__533.txt Node

Date: Wed Dec 03 15:52:27 MST 2025
User: james
Spectrometer: FLMS14136
Trigger mode: 0
Integration Time (sec): 1.000000E-1
Scans to average: 1
Electric dark correction enabled: true
Nonlinearity correction enabled: false
Boxcar width: 0
XAxis mode: Wavelengths
Number of Pixels in Spectrum: 2048
>>>>>Begin Spectral Data<<<<<
339.315	-114.42
339.697	-114.42
340.079	-114.42
340.461	-55.7
340.843	-40.38
341.225	-71.02
341.607	-111.87
341.989	-132.3
342.371	-152.72
342.752	-73.57
343.134	-32.72
343.516	-42.93
343.897	13.25
344.279	-42.93
344.661	56.65
345.042	31.12
345.423	92.4
345.805	79.63
346.186	102.61
346.567	153.68
346.949	130.7
347.33	212.41
347.711	179.22
348.092	217.52
348.473	197.09
348.854	245.6
349.235	250.71
349.616	271.14
349.997	314.54
350.378	309.44
350.758	299.22
351.139	311.99
351.52	311.99
351.9	281.35
352.281	375.83
352.661	391.15
353.042	409.02
353.422	378.38
353.803	434.55
354.183	357.95
354.563	432
354.943	380.93
355.324	442.21
355.704	434.55
356.084	447.32
356.464	518.81
356.844	416.68
357.224	365.61
357.603	373.27
357.983	363.06
358.363	383.49
358.743	363.06
359.122	311.99
359.502	419.23
359.882	373.27
360.261	373.27
360.641	398.81
361.02	414.13
361.399	396.25
361.779	322.2
362.158	393.7
362.537	329.86
362.916	398.81
363.296	383.49
363.675	378.38
364.054	332.42
364.433	314.54
364.812	386.04
365.19	317.1
365.569	289.01
365.948	296.67
366.327	368.17
366.705	337.52
367.084	401.36
367.463	329.86
367.841	314.54
368.22	340.08
368.598	350.29
368.977	350.29
369.355	350.29
369.733	398.81
370.111	386.04
370.49	421.79
370.868	294.12
371.246	334.97
371.624	380.93
372.002	419.23
372.38	375.83
372.758	347.74
373.136	383.49
373.513	375.83
373.891	426.89
374.269	383.49
374.646	350.29
375.024	368.17
375.402	327.31
375.779	337.52
376.157	373.27
376.534	319.65
376.911	350.29
377.289	355.4
377.666	360.51
378.043	388.59
378.42	386.04
378.797	391.15
379.175	352.84
379.552	340.08
379.929	340.08
380.305	393.7
380.682	268.58
381.059	357.95
381.436	355.4
381.813	309.44
382.189	332.42
382.566	350.29
382.943	334.97
383.319	393.7
383.696	386.04
384.072	378.38
384.448	324.76
384.825	337.52
385.201	327.31
385.577	357.95
385.953	391.15
386.329	388.59
386.706	268.58
387.082	421.79
387.458	375.83
387.834	426.89
388.209	391.15
388.585	370.72
388.961	452.43
389.337	398.81
389.713	317.1
390.088	380.93
390.464	355.4
390.839	386.04
391.215	334.97
391.59	350.29
391.966	386.04
392.341	332.42
392.716	286.46
393.092	342.63
393.467	350.29
393.842	352.84
394.217	347.74
394.592	401.36
394.967	337.52
395.342	421.79
395.717	424.34
396.092	334.97
396.467	350.29
396.841	365.61
397.216	396.25
397.591	419.23
397.965	398.81
398.34	360.51
398.714	393.7
399.089	434.55
399.463	355.4
399.838	365.61
400.212	380.93
400.586	357.95
400.961	378.38
401.335	388.59
401.709	373.27
402.083	386.04
402.457	365.61
402.831	411.57
403.205	386.04
403.579	398.81
403.953	332.42
404.326	393.7
404.7	370.72
405.074	368.17
405.447	391.15
405.821	368.17
406.195	332.42
406.568	386.04
406.942	426.89
407.315	406.47
407.688	365.61
408.062	327.31
408.435	322.2
408.808	434.55
409.181	414.13
409.554	449.87
409.927	355.4
410.3	383.49
410.673	383.49
411.046	444.77
411.419	411.57
411.792	363.06
412.165	352.84
412.537	368.17
412.91	317.1
413.283	345.18
413.655	311.99
414.028	378.38
414.4	345.18
414.773	386.04
415.145	363.06
415.517	378.38
415.889	380.93
416.262	352.84
416.634	409.02
417.006	398.81
417.378	365.61
417.75	345.18
418.122	388.59
418.494	442.21
418.866	396.25
419.238	429.45
419.609	363.06
419.981	391.15
420.353	340.08
420.725	388.59
421.096	386.04
421.468	378.38
421.839	437.11
422.211	380.93
422.582	360.51
422.953	398.81
423.325	406.47
423.696	403.91
424.067	396.25
424.438	391.15
424.809	391.15
425.18	419.23
425.551	347.74
425.922	363.06
426.293	370.72
426.664	416.68
427.035	411.57
427.406	370.72
427.776	444.77
428.147	355.4
428.518	419.23
428.888	406.47
429.259	324.76
429.629	439.66
429.999	444.77
430.37	365.61
430.74	347.74
431.11	352.84
431.481	365.61
431.851	424.34
432.221	434.55
432.591	406.47
432.961	383.49
433.331	403.91
433.701	439.66
434.071	352.84
434.441	368.17
434.81	352.84
435.18	393.7
435.55	380.93
435.919	398.81
436.289	426.89
436.658	449.87
437.028	439.66
437.397	380.93
437.767	421.79
438.136	388.59
438.505	360.51
438.875	370.72
439.244	452.43
439.613	401.36
439.982	365.61
440.351	411.57
440.72	370.72
441.089	360.51
441.458	483.07
441.827	393.7
442.196	370.72
442.564	477.96
442.933	355.4
443.302	380.93
443.67	378.38
444.039	396.25
444.407	368.17
444.776	378.38
445.144	401.36
445.513	406.47
445.881	337.52
446.249	411.57
446.617	452.43
446.986	462.64
447.354	449.87
447.722	442.21
448.09	386.04
448.458	370.72
448.826	432
449.194	334.97
449.561	391.15
449.929	342.63
450.297	391.15
450.665	406.47
451.032	398.81
451.4	421.79
451.767	444.77
452.135	411.57
452.502	409.02
452.87	411.57
453.237	406.47
453.604	393.7
453.971	421.79
454.339	411.57
454.706	386.04
455.073	449.87
455.44	470.3
455.807	411.57
456.174	396.25
456.541	378.38
456.908	411.57
457.274	340.08
457.641	411.57
458.008	414.13
458.374	437.11
458.741	386.04
459.108	477.96
459.474	391.15
459.841	449.87
460.207	429.45
460.573	409.02
460.94	444.77
461.306	426.89
461.672	386.04
462.038	421.79
462.404	406.47
462.771	398.81
463.137	429.45
463.503	388.59
463.868	426.89
464.234	403.91
464.6	452.43
464.966	442.21
465.332	416.68
465.697	480.51
466.063	434.55
466.429	426.89
466.794	457.53
467.16	460.09
467.525	457.53
467.89	403.91
468.256	363.06
468.621	419.23
468.986	355.4
469.351	383.49
469.717	342.63
470.082	383.49
470.447	432
470.812	383.49
471.177	409.02
471.542	403.91
471.906	414.13
472.271	365.61
472.636	388.59
473.001	498.39
473.365	398.81
473.73	460.09
474.094	393.7
474.459	452.43
474.823	414.13
475.188	416.68
475.552	370.72
475.917	460.09
476.281	416.68
476.645	434.55
477.009	347.74
477.373	370.72
477.737	396.25
478.101	419.23
478.465	373.27
478.829	370.72
479.193	406.47
479.557	454.98
479.921	350.29
480.284	414.13
480.648	355.4
481.012	419.23
481.375	424.34
481.739	360.51
482.102	378.38
482.466	378.38
482.829	508.6
483.193	419.23
483.556	421.79
483.919	365.61
484.282	411.57
484.645	403.91
485.009	370.72
485.372	437.11
485.735	388.59
486.098	370.72
486.46	434.55
486.823	375.83
487.186	424.34
487.549	391.15
487.912	452.43
488.274	409.02
488.637	409.02
488.999	439.66
489.362	462.64
489.724	386.04
490.087	380.93
490.449	396.25
490.811	426.89
491.174	411.57
491.536	357.95
491.898	350.29
492.26	419.23
492.622	403.91
492.984	416.68
493.346	416.68
493.708	416.68
494.07	421.79
494.432	398.81
494.794	434.55
495.155	393.7
495.517	342.63
495.879	447.32
496.24	447.32
496.602	409.02
496.963	388.59
497.325	388.59
497.686	373.27
498.048	409.02
498.409	396.25
498.77	411.57
499.131	442.21
499.492	485.62
499.854	396.25
500.215	398.81
500.576	345.18
500.937	416.68
501.298	434.55
501.658	449.87
502.019	457.53
502.38	424.34
502.741	388.59
503.101	363.06
503.462	345.18
503.823	327.31
504.183	388.59
504.543	375.83
504.904	373.27
505.264	414.13
505.625	426.89
505.985	442.21
506.345	424.34
506.705	383.49
507.065	368.17
507.426	460.09
507.786	488.17
508.146	419.23
508.505	429.45
508.865	350.29
509.225	416.68
509.585	485.62
509.945	401.36
510.304	370.72
510.664	462.64
511.024	357.95
511.383	429.45
511.743	421.79
512.102	396.25
512.462	421.79
512.821	396.25
513.18	467.75
513.539	462.64
513.899	403.91
514.258	380.93
514.617	347.74
514.976	357.95
515.335	375.83
515.694	378.38
516.053	452.43
516.412	391.15
516.771	386.04
517.129	465.19
517.488	355.4
517.847	391.15
518.205	386.04
518.564	352.84
518.922	460.09
519.281	398.81
519.639	432
519.998	373.27
520.356	460.09
520.714	406.47
521.073	370.72
521.431	442.21
521.789	419.23
522.147	426.89
522.505	460.09
522.863	396.25
523.221	406.47
523.579	401.36
523.937	409.02
524.295	437.11
524.652	373.27
525.01	342.63
525.368	406.47
525.725	386.04
526.083	388.59
526.44	327.31
526.798	388.59
527.155	403.91
527.513	403.91
527.87	375.83
528.227	452.43
528.584	426.89
528.942	383.49
529.299	378.38
529.656	403.91
530.013	334.97
530.37	378.38
530.727	414.13
531.083	370.72
531.44	378.38
531.797	403.91
532.154	370.72
532.511	444.77
532.867	416.68
533.224	432
533.58	368.17
533.937	406.47
534.293	373.27
534.65	393.7
535.006	396.25
535.362	416.68
535.718	414.13
536.075	414.13
536.431	429.45
536.787	460.09
537.143	388.59
537.499	398.81
537.855	480.51
538.211	432
538.567	380.93
538.923	375.83
539.278	401.36
539.634	432
539.99	401.36
540.345	416.68
540.701	388.59
541.056	493.28
541.412	416.68
541.767	472.85
542.123	475.41
542.478	437.11
542.833	432
543.188	449.87
543.544	391.15
543.899	521.37
544.254	403.91
544.609	406.47
544.964	355.4
545.319	370.72
545.674	391.15
546.029	398.81
546.383	398.81
546.738	363.06
547.093	411.57
547.447	432
547.802	437.11
548.157	334.97
548.511	409.02
548.866	411.57
549.22	421.79
549.574	327.31
549.929	403.91
550.283	360.51
550.637	411.57
550.991	386.04
551.345	406.47
551.699	449.87
552.053	437.11
552.407	477.96
552.761	414.13
553.115	352.84
553.469	467.75
553.823	414.13
554.176	368.17
554.53	383.49
554.884	419.23
555.237	705.21
555.591	439.66
555.944	477.96
556.298	480.51
556.651	396.25
557.005	426.89
557.358	401.36
557.711	342.63
558.064	380.93
558.417	368.17
558.771	541.79
559.124	426.89
559.477	449.87
559.83	370.72
560.182	360.51
560.535	396.25
560.888	429.45
561.241	432
561.594	462.64
561.946	416.68
562.299	388.59
562.651	406.47
563.004	380.93
563.356	375.83
563.709	383.49
564.061	370.72
564.413	373.27
564.766	329.86
565.118	398.81
565.47	378.38
565.822	416.68
566.174	419.23
566.526	416.68
566.878	437.11
567.23	421.79
567.582	368.17
567.934	406.47
568.286	403.91
568.638	368.17
568.989	421.79
569.341	386.04
569.693	383.49
570.044	378.38
570.396	355.4
570.747	365.61
571.098	444.77
571.45	419.23
571.801	360.51
572.152	398.81
572.504	465.19
572.855	439.66
573.206	375.83
573.557	355.4
573.908	340.08
574.259	383.49
574.61	411.57
574.961	429.45
575.311	485.62
575.662	360.51
576.013	414.13
576.364	370.72
576.714	416.68
577.065	419.23
577.415	416.68
577.766	419.23
578.116	452.43
578.467	511.15
578.817	406.47
579.167	424.34
579.518	324.76
579.868	345.18
580.218	396.25
580.568	398.81
580.918	403.91
581.268	449.87
581.618	449.87
581.968	429.45
582.318	437.11
582.668	398.81
583.017	411.57
583.367	452.43
583.717	426.89
584.066	373.27
584.416	324.76
584.765	375.83
585.115	365.61
585.464	434.55
585.814	357.95
586.163	383.49
586.512	414.13
586.862	403.91
587.211	414.13
587.56	401.36
587.909	419.23
588.258	383.49
588.607	378.38
588.956	434.55
589.305	391.15
589.654	355.4
590.002	414.13
590.351	421.79
590.7	388.59
591.048	426.89
591.397	393.7
591.746	383.49
592.094	375.83
592.443	340.08
592.791	429.45
593.139	439.66
593.488	363.06
593.836	419.23
594.184	401.36
594.532	426.89
594.88	483.07
595.228	393.7
595.576	375.83
595.924	442.21
596.272	388.59
596.62	396.25
596.968	363.06
597.316	383.49
597.664	432
598.011	401.36
598.359	393.7
598.706	388.59
599.054	393.7
599.402	406.47
599.749	340.08
600.096	393.7
600.444	375.83
600.791	342.63
601.138	363.06
601.485	401.36
601.833	347.74
602.18	327.31
602.527	368.17
602.874	465.19
603.221	391.15
603.568	432
603.914	447.32
604.261	432
604.608	352.84
604.955	355.4
605.301	375.83
605.648	444.77
605.995	432
606.341	388.59
606.688	444.77
607.034	347.74
607.38	398.81
607.727	391.15
608.073	421.79
608.419	383.49
608.765	370.72
609.112	365.61
609.458	375.83
609.804	416.68
610.15	470.3
610.496	457.53
610.842	409.02
611.187	439.66
611.533	449.87
611.879	380.93
612.225	454.98
612.57	442.21
612.916	416.68
613.261	319.65
613.607	477.96
613.952	373.27
614.298	421.79
614.643	378.38
614.989	421.79
615.334	434.55
615.679	398.81
616.024	426.89
616.369	462.64
616.714	416.68
617.059	409.02
617.404	396.25
617.749	403.91
618.094	370.72
618.439	434.55
618.784	391.15
619.129	434.55
619.473	439.66
619.818	447.32
620.163	388.59
620.507	406.47
620.852	424.34
621.196	457.53
621.54	409.02
621.885	503.49
622.229	434.55
622.573	434.55
622.918	444.77
623.262	421.79
623.606	467.75
623.95	393.7
624.294	393.7
624.638	454.98
624.982	447.32
625.326	460.09
625.67	460.09
626.013	388.59
626.357	383.49
626.701	393.7
627.044	345.18
627.388	396.25
627.731	396.25
628.075	434.55
628.418	419.23
628.762	475.41
629.105	414.13
629.448	342.63
629.792	306.88
630.135	375.83
630.478	434.55
630.821	475.41
631.164	368.17
631.507	391.15
631.85	383.49
632.193	378.38
632.536	460.09
632.879	375.83
633.221	426.89
633.564	414.13
633.907	345.18
634.249	355.4
634.592	414.13
634.935	449.87
635.277	398.81
635.619	419.23
635.962	454.98
636.304	378.38
636.646	432
636.989	365.61
637.331	467.75
637.673	460.09
638.015	319.65
638.357	375.83
638.699	393.7
639.041	424.34
639.383	370.72
639.725	401.36
640.067	357.95
640.408	357.95
640.75	444.77
641.092	437.11
641.433	421.79
641.775	401.36
642.116	452.43
642.458	393.7
642.799	322.2
643.141	396.25
643.482	314.54
643.823	401.36
644.164	388.59
644.506	449.87
644.847	403.91
645.188	449.87
645.529	396.25
645.87	442.21
646.211	406.47
646.552	363.06
646.893	345.18
647.233	393.7
647.574	375.83
647.915	480.51
648.255	424.34
648.596	342.63
648.937	357.95
649.277	373.27
649.618	396.25
649.958	414.13
650.298	403.91
650.639	355.4
650.979	347.74
651.319	414.13
651.659	342.63
651.999	352.84
652.339	414.13
652.679	350.29
653.019	424.34
653.359	403.91
653.699	393.7
654.039	398.81
654.379	416.68
654.719	439.66
655.058	378.38
655.398	322.2
655.737	401.36
656.077	398.81
656.416	391.15
656.756	401.36
657.095	460.09
657.435	467.75
657.774	411.57
658.113	370.72
658.452	396.25
658.792	380.93
659.131	368.17
659.47	375.83
659.809	421.79
660.148	424.34
660.487	391.15
660.826	360.51
661.164	322.2
661.503	365.61
661.842	388.59
662.181	375.83
662.519	411.57
662.858	429.45
663.196	388.59
663.535	401.36
663.873	393.7
664.212	411.57
664.55	360.51
664.888	426.89
665.226	380.93
665.565	409.02
665.903	605.63
666.241	411.57
666.579	429.45
666.917	442.21
667.255	411.57
667.593	375.83
667.931	416.68
668.268	432
668.606	391.15
668.944	396.25
669.282	357.95
669.619	439.66
669.957	437.11
670.294	442.21
670.632	434.55
670.969	401.36
671.307	386.04
671.644	368.17
671.981	401.36
672.318	429.45
672.656	432
672.993	409.02
673.33	416.68
673.667	411.57
674.004	421.79
674.341	391.15
674.678	411.57
675.015	373.27
675.351	406.47
675.688	411.57
676.025	416.68
676.362	442.21
676.698	398.81
677.035	368.17
677.371	360.51
677.708	378.38
678.044	498.39
678.38	365.61
678.717	426.89
679.053	447.32
679.389	350.29
679.725	403.91
680.062	388.59
680.398	337.52
680.734	424.34
681.07	452.43
681.406	409.02
681.742	345.18
682.077	370.72
682.413	352.84
682.749	304.33
683.085	432
683.42	398.81
683.756	447.32
684.091	409.02
684.427	403.91
684.762	370.72
685.098	421.79
685.433	352.84
685.768	334.97
686.104	454.98
686.439	452.43
686.774	406.47
687.109	419.23
687.444	495.83
687.779	388.59
688.114	370.72
688.449	398.81
688.784	401.36
689.119	378.38
689.454	391.15
689.789	386.04
690.123	380.93
690.458	360.51
690.792	437.11
691.127	401.36
691.461	398.81
691.796	386.04
692.13	396.25
692.465	409.02
692.799	401.36
693.133	416.68
693.467	311.99
693.802	363.06
694.136	380.93
694.47	386.04
694.804	342.63
695.138	424.34
695.472	419.23
695.806	334.97
696.139	337.52
696.473	439.66
696.807	439.66
697.141	437.11
697.474	388.59
697.808	472.85
698.141	370.72
698.475	401.36
698.808	378.38
699.142	380.93
699.475	386.04
699.808	350.29
700.142	437.11
700.475	401.36
700.808	334.97
701.141	363.06
701.474	386.04
701.807	398.81
702.14	350.29
702.473	352.84
702.806	383.49
703.139	368.17
703.472	447.32
703.804	370.72
704.137	342.63
704.47	454.98
704.802	411.57
705.135	429.45
705.467	426.89
705.8	357.95
706.132	409.02
706.464	401.36
706.797	324.76
707.129	357.95
707.461	375.83
707.793	396.25
708.125	355.4
708.457	357.95
708.789	365.61
709.121	393.7
709.453	322.2
709.785	317.1
710.117	375.83
710.449	378.38
710.781	398.81
711.112	424.34
711.444	416.68
711.775	449.87
712.107	442.21
712.438	386.04
712.77	398.81
713.101	337.52
713.433	370.72
713.764	355.4
714.095	465.19
714.426	432
714.757	416.68
715.089	391.15
715.42	403.91
715.751	363.06
716.082	421.79
716.412	368.17
716.743	345.18
717.074	363.06
717.405	368.17
717.736	396.25
718.066	370.72
718.397	357.95
718.727	393.7
719.058	360.51
719.388	383.49
719.719	370.72
720.049	411.57
720.38	378.38
720.71	375.83
721.04	414.13
721.37	386.04
721.7	370.72
722.031	401.36
722.361	393.7
722.691	393.7
723.021	429.45
723.35	401.36
723.68	406.47
724.01	347.74
724.34	363.06
724.67	360.51
724.999	411.57
725.329	311.99
725.658	380.93
725.988	398.81
726.317	360.51
726.647	406.47
726.976	342.63
727.306	442.21
727.635	416.68
727.964	396.25
728.293	383.49
728.622	414.13
728.952	467.75
729.281	373.27
729.61	470.3
729.939	383.49
730.267	388.59
730.596	342.63
730.925	419.23
731.254	360.51
731.583	414.13
731.911	386.04
732.24	388.59
732.568	360.51
732.897	350.29
733.225	398.81
733.554	403.91
733.882	386.04
734.21	365.61
734.539	340.08
734.867	411.57
735.195	419.23
735.523	393.7
735.851	388.59
736.179	432
736.507	370.72
736.835	396.25
737.163	388.59
737.491	396.25
737.819	426.89
738.147	375.83
738.474	337.52
738.802	360.51
739.13	352.84
739.457	409.02
739.785	403.91
740.112	375.83
740.44	319.65
740.767	311.99
741.094	355.4
741.422	393.7
741.749	434.55
742.076	375.83
742.403	352.84
742.73	342.63
743.057	317.1
743.384	419.23
743.711	373.27
744.038	434.55
744.365	449.87
744.692	426.89
745.018	391.15
745.345	352.84
745.672	424.34
745.998	426.89
746.325	357.95
746.651	493.28
746.978	424.34
747.304	409.02
747.631	378.38
747.957	391.15
748.283	421.79
748.61	475.41
748.936	401.36
749.262	432
749.588	421.79
749.914	401.36
750.24	393.7
750.566	406.47
750.892	452.43
751.218	365.61
751.543	442.21
751.869	429.45
752.195	424.34
752.521	477.96
752.846	368.17
753.172	355.4
753.497	386.04
753.823	393.7
754.148	409.02
754.473	391.15
754.799	388.59
755.124	301.78
755.449	388.59
755.774	355.4
756.1	391.15
756.425	421.79
756.75	383.49
757.075	340.08
757.4	557.12
757.724	375.83
758.049	370.72
758.374	337.52
758.699	334.97
759.024	409.02
759.348	327.31
759.673	386.04
759.997	360.51
760.322	357.95
760.646	391.15
760.971	375.83
761.295	403.91
761.619	477.96
761.944	437.11
762.268	386.04
762.592	460.09
762.916	444.77
763.24	465.19
763.564	409.02
763.888	439.66
764.212	483.07
764.536	465.19
764.86	449.87
765.184	432
765.508	559.67
765.831	452.43
766.155	684.78
766.478	513.71
766.802	432
767.126	511.15
767.449	554.56
767.772	549.46
768.096	600.52
768.419	529.03
768.742	600.52
769.066	574.99
769.389	572.44
769.712	659.25
770.035	695
770.358	715.42
770.681	738.41
771.004	763.94
771.327	771.6
771.65	784.37
771.972	769.05
772.295	809.9
772.618	827.77
772.941	827.77
773.263	797.13
773.586	866.07
773.908	942.68
774.231	1075.45
774.553	1034.6
774.875	1090.77
775.198	1078
775.52	1019.28
775.842	1095.88
776.164	1049.92
776.487	1057.58
776.809	1093.32
777.131	1083.11
777.453	1065.24
777.775	1118.86
778.096	1159.71
778.418	1111.2
778.74	1111.2
779.062	1121.41
779.384	1241.42
779.705	1343.56
780.027	1450.8
780.348	1420.16
780.67	1435.48
780.991	1481.44
781.313	1685.71
781.634	1775.08
781.955	1642.3
782.277	1690.82
782.598	1693.37
782.919	1581.02
783.24	1634.64
783.561	1604
783.882	1624.43
784.203	1782.74
784.524	1721.46
784.845	1703.58
785.166	1764.86
785.487	1785.29
785.807	1838.91
786.128	1777.63
786.449	1736.78
786.769	1818.48
787.09	1987.01
787.41	2081.48
787.731	2290.86
788.051	2250
788.372	2444.06
788.692	2431.29
789.012	2456.83
789.332	2357.25
789.653	2525.77
789.973	2699.4
790.293	2571.73
790.613	2364.91
790.933	2364.91
791.253	2438.95
791.573	2387.89
791.893	2324.05
792.212	2175.96
792.532	2186.17
792.852	2181.06
793.171	2150.42
793.491	2038.07
793.811	2107.02
794.13	2081.48
794.45	1925.73
794.769	1757.2
795.088	1792.95
795.408	1744.44
795.727	1910.41
796.046	1925.73
796.365	1999.77
796.684	1889.98
797.004	1844.02
797.323	2055.95
797.642	2405.76
797.96	2487.47
798.279	2515.56
798.598	2441.51
798.917	2341.93
799.236	2252.56
799.554	2170.85
799.873	1984.45
800.192	2101.91
800.51	2132.55
800.829	2109.57
