Data from 2025-12-03_xpw_interference_micrometer_634_dark_FLMS141361__33__183.txt Node

Date: Wed Dec 03 15:50:02 MST 2025
User: james
Spectrometer: FLMS14136
Trigger mode: 0
Integration Time (sec): 1.000000E-1
Scans to average: 1
Electric dark correction enabled: true
Nonlinearity correction enabled: false
Boxcar width: 0
XAxis mode: Wavelengths
Number of Pixels in Spectrum: 2048
>>>>>Begin Spectral Data<<<<<
339.315	39.9
339.697	39.9
340.079	39.9
340.461	-146.5
340.843	-110.75
341.225	-69.9
341.607	-120.97
341.989	-136.29
342.371	-77.56
342.752	-80.11
343.134	-80.11
343.516	-13.72
343.897	-16.28
344.279	-36.7
344.661	-3.51
345.042	98.62
345.423	90.96
345.805	106.28
346.186	65.43
346.567	116.5
346.949	157.35
347.33	124.16
347.711	136.92
348.092	213.53
348.473	223.74
348.854	208.42
349.235	267.15
349.616	305.45
349.997	241.61
350.378	333.54
350.758	259.49
351.139	308
351.52	333.54
351.9	285.02
352.281	330.98
352.661	361.62
353.042	338.64
353.422	376.94
353.803	435.67
354.183	336.09
354.563	428.01
354.943	384.6
355.324	389.71
355.704	392.26
356.084	369.28
356.464	374.39
356.844	387.16
357.224	440.78
357.603	417.8
357.983	389.71
358.363	387.16
358.743	415.24
359.122	394.82
359.502	364.18
359.882	297.79
360.261	384.6
360.641	361.62
361.02	305.45
361.399	295.23
361.779	364.18
362.158	376.94
362.537	397.37
362.916	318.21
363.296	318.21
363.675	285.02
364.054	323.32
364.433	364.18
364.812	333.54
365.19	292.68
365.569	338.64
365.948	351.41
366.327	366.73
366.705	305.45
367.084	300.34
367.463	323.32
367.841	330.98
368.22	302.89
368.598	318.21
368.977	325.87
369.355	315.66
369.733	330.98
370.111	325.87
370.49	318.21
370.868	308
371.246	405.03
371.624	366.73
372.002	297.79
372.38	353.96
372.758	333.54
373.136	361.62
373.513	328.43
373.891	333.54
374.269	325.87
374.646	300.34
375.024	264.59
375.402	318.21
375.779	361.62
376.157	384.6
376.534	356.52
376.911	353.96
377.289	313.11
377.666	371.84
378.043	290.13
378.42	277.36
378.797	285.02
379.175	249.27
379.552	320.77
379.929	407.58
380.305	348.86
380.682	267.15
381.059	371.84
381.436	392.26
381.813	405.03
382.189	348.86
382.566	323.32
382.943	279.91
383.319	330.98
383.696	336.09
384.072	338.64
384.448	371.84
384.825	336.09
385.201	417.8
385.577	318.21
385.953	364.18
386.329	366.73
386.706	374.39
387.082	364.18
387.458	379.5
387.834	402.48
388.209	348.86
388.585	361.62
388.961	341.2
389.337	364.18
389.713	320.77
390.088	343.75
390.464	402.48
390.839	397.37
391.215	336.09
391.59	300.34
391.966	351.41
392.341	392.26
392.716	328.43
393.092	379.5
393.467	295.23
393.842	320.77
394.217	361.62
394.592	369.28
394.967	292.68
395.342	348.86
395.717	397.37
396.092	407.58
396.467	405.03
396.841	392.26
397.216	410.14
397.591	405.03
397.965	277.36
398.34	387.16
398.714	336.09
399.089	353.96
399.463	473.97
399.838	328.43
400.212	323.32
400.586	353.96
400.961	422.9
401.335	341.2
401.709	292.68
402.083	433.12
402.457	371.84
402.831	366.73
403.205	336.09
403.579	351.41
403.953	356.52
404.326	392.26
404.7	343.75
405.074	313.11
405.447	397.37
405.821	359.07
406.195	371.84
406.568	407.58
406.942	402.48
407.315	343.75
407.688	333.54
408.062	336.09
408.435	359.07
408.808	285.02
409.181	433.12
409.554	336.09
409.927	420.35
410.3	389.71
410.673	399.92
411.046	361.62
411.419	353.96
411.792	399.92
412.165	369.28
412.537	374.39
412.91	305.45
413.283	402.48
413.655	405.03
414.028	394.82
414.4	336.09
414.773	348.86
415.145	341.2
415.517	407.58
415.889	341.2
416.262	425.46
416.634	343.75
417.006	412.69
417.378	353.96
417.75	346.3
418.122	346.3
418.494	351.41
418.866	315.66
419.238	351.41
419.609	353.96
419.981	338.64
420.353	279.91
420.725	399.92
421.096	356.52
421.468	392.26
421.839	399.92
422.211	361.62
422.582	343.75
422.953	323.32
423.325	366.73
423.696	359.07
424.067	392.26
424.438	438.22
424.809	392.26
425.18	420.35
425.551	369.28
425.922	371.84
426.293	394.82
426.664	407.58
427.035	399.92
427.406	394.82
427.776	407.58
428.147	387.16
428.518	389.71
428.888	323.32
429.259	356.52
429.629	297.79
429.999	348.86
430.37	302.89
430.74	356.52
431.11	313.11
431.481	353.96
431.851	384.6
432.221	387.16
432.591	369.28
432.961	433.12
433.331	382.05
433.701	366.73
434.071	389.71
434.441	415.24
434.81	397.37
435.18	392.26
435.55	389.71
435.919	379.5
436.289	458.65
436.658	394.82
437.028	412.69
437.397	410.14
437.767	389.71
438.136	435.67
438.505	351.41
438.875	387.16
439.244	405.03
439.613	359.07
439.982	361.62
440.351	361.62
440.72	353.96
441.089	376.94
441.458	374.39
441.827	356.52
442.196	371.84
442.564	479.08
442.933	430.56
443.302	361.62
443.67	466.31
444.039	325.87
444.407	374.39
444.776	353.96
445.144	371.84
445.513	407.58
445.881	384.6
446.249	407.58
446.617	351.41
446.986	305.45
447.354	450.99
447.722	310.55
448.09	425.46
448.458	325.87
448.826	415.24
449.194	353.96
449.561	376.94
449.929	392.26
450.297	333.54
450.665	371.84
451.032	325.87
451.4	359.07
451.767	422.9
452.135	346.3
452.502	356.52
452.87	308
453.237	374.39
453.604	402.48
453.971	359.07
454.339	405.03
454.706	405.03
455.073	412.69
455.44	397.37
455.807	410.14
456.174	463.76
456.541	387.16
456.908	376.94
457.274	399.92
457.641	348.86
458.008	376.94
458.374	410.14
458.741	384.6
459.108	384.6
459.474	405.03
459.841	359.07
460.207	348.86
460.573	407.58
460.94	412.69
461.306	422.9
461.672	425.46
462.038	379.5
462.404	318.21
462.771	397.37
463.137	433.12
463.503	392.26
463.868	456.1
464.234	379.5
464.6	389.71
464.966	448.44
465.332	361.62
465.697	305.45
466.063	318.21
466.429	410.14
466.794	353.96
467.16	412.69
467.525	425.46
467.89	364.18
468.256	405.03
468.621	433.12
468.986	402.48
469.351	382.05
469.717	382.05
470.082	371.84
470.447	382.05
470.812	392.26
471.177	361.62
471.542	382.05
471.906	412.69
472.271	443.33
472.636	371.84
473.001	351.41
473.365	300.34
473.73	387.16
474.094	346.3
474.459	392.26
474.823	443.33
475.188	382.05
475.552	384.6
475.917	379.5
476.281	407.58
476.645	387.16
477.009	356.52
477.373	356.52
477.737	338.64
478.101	379.5
478.465	440.78
478.829	461.2
479.193	389.71
479.557	410.14
479.921	389.71
480.284	359.07
480.648	420.35
481.012	399.92
481.375	379.5
481.739	364.18
482.102	323.32
482.466	399.92
482.829	405.03
483.193	445.88
483.556	387.16
483.919	351.41
484.282	405.03
484.645	351.41
485.009	407.58
485.372	389.71
485.735	346.3
486.098	336.09
486.46	387.16
486.823	338.64
487.186	399.92
487.549	389.71
487.912	430.56
488.274	450.99
488.637	410.14
488.999	420.35
489.362	379.5
489.724	425.46
490.087	415.24
490.449	399.92
490.811	379.5
491.174	359.07
491.536	448.44
491.898	366.73
492.26	430.56
492.622	405.03
492.984	333.54
493.346	323.32
493.708	415.24
494.07	450.99
494.432	366.73
494.794	417.8
495.155	366.73
495.517	438.22
495.879	420.35
496.24	420.35
496.602	410.14
496.963	348.86
497.325	369.28
497.686	394.82
498.048	445.88
498.409	430.56
498.77	364.18
499.131	415.24
499.492	387.16
499.854	448.44
500.215	420.35
500.576	382.05
500.937	392.26
501.298	456.1
501.658	420.35
502.019	445.88
502.38	392.26
502.741	412.69
503.101	336.09
503.462	399.92
503.823	387.16
504.183	428.01
504.543	417.8
504.904	440.78
505.264	359.07
505.625	384.6
505.985	364.18
506.345	440.78
506.705	450.99
507.065	450.99
507.426	356.52
507.786	392.26
508.146	435.67
508.505	425.46
508.865	466.31
509.225	415.24
509.585	402.48
509.945	356.52
510.304	325.87
510.664	443.33
511.024	402.48
511.383	453.54
511.743	374.39
512.102	328.43
512.462	325.87
512.821	448.44
513.18	336.09
513.539	371.84
513.899	445.88
514.258	389.71
514.617	384.6
514.976	353.96
515.335	407.58
515.694	382.05
516.053	405.03
516.412	433.12
516.771	397.37
517.129	410.14
517.488	417.8
517.847	402.48
518.205	371.84
518.564	338.64
518.922	343.75
519.281	425.46
519.639	376.94
519.998	361.62
520.356	415.24
520.714	402.48
521.073	397.37
521.431	364.18
521.789	351.41
522.147	407.58
522.505	397.37
522.863	410.14
523.221	356.52
523.579	356.52
523.937	389.71
524.295	364.18
524.652	374.39
525.01	425.46
525.368	394.82
525.725	364.18
526.083	371.84
526.44	387.16
526.798	407.58
527.155	397.37
527.513	397.37
527.87	376.94
528.227	338.64
528.584	323.32
528.942	353.96
529.299	379.5
529.656	389.71
530.013	450.99
530.37	371.84
530.727	463.76
531.083	420.35
531.44	328.43
531.797	369.28
532.154	402.48
532.511	371.84
532.867	445.88
533.224	410.14
533.58	359.07
533.937	407.58
534.293	433.12
534.65	463.76
535.006	384.6
535.362	369.28
535.718	379.5
536.075	397.37
536.431	422.9
536.787	392.26
537.143	399.92
537.499	405.03
537.855	384.6
538.211	371.84
538.567	361.62
538.923	328.43
539.278	422.9
539.634	433.12
539.99	351.41
540.345	422.9
540.701	353.96
541.056	382.05
541.412	433.12
541.767	443.33
542.123	371.84
542.478	412.69
542.833	392.26
543.188	484.18
543.544	422.9
543.899	422.9
544.254	402.48
544.609	330.98
544.964	448.44
545.319	397.37
545.674	325.87
546.029	433.12
546.383	458.65
546.738	405.03
547.093	430.56
547.447	389.71
547.802	341.2
548.157	348.86
548.511	356.52
548.866	410.14
549.22	389.71
549.574	346.3
549.929	348.86
550.283	359.07
550.637	399.92
550.991	389.71
551.345	420.35
551.699	420.35
552.053	420.35
552.407	410.14
552.761	384.6
553.115	466.31
553.469	445.88
553.823	394.82
554.176	369.28
554.53	392.26
554.884	320.77
555.237	652.71
555.591	376.94
555.944	379.5
556.298	356.52
556.651	453.54
557.005	369.28
557.358	359.07
557.711	471.42
558.064	399.92
558.417	428.01
558.771	542.91
559.124	430.56
559.477	338.64
559.83	379.5
560.182	359.07
560.535	456.1
560.888	435.67
561.241	394.82
561.594	379.5
561.946	415.24
562.299	428.01
562.651	458.65
563.004	417.8
563.356	435.67
563.709	382.05
564.061	369.28
564.413	415.24
564.766	359.07
565.118	376.94
565.47	402.48
565.822	389.71
566.174	295.23
566.526	379.5
566.878	420.35
567.23	387.16
567.582	410.14
567.934	369.28
568.286	313.11
568.638	425.46
568.989	394.82
569.341	405.03
569.693	440.78
570.044	402.48
570.396	356.52
570.747	382.05
571.098	422.9
571.45	435.67
571.801	376.94
572.152	420.35
572.504	433.12
572.855	417.8
573.206	438.22
573.557	369.28
573.908	420.35
574.259	392.26
574.61	410.14
574.961	338.64
575.311	440.78
575.662	379.5
576.013	412.69
576.364	374.39
576.714	425.46
577.065	420.35
577.415	435.67
577.766	387.16
578.116	361.62
578.467	371.84
578.817	359.07
579.167	402.48
579.518	415.24
579.868	402.48
580.218	376.94
580.568	318.21
580.918	387.16
581.268	361.62
581.618	428.01
581.968	435.67
582.318	440.78
582.668	369.28
583.017	392.26
583.367	308
583.717	320.77
584.066	364.18
584.416	374.39
584.765	382.05
585.115	440.78
585.464	392.26
585.814	422.9
586.163	428.01
586.512	407.58
586.862	399.92
587.211	448.44
587.56	443.33
587.909	374.39
588.258	384.6
588.607	394.82
588.956	374.39
589.305	366.73
589.654	351.41
590.002	453.54
590.351	346.3
590.7	325.87
591.048	379.5
591.397	412.69
591.746	448.44
592.094	384.6
592.443	410.14
592.791	374.39
593.139	387.16
593.488	430.56
593.836	336.09
594.184	374.39
594.532	422.9
594.88	420.35
595.228	384.6
595.576	405.03
595.924	422.9
596.272	387.16
596.62	389.71
596.968	371.84
597.316	438.22
597.664	336.09
598.011	369.28
598.359	394.82
598.706	422.9
599.054	425.46
599.402	420.35
599.749	425.46
600.096	402.48
600.444	433.12
600.791	392.26
601.138	399.92
601.485	382.05
601.833	402.48
602.18	463.76
602.527	407.58
602.874	379.5
603.221	428.01
603.568	361.62
603.914	453.54
604.261	323.32
604.608	420.35
604.955	308
605.301	376.94
605.648	320.77
605.995	433.12
606.341	435.67
606.688	435.67
607.034	405.03
607.38	448.44
607.727	376.94
608.073	402.48
608.419	376.94
608.765	361.62
609.112	399.92
609.458	379.5
609.804	422.9
610.15	394.82
610.496	392.26
610.842	425.46
611.187	384.6
611.533	433.12
611.879	402.48
612.225	341.2
612.57	351.41
612.916	382.05
613.261	453.54
613.607	361.62
613.952	382.05
614.298	458.65
614.643	407.58
614.989	412.69
615.334	402.48
615.679	366.73
616.024	410.14
616.369	415.24
616.714	382.05
617.059	366.73
617.404	369.28
617.749	456.1
618.094	371.84
618.439	387.16
618.784	420.35
619.129	430.56
619.473	387.16
619.818	346.3
620.163	359.07
620.507	318.21
620.852	420.35
621.196	410.14
621.54	379.5
621.885	333.54
622.229	415.24
622.573	430.56
622.918	394.82
623.262	399.92
623.606	412.69
623.95	366.73
624.294	405.03
624.638	438.22
624.982	374.39
625.326	366.73
625.67	343.75
626.013	336.09
626.357	323.32
626.701	371.84
627.044	359.07
627.388	417.8
627.731	359.07
628.075	356.52
628.418	417.8
628.762	450.99
629.105	410.14
629.448	384.6
629.792	374.39
630.135	461.2
630.478	318.21
630.821	394.82
631.164	392.26
631.507	402.48
631.85	384.6
632.193	343.75
632.536	402.48
632.879	433.12
633.221	341.2
633.564	392.26
633.907	351.41
634.249	336.09
634.592	366.73
634.935	382.05
635.277	402.48
635.619	417.8
635.962	379.5
636.304	430.56
636.646	397.37
636.989	412.69
637.331	333.54
637.673	328.43
638.015	384.6
638.357	399.92
638.699	422.9
639.041	433.12
639.383	420.35
639.725	376.94
640.067	430.56
640.408	407.58
640.75	376.94
641.092	399.92
641.433	389.71
641.775	353.96
642.116	405.03
642.458	430.56
642.799	405.03
643.141	440.78
643.482	351.41
643.823	371.84
644.164	399.92
644.506	504.61
644.847	353.96
645.188	305.45
645.529	315.66
645.87	415.24
646.211	392.26
646.552	376.94
646.893	399.92
647.233	374.39
647.574	330.98
647.915	356.52
648.255	359.07
648.596	318.21
648.937	366.73
649.277	371.84
649.618	435.67
649.958	338.64
650.298	379.5
650.639	353.96
650.979	351.41
651.319	366.73
651.659	369.28
651.999	369.28
652.339	376.94
652.679	397.37
653.019	415.24
653.359	399.92
653.699	374.39
654.039	348.86
654.379	486.74
654.719	397.37
655.058	384.6
655.398	356.52
655.737	435.67
656.077	382.05
656.416	420.35
656.756	371.84
657.095	394.82
657.435	428.01
657.774	433.12
658.113	430.56
658.452	433.12
658.792	366.73
659.131	394.82
659.47	330.98
659.809	359.07
660.148	387.16
660.487	384.6
660.826	387.16
661.164	351.41
661.503	415.24
661.842	364.18
662.181	341.2
662.519	415.24
662.858	453.54
663.196	351.41
663.535	387.16
663.873	397.37
664.212	387.16
664.55	376.94
664.888	336.09
665.226	410.14
665.565	394.82
665.903	568.45
666.241	384.6
666.579	394.82
666.917	328.43
667.255	376.94
667.593	463.76
667.931	397.37
668.268	428.01
668.606	343.75
668.944	420.35
669.282	433.12
669.619	328.43
669.957	389.71
670.294	438.22
670.632	348.86
670.969	422.9
671.307	343.75
671.644	384.6
671.981	379.5
672.318	359.07
672.656	428.01
672.993	382.05
673.33	402.48
673.667	435.67
674.004	328.43
674.341	384.6
674.678	320.77
675.015	417.8
675.351	376.94
675.688	379.5
676.025	417.8
676.362	438.22
676.698	394.82
677.035	292.68
677.371	256.93
677.708	323.32
678.044	359.07
678.38	412.69
678.717	341.2
679.053	364.18
679.389	402.48
679.725	323.32
680.062	412.69
680.398	392.26
680.734	433.12
681.07	382.05
681.406	382.05
681.742	428.01
682.077	376.94
682.413	366.73
682.749	392.26
683.085	433.12
683.42	379.5
683.756	359.07
684.091	353.96
684.427	392.26
684.762	366.73
685.098	410.14
685.433	405.03
685.768	402.48
686.104	376.94
686.439	333.54
686.774	399.92
687.109	428.01
687.444	417.8
687.779	379.5
688.114	376.94
688.449	440.78
688.784	369.28
689.119	374.39
689.454	333.54
689.789	394.82
690.123	374.39
690.458	415.24
690.792	407.58
691.127	412.69
691.461	366.73
691.796	300.34
692.13	376.94
692.465	405.03
692.799	407.58
693.133	364.18
693.467	376.94
693.802	369.28
694.136	330.98
694.47	379.5
694.804	351.41
695.138	348.86
695.472	369.28
695.806	428.01
696.139	450.99
696.473	473.97
696.807	415.24
697.141	384.6
697.474	420.35
697.808	379.5
698.141	361.62
698.475	285.02
698.808	392.26
699.142	445.88
699.475	384.6
699.808	422.9
700.142	435.67
700.475	330.98
700.808	402.48
701.141	438.22
701.474	376.94
701.807	325.87
702.14	402.48
702.473	402.48
702.806	399.92
703.139	323.32
703.472	430.56
703.804	351.41
704.137	361.62
704.47	415.24
704.802	351.41
705.135	353.96
705.467	407.58
705.8	438.22
706.132	382.05
706.464	356.52
706.797	392.26
707.129	420.35
707.461	450.99
707.793	325.87
708.125	359.07
708.457	371.84
708.789	384.6
709.121	394.82
709.453	384.6
709.785	364.18
710.117	407.58
710.449	417.8
710.781	371.84
711.112	392.26
711.444	366.73
711.775	425.46
712.107	369.28
712.438	366.73
712.77	433.12
713.101	384.6
713.433	397.37
713.764	379.5
714.095	384.6
714.426	392.26
714.757	376.94
715.089	364.18
715.42	399.92
715.751	412.69
716.082	412.69
716.412	353.96
716.743	295.23
717.074	338.64
717.405	310.55
717.736	433.12
718.066	397.37
718.397	415.24
718.727	379.5
719.058	397.37
719.388	351.41
719.719	379.5
720.049	376.94
720.38	425.46
720.71	369.28
721.04	382.05
721.37	389.71
721.7	425.46
722.031	438.22
722.361	461.2
722.691	443.33
723.021	415.24
723.35	366.73
723.68	435.67
724.01	415.24
724.34	402.48
724.67	356.52
724.999	384.6
725.329	336.09
725.658	376.94
725.988	392.26
726.317	359.07
726.647	376.94
726.976	399.92
727.306	410.14
727.635	387.16
727.964	420.35
728.293	405.03
728.622	425.46
728.952	343.75
729.281	405.03
729.61	379.5
729.939	346.3
730.267	453.54
730.596	397.37
730.925	448.44
731.254	410.14
731.583	445.88
731.911	371.84
732.24	297.79
732.568	394.82
732.897	338.64
733.225	387.16
733.554	397.37
733.882	440.78
734.21	341.2
734.539	348.86
734.867	359.07
735.195	369.28
735.523	384.6
735.851	402.48
736.179	353.96
736.507	338.64
736.835	364.18
737.163	392.26
737.491	387.16
737.819	376.94
738.147	379.5
738.474	341.2
738.802	412.69
739.13	333.54
739.457	369.28
739.785	359.07
740.112	361.62
740.44	336.09
740.767	382.05
741.094	338.64
741.422	353.96
741.749	397.37
742.076	379.5
742.403	371.84
742.73	353.96
743.057	382.05
743.384	415.24
743.711	364.18
744.038	417.8
744.365	458.65
744.692	376.94
745.018	392.26
745.345	371.84
745.672	343.75
745.998	364.18
746.325	374.39
746.651	330.98
746.978	392.26
747.304	305.45
747.631	376.94
747.957	351.41
748.283	422.9
748.61	330.98
748.936	353.96
749.262	369.28
749.588	407.58
749.914	361.62
750.24	392.26
750.566	387.16
750.892	359.07
751.218	353.96
751.543	371.84
751.869	361.62
752.195	313.11
752.521	425.46
752.846	422.9
753.172	397.37
753.497	366.73
753.823	397.37
754.148	417.8
754.473	382.05
754.799	405.03
755.124	389.71
755.449	405.03
755.774	445.88
756.1	397.37
756.425	392.26
756.75	384.6
757.075	438.22
757.4	504.61
757.724	359.07
758.049	310.55
758.374	407.58
758.699	364.18
759.024	402.48
759.348	410.14
759.673	438.22
759.997	379.5
760.322	361.62
760.646	361.62
760.971	353.96
761.295	348.86
761.619	405.03
761.944	392.26
762.268	376.94
762.592	387.16
762.916	410.14
763.24	428.01
763.564	325.87
763.888	338.64
764.212	379.5
764.536	379.5
764.86	384.6
765.184	405.03
765.508	353.96
765.831	333.54
766.155	685.9
766.478	448.44
766.802	473.97
767.126	341.2
767.449	310.55
767.772	415.24
768.096	415.24
768.419	382.05
768.742	438.22
769.066	356.52
769.389	315.66
769.712	351.41
770.035	402.48
770.358	461.2
770.681	430.56
771.004	379.5
771.327	366.73
771.65	376.94
771.972	364.18
772.295	374.39
772.618	405.03
772.941	369.28
773.263	405.03
773.586	341.2
773.908	356.52
774.231	361.62
774.553	405.03
774.875	336.09
775.198	376.94
775.52	318.21
775.842	382.05
776.164	351.41
776.487	323.32
776.809	415.24
777.131	394.82
777.453	356.52
777.775	371.84
778.096	392.26
778.418	325.87
778.74	356.52
779.062	374.39
779.384	402.48
779.705	371.84
780.027	343.75
780.348	430.56
780.67	417.8
780.991	397.37
781.313	387.16
781.634	356.52
781.955	379.5
782.277	435.67
782.598	374.39
782.919	353.96
783.24	384.6
783.561	384.6
783.882	346.3
784.203	397.37
784.524	330.98
784.845	346.3
785.166	366.73
785.487	379.5
785.807	394.82
786.128	387.16
786.449	353.96
786.769	394.82
787.09	389.71
787.41	402.48
787.731	353.96
788.051	371.84
788.372	356.52
788.692	379.5
789.012	346.3
789.332	433.12
789.653	443.33
789.973	374.39
790.293	338.64
790.613	348.86
790.933	402.48
791.253	392.26
791.573	336.09
791.893	369.28
792.212	338.64
792.532	351.41
792.852	402.48
793.171	308
793.491	364.18
793.811	379.5
794.13	407.58
794.45	376.94
794.769	410.14
795.088	402.48
795.408	374.39
795.727	394.82
796.046	384.6
796.365	374.39
796.684	371.84
797.004	361.62
797.323	371.84
797.642	330.98
797.96	376.94
798.279	392.26
798.598	336.09
798.917	443.33
799.236	402.48
799.554	292.68
799.873	392.26
800.192	348.86
800.51	366.73
800.829	422.9
801.147	387.16
801.466	382.05
801.784	399.92
802.102	456.1
802.421	392.26
802.739	394.82
803.057	458.65
