Data from 2025-12-03_xpw_interference_micrometer_634_dark_FLMS141361__26__176.txt Node

Date: Wed Dec 03 15:50:01 MST 2025
User: james
Spectrometer: FLMS14136
Trigger mode: 0
Integration Time (sec): 1.000000E-1
Scans to average: 1
Electric dark correction enabled: true
Nonlinearity correction enabled: false
Boxcar width: 0
XAxis mode: Wavelengths
Number of Pixels in Spectrum: 2048
>>>>>Begin Spectral Data<<<<<
339.315	-55.22
339.697	-55.22
340.079	-55.22
340.461	-57.77
340.843	-101.18
341.225	-124.16
341.607	-131.82
341.989	-24.58
342.371	-57.77
342.752	-60.32
343.134	-50.11
343.516	-34.79
343.897	8.62
344.279	29.04
344.661	57.13
345.042	31.6
345.423	85.22
345.805	11.17
346.186	62.24
346.567	100.54
346.949	97.99
347.33	151.61
347.711	164.37
348.092	210.33
348.473	246.08
348.854	294.6
349.235	256.3
349.616	276.72
349.997	258.85
350.378	363.54
350.758	292.04
351.139	338
351.52	312.47
351.9	355.88
352.281	427.37
352.661	366.09
353.042	399.28
353.422	447.8
353.803	363.54
354.183	394.18
354.563	327.79
354.943	363.54
355.324	404.39
355.704	427.37
356.084	406.94
356.464	491.21
356.844	417.16
357.224	406.94
357.603	383.96
357.983	378.86
358.363	373.75
358.743	404.39
359.122	373.75
359.502	401.84
359.882	450.35
360.261	391.62
360.641	376.3
361.02	360.98
361.399	345.66
361.779	368.64
362.158	299.7
362.537	343.11
362.916	386.52
363.296	317.58
363.675	348.22
364.054	345.66
364.433	340.56
364.812	281.83
365.19	286.94
365.569	399.28
365.948	302.26
366.327	386.52
366.705	340.56
367.084	317.58
367.463	322.68
367.841	386.52
368.22	292.04
368.598	376.3
368.977	394.18
369.355	320.13
369.733	312.47
370.111	406.94
370.49	327.79
370.868	360.98
371.246	355.88
371.624	350.77
372.002	292.04
372.38	338
372.758	381.41
373.136	445.25
373.513	366.09
373.891	289.49
374.269	317.58
374.646	406.94
375.024	401.84
375.402	363.54
375.779	350.77
376.157	404.39
376.534	343.11
376.911	309.92
377.289	228.21
377.666	417.16
378.043	360.98
378.42	350.77
378.797	401.84
379.175	284.38
379.552	358.43
379.929	320.13
380.305	376.3
380.682	417.16
381.059	348.22
381.436	327.79
381.813	355.88
382.189	399.28
382.566	343.11
382.943	338
383.319	409.5
383.696	343.11
384.072	343.11
384.448	376.3
384.825	419.71
385.201	429.93
385.577	417.16
385.953	360.98
386.329	409.5
386.706	348.22
387.082	414.6
387.458	363.54
387.834	340.56
388.209	440.14
388.585	348.22
388.961	406.94
389.337	391.62
389.713	355.88
390.088	409.5
390.464	378.86
390.839	404.39
391.215	427.37
391.59	389.07
391.966	348.22
392.341	383.96
392.716	386.52
393.092	404.39
393.467	363.54
393.842	307.36
394.217	360.98
394.592	419.71
394.967	315.02
395.342	376.3
395.717	302.26
396.092	412.05
396.467	373.75
396.841	373.75
397.216	363.54
397.591	320.13
397.965	325.24
398.34	386.52
398.714	360.98
399.089	371.2
399.463	376.3
399.838	399.28
400.212	332.9
400.586	360.98
400.961	335.45
401.335	394.18
401.709	378.86
402.083	386.52
402.457	396.73
402.831	394.18
403.205	366.09
403.579	322.68
403.953	343.11
404.326	404.39
404.7	391.62
405.074	348.22
405.447	335.45
405.821	386.52
406.195	422.26
406.568	360.98
406.942	450.35
407.315	363.54
407.688	409.5
408.062	412.05
408.435	355.88
408.808	353.32
409.181	458.01
409.554	419.71
409.927	360.98
410.3	409.5
410.673	350.77
411.046	383.96
411.419	368.64
411.792	442.69
412.165	399.28
412.537	412.05
412.91	355.88
413.283	373.75
413.655	401.84
414.028	383.96
414.4	381.41
414.773	373.75
415.145	417.16
415.517	386.52
415.889	360.98
416.262	401.84
416.634	452.91
417.006	404.39
417.378	373.75
417.75	376.3
418.122	427.37
418.494	386.52
418.866	401.84
419.238	386.52
419.609	378.86
419.981	419.71
420.353	404.39
420.725	412.05
421.096	404.39
421.468	373.75
421.839	429.93
422.211	391.62
422.582	396.73
422.953	325.24
423.325	340.56
423.696	414.6
424.067	406.94
424.438	394.18
424.809	343.11
425.18	345.66
425.551	355.88
425.922	404.39
426.293	371.2
426.664	309.92
427.035	373.75
427.406	419.71
427.776	406.94
428.147	412.05
428.518	391.62
428.888	432.48
429.259	424.82
429.629	358.43
429.999	401.84
430.37	396.73
430.74	330.34
431.11	386.52
431.481	409.5
431.851	422.26
432.221	440.14
432.591	345.66
432.961	378.86
433.331	450.35
433.701	391.62
434.071	409.5
434.441	383.96
434.81	394.18
435.18	409.5
435.55	340.56
435.919	363.54
436.289	376.3
436.658	371.2
437.028	404.39
437.397	335.45
437.767	330.34
438.136	378.86
438.505	371.2
438.875	401.84
439.244	424.82
439.613	478.44
439.982	419.71
440.351	376.3
440.72	458.01
441.089	412.05
441.458	409.5
441.827	455.46
442.196	399.28
442.564	496.31
442.933	406.94
443.302	399.28
443.67	396.73
444.039	378.86
444.407	396.73
444.776	399.28
445.144	399.28
445.513	358.43
445.881	440.14
446.249	414.6
446.617	322.68
446.986	429.93
447.354	353.32
447.722	475.89
448.09	452.91
448.458	391.62
448.826	419.71
449.194	381.41
449.561	325.24
449.929	350.77
450.297	360.98
450.665	404.39
451.032	391.62
451.4	368.64
451.767	360.98
452.135	406.94
452.502	366.09
452.87	437.59
453.237	358.43
453.604	366.09
453.971	368.64
454.339	424.82
454.706	424.82
455.073	389.07
455.44	429.93
455.807	399.28
456.174	391.62
456.541	417.16
456.908	312.47
457.274	389.07
457.641	373.75
458.008	401.84
458.374	378.86
458.741	401.84
459.108	429.93
459.474	391.62
459.841	376.3
460.207	435.03
460.573	376.3
460.94	383.96
461.306	427.37
461.672	409.5
462.038	447.8
462.404	394.18
462.771	442.69
463.137	419.71
463.503	435.03
463.868	445.25
464.234	381.41
464.6	366.09
464.966	445.25
465.332	422.26
465.697	432.48
466.063	376.3
466.429	440.14
466.794	396.73
467.16	493.76
467.525	350.77
467.89	424.82
468.256	465.67
468.621	455.46
468.986	442.69
469.351	391.62
469.717	386.52
470.082	381.41
470.447	381.41
470.812	391.62
471.177	366.09
471.542	399.28
471.906	437.59
472.271	442.69
472.636	391.62
473.001	440.14
473.365	409.5
473.73	373.75
474.094	432.48
474.459	360.98
474.823	383.96
475.188	302.26
475.552	360.98
475.917	371.2
476.281	427.37
476.645	376.3
477.009	417.16
477.373	376.3
477.737	401.84
478.101	378.86
478.465	409.5
478.829	363.54
479.193	455.46
479.557	391.62
479.921	394.18
480.284	424.82
480.648	371.2
481.012	478.44
481.375	463.12
481.739	406.94
482.102	381.41
482.466	391.62
482.829	501.42
483.193	427.37
483.556	419.71
483.919	396.73
484.282	360.98
484.645	424.82
485.009	414.6
485.372	348.22
485.735	353.32
486.098	366.09
486.46	386.52
486.823	386.52
487.186	394.18
487.549	463.12
487.912	409.5
488.274	440.14
488.637	358.43
488.999	463.12
489.362	406.94
489.724	404.39
490.087	394.18
490.449	399.28
490.811	406.94
491.174	424.82
491.536	371.2
491.898	386.52
492.26	383.96
492.622	414.6
492.984	412.05
493.346	391.62
493.708	378.86
494.07	432.48
494.432	417.16
494.794	442.69
495.155	524.4
495.517	445.25
495.879	406.94
496.24	445.25
496.602	381.41
496.963	340.56
497.325	355.88
497.686	414.6
498.048	437.59
498.409	427.37
498.77	412.05
499.131	450.35
499.492	381.41
499.854	470.78
500.215	368.64
500.576	396.73
500.937	424.82
501.298	386.52
501.658	373.75
502.019	389.07
502.38	353.32
502.741	381.41
503.101	419.71
503.462	503.97
503.823	465.67
504.183	406.94
504.543	335.45
504.904	394.18
505.264	401.84
505.625	396.73
505.985	373.75
506.345	399.28
506.705	386.52
507.065	386.52
507.426	394.18
507.786	371.2
508.146	389.07
508.505	394.18
508.865	383.96
509.225	396.73
509.585	463.12
509.945	394.18
510.304	391.62
510.664	458.01
511.024	450.35
511.383	396.73
511.743	406.94
512.102	345.66
512.462	383.96
512.821	389.07
513.18	394.18
513.539	470.78
513.899	440.14
514.258	340.56
514.617	429.93
514.976	432.48
515.335	383.96
515.694	332.9
516.053	386.52
516.412	378.86
516.771	376.3
517.129	437.59
517.488	427.37
517.847	389.07
518.205	394.18
518.564	373.75
518.922	404.39
519.281	363.54
519.639	429.93
519.998	437.59
520.356	442.69
520.714	437.59
521.073	432.48
521.431	394.18
521.789	419.71
522.147	447.8
522.505	378.86
522.863	391.62
523.221	458.01
523.579	475.89
523.937	404.39
524.295	465.67
524.652	340.56
525.01	450.35
525.368	406.94
525.725	447.8
526.083	483.55
526.44	401.84
526.798	332.9
527.155	460.57
527.513	383.96
527.87	432.48
528.227	345.66
528.584	406.94
528.942	414.6
529.299	376.3
529.656	437.59
530.013	383.96
530.37	332.9
530.727	442.69
531.083	460.57
531.44	455.46
531.797	406.94
532.154	381.41
532.511	396.73
532.867	332.9
533.224	412.05
533.58	414.6
533.937	442.69
534.293	353.32
534.65	401.84
535.006	391.62
535.362	396.73
535.718	406.94
536.075	458.01
536.431	381.41
536.787	355.88
537.143	429.93
537.499	419.71
537.855	450.35
538.211	371.2
538.567	414.6
538.923	363.54
539.278	470.78
539.634	404.39
539.99	412.05
540.345	412.05
540.701	401.84
541.056	480.99
541.412	463.12
541.767	386.52
542.123	427.37
542.478	396.73
542.833	368.64
543.188	412.05
543.544	394.18
543.899	435.03
544.254	404.39
544.609	389.07
544.964	406.94
545.319	401.84
545.674	406.94
546.029	432.48
546.383	363.54
546.738	343.11
547.093	412.05
547.447	378.86
547.802	366.09
548.157	391.62
548.511	468.23
548.866	412.05
549.22	409.5
549.574	363.54
549.929	417.16
550.283	445.25
550.637	376.3
550.991	424.82
551.345	442.69
551.699	394.18
552.053	396.73
552.407	414.6
552.761	422.26
553.115	427.37
553.469	447.8
553.823	404.39
554.176	396.73
554.53	350.77
554.884	368.64
555.237	598.45
555.591	422.26
555.944	358.43
556.298	417.16
556.651	475.89
557.005	432.48
557.358	371.2
557.711	394.18
558.064	435.03
558.417	432.48
558.771	483.55
559.124	396.73
559.477	412.05
559.83	432.48
560.182	427.37
560.535	519.29
560.888	429.93
561.241	452.91
561.594	458.01
561.946	429.93
562.299	445.25
562.651	373.75
563.004	360.98
563.356	440.14
563.709	399.28
564.061	442.69
564.413	386.52
564.766	473.33
565.118	424.82
565.47	378.86
565.822	386.52
566.174	378.86
566.526	396.73
566.878	371.2
567.23	368.64
567.582	368.64
567.934	378.86
568.286	414.6
568.638	412.05
568.989	445.25
569.341	368.64
569.693	501.42
570.044	458.01
570.396	432.48
570.747	391.62
571.098	353.32
571.45	383.96
571.801	450.35
572.152	376.3
572.504	381.41
572.855	406.94
573.206	396.73
573.557	373.75
573.908	343.11
574.259	366.09
574.61	353.32
574.961	327.79
575.311	447.8
575.662	350.77
576.013	455.46
576.364	360.98
576.714	394.18
577.065	445.25
577.415	422.26
577.766	371.2
578.116	391.62
578.467	422.26
578.817	442.69
579.167	417.16
579.518	371.2
579.868	350.77
580.218	417.16
580.568	417.16
580.918	419.71
581.268	447.8
581.618	442.69
581.968	389.07
582.318	429.93
582.668	353.32
583.017	348.22
583.367	478.44
583.717	445.25
584.066	414.6
584.416	437.59
584.765	358.43
585.115	348.22
585.464	345.66
585.814	447.8
586.163	358.43
586.512	378.86
586.862	353.32
587.211	450.35
587.56	440.14
587.909	409.5
588.258	383.96
588.607	422.26
588.956	389.07
589.305	414.6
589.654	358.43
590.002	376.3
590.351	406.94
590.7	378.86
591.048	478.44
591.397	399.28
591.746	363.54
592.094	419.71
592.443	383.96
592.791	383.96
593.139	409.5
593.488	366.09
593.836	368.64
594.184	345.66
594.532	391.62
594.88	491.21
595.228	368.64
595.576	353.32
595.924	363.54
596.272	463.12
596.62	368.64
596.968	358.43
597.316	401.84
597.664	386.52
598.011	371.2
598.359	440.14
598.706	409.5
599.054	376.3
599.402	435.03
599.749	468.23
600.096	424.82
600.444	429.93
600.791	358.43
601.138	381.41
601.485	332.9
601.833	376.3
602.18	435.03
602.527	409.5
602.874	386.52
603.221	376.3
603.568	373.75
603.914	412.05
604.261	445.25
604.608	424.82
604.955	470.78
605.301	355.88
605.648	391.62
605.995	452.91
606.341	478.44
606.688	414.6
607.034	332.9
607.38	427.37
607.727	422.26
608.073	414.6
608.419	386.52
608.765	406.94
609.112	424.82
609.458	396.73
609.804	355.88
610.15	465.67
610.496	440.14
610.842	340.56
611.187	435.03
611.533	486.1
611.879	442.69
612.225	440.14
612.57	422.26
612.916	412.05
613.261	396.73
613.607	422.26
613.952	419.71
614.298	447.8
614.643	396.73
614.989	389.07
615.334	366.09
615.679	358.43
616.024	429.93
616.369	383.96
616.714	460.57
617.059	378.86
617.404	419.71
617.749	419.71
618.094	376.3
618.439	414.6
618.784	399.28
619.129	435.03
619.473	389.07
619.818	394.18
620.163	345.66
620.507	409.5
620.852	366.09
621.196	480.99
621.54	422.26
621.885	338
622.229	383.96
622.573	419.71
622.918	368.64
623.262	427.37
623.606	511.63
623.95	350.77
624.294	368.64
624.638	368.64
624.982	373.75
625.326	378.86
625.67	447.8
626.013	383.96
626.357	399.28
626.701	422.26
627.044	383.96
627.388	414.6
627.731	412.05
628.075	389.07
628.418	452.91
628.762	386.52
629.105	412.05
629.448	386.52
629.792	414.6
630.135	371.2
630.478	317.58
630.821	360.98
631.164	399.28
631.507	442.69
631.85	478.44
632.193	440.14
632.536	447.8
632.879	399.28
633.221	386.52
633.564	450.35
633.907	460.57
634.249	414.6
634.592	409.5
634.935	435.03
635.277	419.71
635.619	414.6
635.962	345.66
636.304	435.03
636.646	360.98
636.989	465.67
637.331	350.77
637.673	368.64
638.015	406.94
638.357	396.73
638.699	432.48
639.041	391.62
639.383	394.18
639.725	419.71
640.067	414.6
640.408	386.52
640.75	396.73
641.092	478.44
641.433	470.78
641.775	381.41
642.116	399.28
642.458	383.96
642.799	424.82
643.141	424.82
643.482	442.69
643.823	353.32
644.164	386.52
644.506	442.69
644.847	468.23
645.188	422.26
645.529	401.84
645.87	394.18
646.211	401.84
646.552	445.25
646.893	360.98
647.233	360.98
647.574	396.73
647.915	350.77
648.255	396.73
648.596	401.84
648.937	437.59
649.277	363.54
649.618	335.45
649.958	445.25
650.298	447.8
650.639	394.18
650.979	355.88
651.319	368.64
651.659	401.84
651.999	378.86
652.339	381.41
652.679	414.6
653.019	429.93
653.359	452.91
653.699	470.78
654.039	376.3
654.379	366.09
654.719	480.99
655.058	412.05
655.398	368.64
655.737	486.1
656.077	414.6
656.416	445.25
656.756	381.41
657.095	404.39
657.435	381.41
657.774	412.05
658.113	391.62
658.452	391.62
658.792	355.88
659.131	447.8
659.47	355.88
659.809	371.2
660.148	468.23
660.487	368.64
660.826	389.07
661.164	435.03
661.503	417.16
661.842	414.6
662.181	368.64
662.519	404.39
662.858	447.8
663.196	404.39
663.535	417.16
663.873	414.6
664.212	355.88
664.55	378.86
664.888	376.3
665.226	399.28
665.565	417.16
665.903	613.77
666.241	424.82
666.579	404.39
666.917	363.54
667.255	373.75
667.593	358.43
667.931	458.01
668.268	422.26
668.606	360.98
668.944	366.09
669.282	383.96
669.619	445.25
669.957	401.84
670.294	412.05
670.632	394.18
670.969	350.77
671.307	422.26
671.644	371.2
671.981	417.16
672.318	422.26
672.656	396.73
672.993	366.09
673.33	406.94
673.667	404.39
674.004	371.2
674.341	373.75
674.678	368.64
675.015	383.96
675.351	432.48
675.688	335.45
676.025	412.05
676.362	419.71
676.698	366.09
677.035	366.09
677.371	373.75
677.708	366.09
678.044	409.5
678.38	409.5
678.717	419.71
679.053	427.37
679.389	445.25
679.725	399.28
680.062	455.46
680.398	378.86
680.734	394.18
681.07	330.34
681.406	404.39
681.742	371.2
682.077	394.18
682.413	345.66
682.749	417.16
683.085	478.44
683.42	427.37
683.756	412.05
684.091	317.58
684.427	435.03
684.762	363.54
685.098	368.64
685.433	366.09
685.768	353.32
686.104	335.45
686.439	406.94
686.774	486.1
687.109	358.43
687.444	401.84
687.779	394.18
688.114	363.54
688.449	315.02
688.784	363.54
689.119	376.3
689.454	335.45
689.789	432.48
690.123	404.39
690.458	412.05
690.792	440.14
691.127	455.46
691.461	386.52
691.796	371.2
692.13	345.66
692.465	338
692.799	381.41
693.133	327.79
693.467	315.02
693.802	358.43
694.136	450.35
694.47	458.01
694.804	373.75
695.138	409.5
695.472	404.39
695.806	404.39
696.139	399.28
696.473	422.26
696.807	429.93
697.141	345.66
697.474	340.56
697.808	394.18
698.141	320.13
698.475	419.71
698.808	435.03
699.142	401.84
699.475	360.98
699.808	376.3
700.142	378.86
700.475	396.73
700.808	437.59
701.141	371.2
701.474	409.5
701.807	389.07
702.14	322.68
702.473	389.07
702.806	391.62
703.139	378.86
703.472	419.71
703.804	406.94
704.137	363.54
704.47	386.52
704.802	419.71
705.135	414.6
705.467	435.03
705.8	371.2
706.132	317.58
706.464	368.64
706.797	371.2
707.129	391.62
707.461	391.62
707.793	414.6
708.125	378.86
708.457	381.41
708.789	437.59
709.121	437.59
709.453	335.45
709.785	450.35
710.117	401.84
710.449	394.18
710.781	419.71
711.112	383.96
711.444	383.96
711.775	396.73
712.107	386.52
712.438	378.86
712.77	381.41
713.101	412.05
713.433	414.6
713.764	343.11
714.095	389.07
714.426	432.48
714.757	432.48
715.089	458.01
715.42	412.05
715.751	419.71
716.082	371.2
716.412	406.94
716.743	383.96
717.074	376.3
717.405	414.6
717.736	401.84
718.066	429.93
718.397	458.01
718.727	368.64
719.058	427.37
719.388	360.98
719.719	414.6
720.049	424.82
720.38	373.75
720.71	455.46
721.04	427.37
721.37	371.2
721.7	376.3
722.031	406.94
722.361	386.52
722.691	399.28
723.021	412.05
723.35	435.03
723.68	383.96
724.01	383.96
724.34	404.39
724.67	340.56
724.999	396.73
725.329	406.94
725.658	412.05
725.988	401.84
726.317	366.09
726.647	455.46
726.976	404.39
727.306	412.05
727.635	396.73
727.964	368.64
728.293	299.7
728.622	366.09
728.952	422.26
729.281	399.28
729.61	475.89
729.939	386.52
730.267	332.9
730.596	442.69
730.925	383.96
731.254	406.94
731.583	348.22
731.911	447.8
732.24	432.48
732.568	391.62
732.897	338
733.225	394.18
733.554	429.93
733.882	447.8
734.21	468.23
734.539	445.25
734.867	401.84
735.195	424.82
735.523	409.5
735.851	378.86
736.179	330.34
736.507	360.98
736.835	432.48
737.163	404.39
737.491	414.6
737.819	417.16
738.147	381.41
738.474	483.55
738.802	432.48
739.13	401.84
739.457	383.96
739.785	412.05
740.112	396.73
740.44	427.37
740.767	391.62
741.094	427.37
741.422	391.62
741.749	414.6
742.076	353.32
742.403	320.13
742.73	404.39
743.057	360.98
743.384	386.52
743.711	309.92
744.038	442.69
744.365	417.16
744.692	417.16
745.018	424.82
745.345	417.16
745.672	396.73
745.998	424.82
746.325	419.71
746.651	406.94
746.978	378.86
747.304	383.96
747.631	350.77
747.957	358.43
748.283	419.71
748.61	373.75
748.936	427.37
749.262	360.98
749.588	399.28
749.914	348.22
750.24	406.94
750.566	404.39
750.892	437.59
751.218	409.5
751.543	409.5
751.869	404.39
752.195	458.01
752.521	338
752.846	378.86
753.172	338
753.497	386.52
753.823	419.71
754.148	373.75
754.473	445.25
754.799	373.75
755.124	419.71
755.449	424.82
755.774	366.09
756.1	427.37
756.425	371.2
756.75	414.6
757.075	406.94
757.4	557.59
757.724	455.46
758.049	366.09
758.374	355.88
758.699	363.54
759.024	360.98
759.348	366.09
759.673	378.86
759.997	404.39
760.322	437.59
760.646	406.94
760.971	348.22
761.295	373.75
761.619	442.69
761.944	455.46
762.268	455.46
762.592	429.93
762.916	412.05
763.24	488.65
763.564	417.16
763.888	360.98
764.212	419.71
764.536	437.59
764.86	429.93
765.184	378.86
765.508	320.13
765.831	389.07
766.155	649.52
766.478	419.71
766.802	424.82
767.126	417.16
767.449	440.14
767.772	386.52
768.096	363.54
768.419	371.2
768.742	383.96
769.066	363.54
769.389	409.5
769.712	412.05
770.035	376.3
770.358	412.05
770.681	386.52
771.004	317.58
771.327	427.37
771.65	429.93
771.972	401.84
772.295	419.71
772.618	455.46
772.941	409.5
773.263	424.82
773.586	350.77
773.908	424.82
774.231	422.26
774.553	327.79
774.875	442.69
775.198	422.26
775.52	412.05
775.842	401.84
776.164	307.36
776.487	309.92
776.809	335.45
777.131	401.84
777.453	360.98
777.775	343.11
778.096	376.3
778.418	332.9
778.74	376.3
779.062	381.41
779.384	386.52
779.705	394.18
780.027	412.05
780.348	363.54
780.67	406.94
780.991	363.54
781.313	345.66
781.634	401.84
781.955	427.37
782.277	450.35
782.598	371.2
782.919	378.86
783.24	401.84
783.561	419.71
783.882	455.46
784.203	442.69
784.524	327.79
784.845	432.48
785.166	414.6
785.487	396.73
785.807	350.77
786.128	383.96
786.449	422.26
786.769	381.41
787.09	317.58
787.41	381.41
787.731	412.05
788.051	396.73
788.372	391.62
788.692	435.03
789.012	350.77
789.332	386.52
789.653	491.21
789.973	417.16
790.293	401.84
790.613	412.05
790.933	353.32
791.253	368.64
791.573	389.07
791.893	396.73
792.212	406.94
792.532	437.59
792.852	440.14
793.171	440.14
793.491	373.75
793.811	378.86
794.13	383.96
794.45	389.07
794.769	378.86
795.088	458.01
795.408	368.64
795.727	417.16
796.046	394.18
796.365	302.26
796.684	322.68
797.004	404.39
797.323	404.39
797.642	401.84
797.96	340.56
798.279	432.48
798.598	381.41
798.917	412.05
799.236	345.66
799.554	345.66
799.873	335.45
800.192	345.66
800.51	381.41
800.829	378.86
801.147	373.75
801.466	332.9
801.784	429.93
802.102	463.12
802.421	378.86
802.739	417.16
803.057	473.33
