Data from 2025-12-03_xpw_interference_micrometer_634_dark_FLMS141361__82__232.txt Node

Date: Wed Dec 03 15:50:07 MST 2025
User: james
Spectrometer: FLMS14136
Trigger mode: 0
Integration Time (sec): 1.000000E-1
Scans to average: 1
Electric dark correction enabled: true
Nonlinearity correction enabled: false
Boxcar width: 0
XAxis mode: Wavelengths
Number of Pixels in Spectrum: 2048
>>>>>Begin Spectral Data<<<<<
339.315	-33.19
339.697	-33.19
340.079	-33.19
340.461	-68.94
340.843	-17.87
341.225	-79.15
341.607	-20.43
341.989	-74.05
342.371	-61.28
342.752	-117.46
343.134	-45.96
343.516	-79.15
343.897	-48.51
344.279	-17.87
344.661	-10.21
345.042	76.6
345.423	10.21
345.805	10.21
346.186	71.49
346.567	165.97
346.949	219.59
347.33	232.36
347.711	217.04
348.092	222.14
348.473	188.95
348.854	214.48
349.235	247.68
349.616	255.34
349.997	303.85
350.378	367.69
350.758	314.07
351.139	367.69
351.52	303.85
351.9	354.92
352.281	339.6
352.661	349.81
353.042	405.99
353.422	441.73
353.803	344.71
354.183	403.43
354.563	418.75
354.943	416.2
355.324	357.47
355.704	370.24
356.084	372.79
356.464	344.71
356.844	436.63
357.224	477.48
357.603	357.47
357.983	388.11
358.363	400.88
358.743	426.41
359.122	390.67
359.502	390.67
359.882	411.09
360.261	342.15
360.641	416.2
361.02	398.33
361.399	413.65
361.779	423.86
362.158	326.83
362.537	375.35
362.916	354.92
363.296	383.01
363.675	316.62
364.054	314.07
364.433	385.56
364.812	319.17
365.19	337.05
365.569	303.85
365.948	400.88
366.327	298.75
366.705	337.05
367.084	390.67
367.463	365.13
367.841	413.65
368.22	428.97
368.598	431.52
368.977	347.26
369.355	334.49
369.733	434.07
370.111	365.13
370.49	352.37
370.868	375.35
371.246	385.56
371.624	357.47
372.002	319.17
372.38	270.66
372.758	334.49
373.136	324.28
373.513	339.6
373.891	403.43
374.269	393.22
374.646	395.77
375.024	400.88
375.402	413.65
375.779	357.47
376.157	326.83
376.534	354.92
376.911	398.33
377.289	337.05
377.666	329.39
378.043	390.67
378.42	421.31
378.797	344.71
379.175	375.35
379.552	403.43
379.929	326.83
380.305	326.83
380.682	375.35
381.059	339.6
381.436	388.11
381.813	360.03
382.189	354.92
382.566	375.35
382.943	357.47
383.319	380.45
383.696	321.73
384.072	349.81
384.448	334.49
384.825	365.13
385.201	393.22
385.577	321.73
385.953	306.41
386.329	354.92
386.706	354.92
387.082	326.83
387.458	347.26
387.834	339.6
388.209	360.03
388.585	319.17
388.961	395.77
389.337	395.77
389.713	372.79
390.088	326.83
390.464	347.26
390.839	411.09
391.215	416.2
391.59	398.33
391.966	385.56
392.341	334.49
392.716	357.47
393.092	385.56
393.467	329.39
393.842	365.13
394.217	349.81
394.592	385.56
394.967	426.41
395.342	383.01
395.717	339.6
396.092	347.26
396.467	375.35
396.841	365.13
397.216	418.75
397.591	347.26
397.965	370.24
398.34	411.09
398.714	390.67
399.089	462.16
399.463	380.45
399.838	413.65
400.212	367.69
400.586	372.79
400.961	383.01
401.335	413.65
401.709	418.75
402.083	431.52
402.457	377.9
402.831	377.9
403.205	403.43
403.579	431.52
403.953	357.47
404.326	349.81
404.7	385.56
405.074	398.33
405.447	413.65
405.821	380.45
406.195	357.47
406.568	395.77
406.942	385.56
407.315	444.29
407.688	393.22
408.062	411.09
408.435	395.77
408.808	339.6
409.181	464.71
409.554	408.54
409.927	377.9
410.3	349.81
410.673	357.47
411.046	464.71
411.419	349.81
411.792	405.99
412.165	301.3
412.537	380.45
412.91	480.04
413.283	331.94
413.655	390.67
414.028	428.97
414.4	393.22
414.773	395.77
415.145	439.18
415.517	367.69
415.889	344.71
416.262	357.47
416.634	375.35
417.006	329.39
417.378	380.45
417.75	349.81
418.122	375.35
418.494	400.88
418.866	403.43
419.238	418.75
419.609	393.22
419.981	390.67
420.353	383.01
420.725	403.43
421.096	360.03
421.468	393.22
421.839	505.57
422.211	362.58
422.582	485.14
422.953	459.61
423.325	383.01
423.696	449.39
424.067	444.29
424.438	413.65
424.809	400.88
425.18	377.9
425.551	344.71
425.922	347.26
426.293	408.54
426.664	413.65
427.035	441.73
427.406	370.24
427.776	400.88
428.147	400.88
428.518	418.75
428.888	413.65
429.259	454.5
429.629	454.5
429.999	413.65
430.37	451.95
430.74	413.65
431.11	418.75
431.481	321.73
431.851	347.26
432.221	428.97
432.591	362.58
432.961	375.35
433.331	377.9
433.701	405.99
434.071	375.35
434.441	403.43
434.81	426.41
435.18	405.99
435.55	446.84
435.919	441.73
436.289	383.01
436.658	365.13
437.028	390.67
437.397	431.52
437.767	398.33
438.136	383.01
438.505	370.24
438.875	331.94
439.244	480.04
439.613	370.24
439.982	377.9
440.351	383.01
440.72	454.5
441.089	400.88
441.458	383.01
441.827	426.41
442.196	403.43
442.564	480.04
442.933	495.36
443.302	423.86
443.67	344.71
444.039	377.9
444.407	375.35
444.776	434.07
445.144	413.65
445.513	462.16
445.881	472.37
446.249	329.39
446.617	393.22
446.986	428.97
447.354	377.9
447.722	403.43
448.09	449.39
448.458	377.9
448.826	431.52
449.194	395.77
449.561	383.01
449.929	354.92
450.297	451.95
450.665	398.33
451.032	457.05
451.4	393.22
451.767	390.67
452.135	388.11
452.502	375.35
452.87	467.27
453.237	377.9
453.604	510.68
453.971	390.67
454.339	431.52
454.706	451.95
455.073	457.05
455.44	405.99
455.807	383.01
456.174	444.29
456.541	444.29
456.908	451.95
457.274	462.16
457.641	449.39
458.008	388.11
458.374	428.97
458.741	418.75
459.108	393.22
459.474	380.45
459.841	416.2
460.207	400.88
460.573	365.13
460.94	408.54
461.306	413.65
461.672	400.88
462.038	469.82
462.404	416.2
462.771	365.13
463.137	357.47
463.503	398.33
463.868	411.09
464.234	344.71
464.6	426.41
464.966	431.52
465.332	431.52
465.697	449.39
466.063	457.05
466.429	426.41
466.794	423.86
467.16	428.97
467.525	436.63
467.89	421.31
468.256	400.88
468.621	418.75
468.986	431.52
469.351	431.52
469.717	490.25
470.082	423.86
470.447	385.56
470.812	398.33
471.177	434.07
471.542	380.45
471.906	398.33
472.271	431.52
472.636	390.67
473.001	372.79
473.365	439.18
473.73	400.88
474.094	449.39
474.459	388.11
474.823	439.18
475.188	400.88
475.552	413.65
475.917	400.88
476.281	436.63
476.645	411.09
477.009	444.29
477.373	434.07
477.737	393.22
478.101	411.09
478.465	439.18
478.829	434.07
479.193	434.07
479.557	480.04
479.921	454.5
480.284	370.24
480.648	413.65
481.012	337.05
481.375	416.2
481.739	413.65
482.102	439.18
482.466	372.79
482.829	457.05
483.193	375.35
483.556	428.97
483.919	467.27
484.282	388.11
484.645	349.81
485.009	431.52
485.372	375.35
485.735	380.45
486.098	400.88
486.46	388.11
486.823	393.22
487.186	390.67
487.549	413.65
487.912	383.01
488.274	390.67
488.637	439.18
488.999	398.33
489.362	398.33
489.724	403.43
490.087	342.15
490.449	405.99
490.811	487.7
491.174	441.73
491.536	439.18
491.898	413.65
492.26	411.09
492.622	416.2
492.984	408.54
493.346	339.6
493.708	454.5
494.07	444.29
494.432	431.52
494.794	431.52
495.155	444.29
495.517	428.97
495.879	383.01
496.24	423.86
496.602	449.39
496.963	408.54
497.325	334.49
497.686	418.75
498.048	347.26
498.409	349.81
498.77	467.27
499.131	370.24
499.492	431.52
499.854	385.56
500.215	403.43
500.576	370.24
500.937	480.04
501.298	413.65
501.658	457.05
502.019	377.9
502.38	403.43
502.741	390.67
503.101	413.65
503.462	405.99
503.823	421.31
504.183	434.07
504.543	393.22
504.904	439.18
505.264	405.99
505.625	444.29
505.985	372.79
506.345	388.11
506.705	370.24
507.065	365.13
507.426	413.65
507.786	321.73
508.146	360.03
508.505	362.58
508.865	400.88
509.225	383.01
509.585	459.61
509.945	413.65
510.304	495.36
510.664	408.54
511.024	388.11
511.383	446.84
511.743	434.07
512.102	362.58
512.462	426.41
512.821	365.13
513.18	395.77
513.539	444.29
513.899	480.04
514.258	380.45
514.617	390.67
514.976	416.2
515.335	398.33
515.694	431.52
516.053	408.54
516.412	434.07
516.771	380.45
517.129	400.88
517.488	377.9
517.847	441.73
518.205	434.07
518.564	423.86
518.922	418.75
519.281	487.7
519.639	408.54
519.998	377.9
520.356	464.71
520.714	405.99
521.073	395.77
521.431	446.84
521.789	360.03
522.147	357.47
522.505	472.37
522.863	421.31
523.221	416.2
523.579	362.58
523.937	370.24
524.295	459.61
524.652	413.65
525.01	375.35
525.368	510.68
525.725	434.07
526.083	400.88
526.44	377.9
526.798	405.99
527.155	416.2
527.513	449.39
527.87	403.43
528.227	436.63
528.584	451.95
528.942	390.67
529.299	375.35
529.656	367.69
530.013	441.73
530.37	490.25
530.727	464.71
531.083	451.95
531.44	431.52
531.797	434.07
532.154	421.31
532.511	413.65
532.867	388.11
533.224	444.29
533.58	434.07
533.937	388.11
534.293	423.86
534.65	446.84
535.006	449.39
535.362	423.86
535.718	385.56
536.075	434.07
536.431	416.2
536.787	431.52
537.143	403.43
537.499	416.2
537.855	495.36
538.211	390.67
538.567	367.69
538.923	434.07
539.278	416.2
539.634	403.43
539.99	413.65
540.345	349.81
540.701	449.39
541.056	472.37
541.412	474.93
541.767	362.58
542.123	413.65
542.478	405.99
542.833	362.58
543.188	383.01
543.544	372.79
543.899	500.46
544.254	426.41
544.609	357.47
544.964	454.5
545.319	372.79
545.674	431.52
546.029	390.67
546.383	339.6
546.738	393.22
547.093	418.75
547.447	490.25
547.802	444.29
548.157	347.26
548.511	398.33
548.866	390.67
549.22	441.73
549.574	418.75
549.929	400.88
550.283	405.99
550.637	423.86
550.991	393.22
551.345	467.27
551.699	377.9
552.053	436.63
552.407	439.18
552.761	449.39
553.115	416.2
553.469	436.63
553.823	421.31
554.176	380.45
554.53	411.09
554.884	416.2
555.237	630.68
555.591	434.07
555.944	444.29
556.298	403.43
556.651	431.52
557.005	385.56
557.358	413.65
557.711	413.65
558.064	439.18
558.417	459.61
558.771	462.16
559.124	383.01
559.477	449.39
559.83	395.77
560.182	411.09
560.535	464.71
560.888	383.01
561.241	329.39
561.594	365.13
561.946	377.9
562.299	439.18
562.651	428.97
563.004	367.69
563.356	431.52
563.709	497.91
564.061	467.27
564.413	462.16
564.766	416.2
565.118	464.71
565.47	390.67
565.822	370.24
566.174	398.33
566.526	370.24
566.878	449.39
567.23	413.65
567.582	459.61
567.934	451.95
568.286	449.39
568.638	457.05
568.989	464.71
569.341	405.99
569.693	337.05
570.044	436.63
570.396	421.31
570.747	383.01
571.098	395.77
571.45	421.31
571.801	349.81
572.152	495.36
572.504	464.71
572.855	426.41
573.206	372.79
573.557	347.26
573.908	347.26
574.259	393.22
574.61	436.63
574.961	449.39
575.311	426.41
575.662	457.05
576.013	418.75
576.364	472.37
576.714	390.67
577.065	390.67
577.415	462.16
577.766	354.92
578.116	337.05
578.467	337.05
578.817	372.79
579.167	464.71
579.518	462.16
579.868	395.77
580.218	421.31
580.568	398.33
580.918	434.07
581.268	428.97
581.618	370.24
581.968	352.37
582.318	431.52
582.668	413.65
583.017	426.41
583.367	444.29
583.717	423.86
584.066	347.26
584.416	377.9
584.765	344.71
585.115	444.29
585.464	418.75
585.814	375.35
586.163	395.77
586.512	375.35
586.862	439.18
587.211	426.41
587.56	416.2
587.909	431.52
588.258	426.41
588.607	436.63
588.956	405.99
589.305	365.13
589.654	331.94
590.002	365.13
590.351	431.52
590.7	344.71
591.048	360.03
591.397	383.01
591.746	411.09
592.094	388.11
592.443	446.84
592.791	408.54
593.139	383.01
593.488	393.22
593.836	436.63
594.184	441.73
594.532	400.88
594.88	474.93
595.228	372.79
595.576	405.99
595.924	383.01
596.272	423.86
596.62	428.97
596.968	372.79
597.316	365.13
597.664	413.65
598.011	377.9
598.359	385.56
598.706	367.69
599.054	441.73
599.402	408.54
599.749	395.77
600.096	395.77
600.444	405.99
600.791	459.61
601.138	416.2
601.485	411.09
601.833	451.95
602.18	451.95
602.527	395.77
602.874	482.59
603.221	459.61
603.568	403.43
603.914	393.22
604.261	431.52
604.608	454.5
604.955	385.56
605.301	439.18
605.648	377.9
605.995	413.65
606.341	408.54
606.688	416.2
607.034	421.31
607.38	390.67
607.727	459.61
608.073	380.45
608.419	339.6
608.765	423.86
609.112	398.33
609.458	365.13
609.804	357.47
610.15	388.11
610.496	352.37
610.842	416.2
611.187	365.13
611.533	411.09
611.879	467.27
612.225	393.22
612.57	375.35
612.916	395.77
613.261	439.18
613.607	375.35
613.952	372.79
614.298	411.09
614.643	380.45
614.989	405.99
615.334	441.73
615.679	413.65
616.024	434.07
616.369	439.18
616.714	365.13
617.059	367.69
617.404	357.47
617.749	444.29
618.094	334.49
618.439	441.73
618.784	421.31
619.129	411.09
619.473	352.37
619.818	416.2
620.163	428.97
620.507	362.58
620.852	408.54
621.196	393.22
621.54	416.2
621.885	385.56
622.229	388.11
622.573	405.99
622.918	393.22
623.262	400.88
623.606	375.35
623.95	446.84
624.294	375.35
624.638	367.69
624.982	393.22
625.326	446.84
625.67	421.31
626.013	354.92
626.357	360.03
626.701	398.33
627.044	472.37
627.388	449.39
627.731	457.05
628.075	413.65
628.418	421.31
628.762	377.9
629.105	385.56
629.448	411.09
629.792	408.54
630.135	393.22
630.478	426.41
630.821	405.99
631.164	434.07
631.507	354.92
631.85	439.18
632.193	472.37
632.536	344.71
632.879	434.07
633.221	426.41
633.564	416.2
633.907	459.61
634.249	375.35
634.592	398.33
634.935	467.27
635.277	411.09
635.619	441.73
635.962	385.56
636.304	360.03
636.646	385.56
636.989	444.29
637.331	403.43
637.673	395.77
638.015	347.26
638.357	421.31
638.699	393.22
639.041	474.93
639.383	360.03
639.725	390.67
640.067	372.79
640.408	367.69
640.75	367.69
641.092	403.43
641.433	388.11
641.775	434.07
642.116	349.81
642.458	400.88
642.799	377.9
643.141	416.2
643.482	372.79
643.823	342.15
644.164	398.33
644.506	477.48
644.847	441.73
645.188	474.93
645.529	418.75
645.87	380.45
646.211	457.05
646.552	347.26
646.893	393.22
647.233	441.73
647.574	393.22
647.915	385.56
648.255	385.56
648.596	383.01
648.937	413.65
649.277	347.26
649.618	400.88
649.958	467.27
650.298	449.39
650.639	388.11
650.979	441.73
651.319	388.11
651.659	472.37
651.999	416.2
652.339	390.67
652.679	428.97
653.019	411.09
653.359	423.86
653.699	487.7
654.039	474.93
654.379	370.24
654.719	377.9
655.058	449.39
655.398	354.92
655.737	500.46
656.077	444.29
656.416	426.41
656.756	451.95
657.095	411.09
657.435	405.99
657.774	383.01
658.113	375.35
658.452	347.26
658.792	403.43
659.131	365.13
659.47	480.04
659.809	375.35
660.148	426.41
660.487	398.33
660.826	400.88
661.164	390.67
661.503	349.81
661.842	349.81
662.181	503.02
662.519	480.04
662.858	418.75
663.196	372.79
663.535	398.33
663.873	403.43
664.212	375.35
664.55	411.09
664.888	423.86
665.226	349.81
665.565	398.33
665.903	594.94
666.241	423.86
666.579	393.22
666.917	403.43
667.255	416.2
667.593	383.01
667.931	403.43
668.268	449.39
668.606	418.75
668.944	375.35
669.282	423.86
669.619	434.07
669.957	405.99
670.294	436.63
670.632	462.16
670.969	403.43
671.307	428.97
671.644	467.27
671.981	416.2
672.318	413.65
672.656	388.11
672.993	375.35
673.33	421.31
673.667	400.88
674.004	357.47
674.341	390.67
674.678	375.35
675.015	383.01
675.351	423.86
675.688	411.09
676.025	408.54
676.362	446.84
676.698	388.11
677.035	357.47
677.371	393.22
677.708	436.63
678.044	462.16
678.38	365.13
678.717	370.24
679.053	418.75
679.389	436.63
679.725	347.26
680.062	370.24
680.398	434.07
680.734	441.73
681.07	334.49
681.406	360.03
681.742	362.58
682.077	388.11
682.413	367.69
682.749	441.73
683.085	408.54
683.42	388.11
683.756	344.71
684.091	416.2
684.427	383.01
684.762	385.56
685.098	400.88
685.433	385.56
685.768	457.05
686.104	428.97
686.439	324.28
686.774	342.15
687.109	405.99
687.444	416.2
687.779	416.2
688.114	365.13
688.449	398.33
688.784	390.67
689.119	360.03
689.454	380.45
689.789	385.56
690.123	431.52
690.458	372.79
690.792	372.79
691.127	347.26
691.461	390.67
691.796	388.11
692.13	362.58
692.465	439.18
692.799	416.2
693.133	393.22
693.467	375.35
693.802	423.86
694.136	416.2
694.47	390.67
694.804	393.22
695.138	416.2
695.472	383.01
695.806	380.45
696.139	408.54
696.473	367.69
696.807	395.77
697.141	428.97
697.474	444.29
697.808	421.31
698.141	416.2
698.475	446.84
698.808	400.88
699.142	316.62
699.475	337.05
699.808	426.41
700.142	400.88
700.475	434.07
700.808	319.17
701.141	385.56
701.474	375.35
701.807	326.83
702.14	413.65
702.473	372.79
702.806	431.52
703.139	308.96
703.472	411.09
703.804	449.39
704.137	408.54
704.47	393.22
704.802	408.54
705.135	388.11
705.467	462.16
705.8	426.41
706.132	444.29
706.464	441.73
706.797	421.31
707.129	439.18
707.461	416.2
707.793	388.11
708.125	377.9
708.457	418.75
708.789	426.41
709.121	416.2
709.453	365.13
709.785	344.71
710.117	446.84
710.449	400.88
710.781	421.31
711.112	354.92
711.444	344.71
711.775	339.6
712.107	413.65
712.438	464.71
712.77	370.24
713.101	349.81
713.433	377.9
713.764	342.15
714.095	357.47
714.426	377.9
714.757	367.69
715.089	365.13
715.42	372.79
715.751	329.39
716.082	339.6
716.412	360.03
716.743	411.09
717.074	383.01
717.405	372.79
717.736	398.33
718.066	367.69
718.397	393.22
718.727	439.18
719.058	362.58
719.388	416.2
719.719	354.92
720.049	393.22
720.38	380.45
720.71	337.05
721.04	421.31
721.37	385.56
721.7	444.29
722.031	347.26
722.361	390.67
722.691	480.04
723.021	375.35
723.35	408.54
723.68	360.03
724.01	403.43
724.34	441.73
724.67	421.31
724.999	385.56
725.329	418.75
725.658	423.86
725.988	434.07
726.317	408.54
726.647	436.63
726.976	400.88
727.306	474.93
727.635	326.83
727.964	360.03
728.293	339.6
728.622	418.75
728.952	388.11
729.281	395.77
729.61	418.75
729.939	408.54
730.267	370.24
730.596	405.99
730.925	395.77
731.254	395.77
731.583	375.35
731.911	423.86
732.24	446.84
732.568	344.71
732.897	400.88
733.225	385.56
733.554	383.01
733.882	375.35
734.21	360.03
734.539	449.39
734.867	400.88
735.195	393.22
735.523	360.03
735.851	393.22
736.179	334.49
736.507	408.54
736.835	383.01
737.163	464.71
737.491	337.05
737.819	421.31
738.147	400.88
738.474	347.26
738.802	413.65
739.13	385.56
739.457	444.29
739.785	383.01
740.112	349.81
740.44	383.01
740.767	385.56
741.094	377.9
741.422	449.39
741.749	367.69
742.076	398.33
742.403	411.09
742.73	334.49
743.057	329.39
743.384	365.13
743.711	395.77
744.038	413.65
744.365	375.35
744.692	444.29
745.018	360.03
745.345	400.88
745.672	403.43
745.998	411.09
746.325	388.11
746.651	398.33
746.978	342.15
747.304	408.54
747.631	393.22
747.957	354.92
748.283	395.77
748.61	398.33
748.936	421.31
749.262	372.79
749.588	334.49
749.914	462.16
750.24	365.13
750.566	408.54
750.892	485.14
751.218	472.37
751.543	413.65
751.869	487.7
752.195	400.88
752.521	439.18
752.846	372.79
753.172	474.93
753.497	405.99
753.823	439.18
754.148	421.31
754.473	444.29
754.799	408.54
755.124	375.35
755.449	380.45
755.774	316.62
756.1	408.54
756.425	426.41
756.75	390.67
757.075	383.01
757.4	497.91
757.724	421.31
758.049	380.45
758.374	428.97
758.699	418.75
759.024	416.2
759.348	454.5
759.673	449.39
759.997	436.63
760.322	451.95
760.646	390.67
760.971	459.61
761.295	370.24
761.619	426.41
761.944	352.37
762.268	408.54
762.592	441.73
762.916	372.79
763.24	421.31
763.564	377.9
763.888	354.92
764.212	408.54
764.536	464.71
764.86	474.93
765.184	441.73
765.508	370.24
765.831	446.84
766.155	643.45
766.478	439.18
766.802	383.01
767.126	434.07
767.449	421.31
767.772	395.77
768.096	390.67
768.419	403.43
768.742	408.54
769.066	367.69
769.389	344.71
769.712	418.75
770.035	393.22
770.358	375.35
770.681	365.13
771.004	375.35
771.327	395.77
771.65	357.47
771.972	405.99
772.295	314.07
772.618	370.24
772.941	375.35
773.263	426.41
773.586	467.27
773.908	467.27
774.231	337.05
774.553	426.41
774.875	426.41
775.198	380.45
775.52	349.81
775.842	411.09
776.164	385.56
776.487	416.2
776.809	352.37
777.131	367.69
777.453	454.5
777.775	329.39
778.096	375.35
778.418	362.58
778.74	360.03
779.062	403.43
779.384	464.71
779.705	405.99
780.027	393.22
780.348	393.22
780.67	428.97
780.991	393.22
781.313	390.67
781.634	342.15
781.955	403.43
782.277	293.64
782.598	357.47
782.919	285.98
783.24	316.62
783.561	377.9
783.882	370.24
784.203	431.52
784.524	385.56
784.845	431.52
785.166	390.67
785.487	423.86
785.807	444.29
786.128	446.84
786.449	352.37
786.769	316.62
787.09	342.15
787.41	342.15
787.731	441.73
788.051	434.07
788.372	380.45
788.692	398.33
789.012	383.01
789.332	357.47
789.653	408.54
789.973	367.69
790.293	349.81
790.613	403.43
790.933	395.77
791.253	385.56
791.573	421.31
791.893	403.43
792.212	413.65
792.532	385.56
792.852	349.81
793.171	337.05
793.491	362.58
793.811	408.54
794.13	375.35
794.45	362.58
794.769	303.85
795.088	413.65
795.408	339.6
795.727	416.2
796.046	383.01
796.365	405.99
796.684	342.15
797.004	357.47
797.323	344.71
797.642	367.69
797.96	390.67
798.279	367.69
798.598	380.45
798.917	405.99
799.236	426.41
799.554	408.54
799.873	431.52
800.192	388.11
800.51	354.92
800.829	416.2
801.147	411.09
