Data from 2025-12-03_xpw_interference_micrometer_634_dark_FLMS141361__20__170.txt Node

Date: Wed Dec 03 15:50:01 MST 2025
User: james
Spectrometer: FLMS14136
Trigger mode: 0
Integration Time (sec): 1.000000E-1
Scans to average: 1
Electric dark correction enabled: true
Nonlinearity correction enabled: false
Boxcar width: 0
XAxis mode: Wavelengths
Number of Pixels in Spectrum: 2048
>>>>>Begin Spectral Data<<<<<
339.315	-31.28
339.697	-31.28
340.079	-31.28
340.461	-100.22
340.843	-28.73
341.225	-59.37
341.607	-125.75
341.989	-72.13
342.371	-74.69
342.752	-69.58
343.134	-100.22
343.516	-41.49
343.897	-28.73
344.279	-5.75
344.661	1.92
345.042	32.56
345.423	73.41
345.805	83.62
346.186	116.82
346.567	139.8
346.949	129.58
347.33	155.12
347.711	206.19
348.092	244.49
348.473	198.53
348.854	213.85
349.235	287.89
349.616	364.49
349.997	252.15
350.378	326.19
350.758	344.07
351.139	354.28
351.52	326.19
351.9	218.95
352.281	349.17
352.661	361.94
353.042	377.26
353.422	400.24
353.803	382.37
354.183	400.24
354.563	392.58
354.943	395.14
355.324	405.35
355.704	392.58
356.084	364.49
356.464	300.66
356.844	361.94
357.224	377.26
357.603	315.98
357.983	387.48
358.363	433.44
358.743	377.26
359.122	328.75
359.502	369.6
359.882	400.24
360.261	377.26
360.641	384.92
361.02	293
361.399	364.49
361.779	349.17
362.158	430.88
362.537	367.05
362.916	300.66
363.296	418.12
363.675	395.14
364.054	338.96
364.433	379.81
364.812	346.62
365.19	359.39
365.569	382.37
365.948	344.07
366.327	374.71
366.705	354.28
367.084	298.11
367.463	346.62
367.841	382.37
368.22	356.83
368.598	377.26
368.977	344.07
369.355	364.49
369.733	341.51
370.111	364.49
370.49	344.07
370.868	351.73
371.246	423.22
371.624	336.41
372.002	259.81
372.38	290.45
372.758	356.83
373.136	372.15
373.513	328.75
373.891	290.45
374.269	361.94
374.646	374.71
375.024	315.98
375.402	405.35
375.779	382.37
376.157	407.9
376.534	346.62
376.911	379.81
377.289	418.12
377.666	402.8
378.043	364.49
378.42	390.03
378.797	359.39
379.175	410.46
379.552	367.05
379.929	382.37
380.305	359.39
380.682	390.03
381.059	369.6
381.436	410.46
381.813	351.73
382.189	364.49
382.566	318.53
382.943	323.64
383.319	344.07
383.696	326.19
384.072	356.83
384.448	369.6
384.825	392.58
385.201	382.37
385.577	369.6
385.953	384.92
386.329	395.14
386.706	346.62
387.082	382.37
387.458	425.78
387.834	356.83
388.209	372.15
388.585	369.6
388.961	387.48
389.337	361.94
389.713	390.03
390.088	402.8
390.464	384.92
390.839	379.81
391.215	397.69
391.59	430.88
391.966	438.54
392.341	392.58
392.716	344.07
393.092	313.43
393.467	384.92
393.842	349.17
394.217	326.19
394.592	387.48
394.967	367.05
395.342	326.19
395.717	390.03
396.092	379.81
396.467	379.81
396.841	354.28
397.216	400.24
397.591	359.39
397.965	277.68
398.34	374.71
398.714	418.12
399.089	318.53
399.463	456.42
399.838	395.14
400.212	387.48
400.586	405.35
400.961	374.71
401.335	361.94
401.709	377.26
402.083	384.92
402.457	361.94
402.831	402.8
403.205	377.26
403.579	369.6
403.953	356.83
404.326	397.69
404.7	428.33
405.074	425.78
405.447	400.24
405.821	359.39
406.195	333.85
406.568	303.21
406.942	428.33
407.315	410.46
407.688	461.52
408.062	464.08
408.435	407.9
408.808	369.6
409.181	390.03
409.554	344.07
409.927	402.8
410.3	379.81
410.673	369.6
411.046	374.71
411.419	392.58
411.792	372.15
412.165	384.92
412.537	379.81
412.91	397.69
413.283	443.65
413.655	418.12
414.028	397.69
414.4	359.39
414.773	354.28
415.145	428.33
415.517	415.56
415.889	364.49
416.262	364.49
416.634	407.9
417.006	379.81
417.378	372.15
417.75	372.15
418.122	443.65
418.494	430.88
418.866	364.49
419.238	356.83
419.609	341.51
419.981	423.22
420.353	369.6
420.725	484.5
421.096	476.84
421.468	356.83
421.839	367.05
422.211	451.31
422.582	392.58
422.953	361.94
423.325	328.75
423.696	344.07
424.067	379.81
424.438	402.8
424.809	433.44
425.18	384.92
425.551	387.48
425.922	354.28
426.293	382.37
426.664	392.58
427.035	530.46
427.406	446.2
427.776	433.44
428.147	407.9
428.518	367.05
428.888	481.95
429.259	469.18
429.629	428.33
429.999	405.35
430.37	364.49
430.74	395.14
431.11	374.71
431.481	349.17
431.851	356.83
432.221	402.8
432.591	443.65
432.961	397.69
433.331	384.92
433.701	395.14
434.071	418.12
434.441	438.54
434.81	395.14
435.18	402.8
435.55	407.9
435.919	379.81
436.289	400.24
436.658	423.22
437.028	372.15
437.397	328.75
437.767	390.03
438.136	435.99
438.505	423.22
438.875	443.65
439.244	441.1
439.613	384.92
439.982	423.22
440.351	387.48
440.72	423.22
441.089	420.67
441.458	367.05
441.827	367.05
442.196	420.67
442.564	515.14
442.933	349.17
443.302	456.42
443.67	420.67
444.039	415.56
444.407	341.51
444.776	405.35
445.144	433.44
445.513	420.67
445.881	382.37
446.249	418.12
446.617	433.44
446.986	382.37
447.354	435.99
447.722	397.69
448.09	441.1
448.458	407.9
448.826	510.04
449.194	453.86
449.561	410.46
449.929	344.07
450.297	379.81
450.665	446.2
451.032	458.97
451.4	415.56
451.767	331.3
452.135	323.64
452.502	367.05
452.87	354.28
453.237	428.33
453.604	382.37
453.971	377.26
454.339	425.78
454.706	382.37
455.073	420.67
455.44	402.8
455.807	425.78
456.174	423.22
456.541	402.8
456.908	390.03
457.274	443.65
457.641	448.76
458.008	382.37
458.374	443.65
458.741	384.92
459.108	351.73
459.474	415.56
459.841	397.69
460.207	423.22
460.573	382.37
460.94	397.69
461.306	423.22
461.672	395.14
462.038	331.3
462.404	361.94
462.771	430.88
463.137	397.69
463.503	377.26
463.868	438.54
464.234	433.44
464.6	400.24
464.966	435.99
465.332	430.88
465.697	395.14
466.063	392.58
466.429	338.96
466.794	392.58
467.16	390.03
467.525	315.98
467.89	341.51
468.256	369.6
468.621	326.19
468.986	430.88
469.351	430.88
469.717	397.69
470.082	344.07
470.447	410.46
470.812	374.71
471.177	384.92
471.542	466.63
471.906	428.33
472.271	344.07
472.636	387.48
473.001	423.22
473.365	433.44
473.73	405.35
474.094	377.26
474.459	369.6
474.823	418.12
475.188	372.15
475.552	356.83
475.917	390.03
476.281	471.74
476.645	390.03
477.009	474.29
477.373	420.67
477.737	379.81
478.101	435.99
478.465	410.46
478.829	413.01
479.193	349.17
479.557	476.84
479.921	382.37
480.284	420.67
480.648	392.58
481.012	476.84
481.375	407.9
481.739	423.22
482.102	344.07
482.466	402.8
482.829	464.08
483.193	446.2
483.556	407.9
483.919	438.54
484.282	443.65
484.645	377.26
485.009	372.15
485.372	359.39
485.735	400.24
486.098	428.33
486.46	461.52
486.823	392.58
487.186	384.92
487.549	374.71
487.912	441.1
488.274	430.88
488.637	346.62
488.999	407.9
489.362	377.26
489.724	400.24
490.087	390.03
490.449	364.49
490.811	390.03
491.174	390.03
491.536	456.42
491.898	435.99
492.26	407.9
492.622	379.81
492.984	446.2
493.346	402.8
493.708	377.26
494.07	374.71
494.432	379.81
494.794	392.58
495.155	443.65
495.517	415.56
495.879	423.22
496.24	425.78
496.602	402.8
496.963	418.12
497.325	397.69
497.686	367.05
498.048	407.9
498.409	453.86
498.77	400.24
499.131	451.31
499.492	400.24
499.854	344.07
500.215	367.05
500.576	456.42
500.937	349.17
501.298	425.78
501.658	377.26
502.019	471.74
502.38	392.58
502.741	415.56
503.101	397.69
503.462	456.42
503.823	461.52
504.183	407.9
504.543	438.54
504.904	374.71
505.264	382.37
505.625	435.99
505.985	471.74
506.345	395.14
506.705	418.12
507.065	428.33
507.426	392.58
507.786	435.99
508.146	397.69
508.505	384.92
508.865	344.07
509.225	413.01
509.585	494.72
509.945	441.1
510.304	397.69
510.664	402.8
511.024	438.54
511.383	438.54
511.743	456.42
512.102	390.03
512.462	433.44
512.821	354.28
513.18	446.2
513.539	453.86
513.899	405.35
514.258	387.48
514.617	443.65
514.976	367.05
515.335	397.69
515.694	423.22
516.053	441.1
516.412	367.05
516.771	441.1
517.129	456.42
517.488	469.18
517.847	456.42
518.205	476.84
518.564	420.67
518.922	387.48
519.281	338.96
519.639	377.26
519.998	438.54
520.356	405.35
520.714	400.24
521.073	456.42
521.431	379.81
521.789	390.03
522.147	413.01
522.505	441.1
522.863	392.58
523.221	410.46
523.579	420.67
523.937	336.41
524.295	359.39
524.652	402.8
525.01	395.14
525.368	420.67
525.725	415.56
526.083	379.81
526.44	387.48
526.798	372.15
527.155	395.14
527.513	489.61
527.87	369.6
528.227	313.43
528.584	387.48
528.942	413.01
529.299	405.35
529.656	420.67
530.013	438.54
530.37	369.6
530.727	402.8
531.083	474.29
531.44	451.31
531.797	354.28
532.154	461.52
532.511	453.86
532.867	361.94
533.224	349.17
533.58	377.26
533.937	395.14
534.293	377.26
534.65	356.83
535.006	466.63
535.362	441.1
535.718	402.8
536.075	379.81
536.431	359.39
536.787	413.01
537.143	410.46
537.499	448.76
537.855	395.14
538.211	415.56
538.567	321.09
538.923	456.42
539.278	369.6
539.634	397.69
539.99	402.8
540.345	453.86
540.701	387.48
541.056	379.81
541.412	476.84
541.767	418.12
542.123	377.26
542.478	420.67
542.833	328.75
543.188	438.54
543.544	364.49
543.899	466.63
544.254	328.75
544.609	369.6
544.964	420.67
545.319	418.12
545.674	448.76
546.029	374.71
546.383	476.84
546.738	410.46
547.093	384.92
547.447	405.35
547.802	356.83
548.157	433.44
548.511	400.24
548.866	341.51
549.22	387.48
549.574	359.39
549.929	377.26
550.283	435.99
550.637	356.83
550.991	369.6
551.345	395.14
551.699	425.78
552.053	418.12
552.407	415.56
552.761	405.35
553.115	428.33
553.469	458.97
553.823	435.99
554.176	413.01
554.53	448.76
554.884	390.03
555.237	655.58
555.591	428.33
555.944	458.97
556.298	384.92
556.651	425.78
557.005	476.84
557.358	400.24
557.711	476.84
558.064	464.08
558.417	448.76
558.771	540.68
559.124	471.74
559.477	413.01
559.83	407.9
560.182	410.46
560.535	451.31
560.888	400.24
561.241	413.01
561.594	308.32
561.946	384.92
562.299	400.24
562.651	364.49
563.004	382.37
563.356	379.81
563.709	397.69
564.061	384.92
564.413	464.08
564.766	372.15
565.118	384.92
565.47	379.81
565.822	336.41
566.174	428.33
566.526	413.01
566.878	443.65
567.23	354.28
567.582	390.03
567.934	441.1
568.286	413.01
568.638	367.05
568.989	433.44
569.341	441.1
569.693	384.92
570.044	443.65
570.396	425.78
570.747	397.69
571.098	338.96
571.45	433.44
571.801	418.12
572.152	413.01
572.504	415.56
572.855	400.24
573.206	372.15
573.557	415.56
573.908	433.44
574.259	402.8
574.61	364.49
574.961	464.08
575.311	392.58
575.662	423.22
576.013	397.69
576.364	356.83
576.714	413.01
577.065	382.37
577.415	413.01
577.766	308.32
578.116	384.92
578.467	423.22
578.817	392.58
579.167	418.12
579.518	420.67
579.868	382.37
580.218	418.12
580.568	438.54
580.918	400.24
581.268	369.6
581.618	392.58
581.968	410.46
582.318	410.46
582.668	451.31
583.017	318.53
583.367	428.33
583.717	425.78
584.066	395.14
584.416	430.88
584.765	415.56
585.115	435.99
585.464	402.8
585.814	479.4
586.163	390.03
586.512	361.94
586.862	402.8
587.211	474.29
587.56	410.46
587.909	369.6
588.258	397.69
588.607	413.01
588.956	418.12
589.305	415.56
589.654	400.24
590.002	441.1
590.351	351.73
590.7	430.88
591.048	448.76
591.397	425.78
591.746	435.99
592.094	418.12
592.443	420.67
592.791	390.03
593.139	433.44
593.488	372.15
593.836	374.71
594.184	359.39
594.532	354.28
594.88	443.65
595.228	382.37
595.576	372.15
595.924	395.14
596.272	382.37
596.62	407.9
596.968	361.94
597.316	413.01
597.664	418.12
598.011	438.54
598.359	369.6
598.706	469.18
599.054	428.33
599.402	395.14
599.749	461.52
600.096	425.78
600.444	415.56
600.791	374.71
601.138	423.22
601.485	384.92
601.833	413.01
602.18	387.48
602.527	418.12
602.874	392.58
603.221	356.83
603.568	387.48
603.914	461.52
604.261	395.14
604.608	407.9
604.955	390.03
605.301	390.03
605.648	323.64
605.995	402.8
606.341	430.88
606.688	369.6
607.034	415.56
607.38	356.83
607.727	392.58
608.073	400.24
608.419	405.35
608.765	438.54
609.112	379.81
609.458	418.12
609.804	435.99
610.15	464.08
610.496	430.88
610.842	410.46
611.187	349.17
611.533	392.58
611.879	392.58
612.225	410.46
612.57	512.59
612.916	435.99
613.261	361.94
613.607	453.86
613.952	410.46
614.298	354.28
614.643	346.62
614.989	397.69
615.334	423.22
615.679	456.42
616.024	392.58
616.369	405.35
616.714	379.81
617.059	453.86
617.404	351.73
617.749	392.58
618.094	346.62
618.439	425.78
618.784	433.44
619.129	443.65
619.473	351.73
619.818	410.46
620.163	423.22
620.507	418.12
620.852	361.94
621.196	372.15
621.54	456.42
621.885	315.98
622.229	354.28
622.573	387.48
622.918	346.62
623.262	413.01
623.606	344.07
623.95	356.83
624.294	405.35
624.638	400.24
624.982	448.76
625.326	413.01
625.67	354.28
626.013	438.54
626.357	420.67
626.701	405.35
627.044	326.19
627.388	361.94
627.731	379.81
628.075	446.2
628.418	392.58
628.762	451.31
629.105	382.37
629.448	364.49
629.792	428.33
630.135	341.51
630.478	420.67
630.821	356.83
631.164	361.94
631.507	420.67
631.85	428.33
632.193	405.35
632.536	430.88
632.879	438.54
633.221	405.35
633.564	400.24
633.907	433.44
634.249	390.03
634.592	379.81
634.935	372.15
635.277	446.2
635.619	464.08
635.962	471.74
636.304	461.52
636.646	387.48
636.989	367.05
637.331	448.76
637.673	420.67
638.015	446.2
638.357	390.03
638.699	441.1
639.041	400.24
639.383	430.88
639.725	356.83
640.067	369.6
640.408	349.17
640.75	308.32
641.092	369.6
641.433	384.92
641.775	395.14
642.116	410.46
642.458	420.67
642.799	405.35
643.141	372.15
643.482	402.8
643.823	466.63
644.164	384.92
644.506	469.18
644.847	418.12
645.188	377.26
645.529	413.01
645.87	377.26
646.211	410.46
646.552	487.06
646.893	461.52
647.233	407.9
647.574	359.39
647.915	461.52
648.255	356.83
648.596	390.03
648.937	415.56
649.277	395.14
649.618	441.1
649.958	435.99
650.298	390.03
650.639	433.44
650.979	392.58
651.319	359.39
651.659	418.12
651.999	395.14
652.339	474.29
652.679	484.5
653.019	415.56
653.359	420.67
653.699	305.77
654.039	387.48
654.379	418.12
654.719	387.48
655.058	395.14
655.398	410.46
655.737	471.74
656.077	379.81
656.416	435.99
656.756	433.44
657.095	369.6
657.435	400.24
657.774	446.2
658.113	464.08
658.452	520.25
658.792	390.03
659.131	415.56
659.47	367.05
659.809	402.8
660.148	395.14
660.487	410.46
660.826	351.73
661.164	415.56
661.503	392.58
661.842	489.61
662.181	420.67
662.519	484.5
662.858	448.76
663.196	438.54
663.535	435.99
663.873	374.71
664.212	310.87
664.55	430.88
664.888	405.35
665.226	397.69
665.565	494.72
665.903	601.96
666.241	415.56
666.579	367.05
666.917	430.88
667.255	423.22
667.593	379.81
667.931	367.05
668.268	441.1
668.606	338.96
668.944	413.01
669.282	323.64
669.619	374.71
669.957	338.96
670.294	359.39
670.632	418.12
670.969	397.69
671.307	453.86
671.644	354.28
671.981	395.14
672.318	451.31
672.656	405.35
672.993	382.37
673.33	402.8
673.667	433.44
674.004	466.63
674.341	397.69
674.678	377.26
675.015	428.33
675.351	418.12
675.688	372.15
676.025	328.75
676.362	395.14
676.698	364.49
677.035	395.14
677.371	372.15
677.708	405.35
678.044	423.22
678.38	428.33
678.717	402.8
679.053	402.8
679.389	341.51
679.725	453.86
680.062	410.46
680.398	387.48
680.734	382.37
681.07	387.48
681.406	428.33
681.742	507.48
682.077	333.85
682.413	341.51
682.749	379.81
683.085	384.92
683.42	397.69
683.756	341.51
684.091	367.05
684.427	415.56
684.762	387.48
685.098	369.6
685.433	448.76
685.768	364.49
686.104	397.69
686.439	390.03
686.774	405.35
687.109	379.81
687.444	392.58
687.779	354.28
688.114	369.6
688.449	377.26
688.784	410.46
689.119	377.26
689.454	331.3
689.789	395.14
690.123	425.78
690.458	390.03
690.792	374.71
691.127	464.08
691.461	402.8
691.796	361.94
692.13	405.35
692.465	397.69
692.799	392.58
693.133	413.01
693.467	367.05
693.802	377.26
694.136	390.03
694.47	458.97
694.804	361.94
695.138	369.6
695.472	328.75
695.806	446.2
696.139	395.14
696.473	489.61
696.807	374.71
697.141	425.78
697.474	392.58
697.808	423.22
698.141	420.67
698.475	428.33
698.808	402.8
699.142	387.48
699.475	397.69
699.808	466.63
700.142	430.88
700.475	397.69
700.808	379.81
701.141	395.14
701.474	443.65
701.807	369.6
702.14	405.35
702.473	451.31
702.806	377.26
703.139	387.48
703.472	446.2
703.804	387.48
704.137	379.81
704.47	461.52
704.802	364.49
705.135	438.54
705.467	364.49
705.8	354.28
706.132	349.17
706.464	397.69
706.797	390.03
707.129	438.54
707.461	418.12
707.793	420.67
708.125	405.35
708.457	435.99
708.789	456.42
709.121	369.6
709.453	379.81
709.785	372.15
710.117	418.12
710.449	402.8
710.781	425.78
711.112	379.81
711.444	377.26
711.775	405.35
712.107	413.01
712.438	458.97
712.77	395.14
713.101	410.46
713.433	418.12
713.764	413.01
714.095	374.71
714.426	448.76
714.757	441.1
715.089	369.6
715.42	443.65
715.751	413.01
716.082	395.14
716.412	374.71
716.743	405.35
717.074	418.12
717.405	295.55
717.736	382.37
718.066	387.48
718.397	428.33
718.727	374.71
719.058	400.24
719.388	382.37
719.719	400.24
720.049	400.24
720.38	372.15
720.71	400.24
721.04	397.69
721.37	384.92
721.7	400.24
722.031	341.51
722.361	333.85
722.691	384.92
723.021	392.58
723.35	354.28
723.68	356.83
724.01	397.69
724.34	402.8
724.67	382.37
724.999	387.48
725.329	369.6
725.658	390.03
725.988	418.12
726.317	387.48
726.647	395.14
726.976	374.71
727.306	379.81
727.635	420.67
727.964	410.46
728.293	448.76
728.622	377.26
728.952	390.03
729.281	374.71
729.61	390.03
729.939	476.84
730.267	400.24
730.596	349.17
730.925	413.01
731.254	384.92
731.583	428.33
731.911	395.14
732.24	390.03
732.568	453.86
732.897	413.01
733.225	328.75
733.554	387.48
733.882	354.28
734.21	361.94
734.539	469.18
734.867	364.49
735.195	374.71
735.523	428.33
735.851	387.48
736.179	349.17
736.507	443.65
736.835	377.26
737.163	293
737.491	384.92
737.819	390.03
738.147	356.83
738.474	425.78
738.802	418.12
739.13	387.48
739.457	354.28
739.785	354.28
740.112	407.9
740.44	430.88
740.767	364.49
741.094	418.12
741.422	433.44
741.749	390.03
742.076	338.96
742.403	377.26
742.73	410.46
743.057	402.8
743.384	425.78
743.711	446.2
744.038	379.81
744.365	446.2
744.692	367.05
745.018	387.48
745.345	361.94
745.672	379.81
745.998	418.12
746.325	349.17
746.651	430.88
746.978	351.73
747.304	420.67
747.631	333.85
747.957	410.46
748.283	430.88
748.61	423.22
748.936	405.35
749.262	407.9
749.588	466.63
749.914	400.24
750.24	372.15
750.566	443.65
750.892	364.49
751.218	423.22
751.543	430.88
751.869	402.8
752.195	356.83
752.521	356.83
752.846	438.54
753.172	349.17
753.497	331.3
753.823	400.24
754.148	384.92
754.473	410.46
754.799	384.92
755.124	433.44
755.449	379.81
755.774	407.9
756.1	395.14
756.425	377.26
756.75	397.69
757.075	435.99
757.4	558.55
757.724	407.9
758.049	344.07
758.374	471.74
758.699	402.8
759.024	387.48
759.348	415.56
759.673	418.12
759.997	415.56
760.322	448.76
760.646	415.56
760.971	377.26
761.295	405.35
761.619	402.8
761.944	374.71
762.268	397.69
762.592	359.39
762.916	423.22
763.24	397.69
763.564	438.54
763.888	410.46
764.212	420.67
764.536	474.29
764.86	390.03
765.184	420.67
765.508	425.78
765.831	384.92
766.155	678.56
766.478	425.78
766.802	384.92
767.126	433.44
767.449	392.58
767.772	372.15
768.096	433.44
768.419	392.58
768.742	356.83
769.066	361.94
769.389	423.22
769.712	453.86
770.035	367.05
770.358	359.39
770.681	356.83
771.004	423.22
771.327	377.26
771.65	395.14
771.972	410.46
772.295	420.67
772.618	356.83
772.941	374.71
773.263	413.01
773.586	379.81
773.908	420.67
774.231	338.96
774.553	336.41
774.875	418.12
775.198	430.88
775.52	461.52
775.842	374.71
776.164	390.03
776.487	461.52
776.809	395.14
777.131	405.35
777.453	474.29
777.775	364.49
778.096	374.71
778.418	418.12
778.74	423.22
779.062	382.37
779.384	377.26
779.705	423.22
780.027	466.63
780.348	392.58
780.67	387.48
780.991	374.71
781.313	433.44
781.634	387.48
781.955	356.83
782.277	359.39
782.598	336.41
782.919	351.73
783.24	369.6
783.561	420.67
783.882	410.46
784.203	415.56
784.524	351.73
784.845	410.46
785.166	369.6
785.487	333.85
785.807	448.76
786.128	407.9
786.449	400.24
786.769	379.81
787.09	336.41
787.41	384.92
787.731	364.49
788.051	410.46
788.372	390.03
788.692	390.03
789.012	453.86
789.332	423.22
789.653	338.96
789.973	344.07
790.293	349.17
790.613	428.33
790.933	413.01
791.253	384.92
791.573	413.01
791.893	390.03
792.212	364.49
792.532	356.83
792.852	397.69
793.171	418.12
793.491	374.71
793.811	387.48
794.13	390.03
794.45	384.92
794.769	374.71
795.088	438.54
795.408	354.28
795.727	435.99
796.046	392.58
796.365	392.58
796.684	420.67
797.004	397.69
797.323	413.01
797.642	407.9
797.96	418.12
798.279	364.49
798.598	354.28
798.917	331.3
799.236	400.24
799.554	405.35
799.873	346.62
800.192	372.15
800.51	433.44
800.829	390.03
801.147	356.83
801.466	338.96
801.784	361.94
802.102	407.9
