Data from 2025-12-03_xpw_interference_micrometer_634_dark_FLMS141361__65__215.txt Node

Date: Wed Dec 03 15:50:05 MST 2025
User: james
Spectrometer: FLMS14136
Trigger mode: 0
Integration Time (sec): 1.000000E-1
Scans to average: 1
Electric dark correction enabled: true
Nonlinearity correction enabled: false
Boxcar width: 0
XAxis mode: Wavelengths
Number of Pixels in Spectrum: 2048
>>>>>Begin Spectral Data<<<<<
339.315	-69.74
339.697	-69.74
340.079	-69.74
340.461	-143.79
340.843	-141.23
341.225	-113.15
341.607	-110.59
341.989	-59.53
342.371	-69.74
342.752	-77.4
343.134	-44.21
343.516	-11.01
343.897	-5.9
344.279	4.31
344.661	-11.01
345.042	22.18
345.423	57.93
345.805	50.27
346.186	131.98
346.567	73.25
346.949	162.62
347.33	160.06
347.711	139.64
348.092	160.06
348.473	198.37
348.854	221.35
349.235	221.35
349.616	308.16
349.997	282.63
350.378	269.86
350.758	282.63
351.139	379.66
351.52	326.03
351.9	384.76
352.281	300.5
352.661	364.34
353.042	382.21
353.422	369.44
353.803	374.55
354.183	382.21
354.563	374.55
354.943	397.53
355.324	382.21
355.704	349.01
356.084	315.82
356.464	420.51
356.844	405.19
357.224	433.28
357.603	351.57
357.983	338.8
358.363	372
358.743	333.69
359.122	326.03
359.502	336.25
359.882	336.25
360.261	402.64
360.641	349.01
361.02	410.3
361.399	343.91
361.779	349.01
362.158	402.64
362.537	331.14
362.916	377.1
363.296	297.95
363.675	290.29
364.054	428.17
364.433	412.85
364.812	349.01
365.19	315.82
365.569	387.32
365.948	369.44
366.327	315.82
366.705	310.71
367.084	364.34
367.463	272.41
367.841	285.18
368.22	297.95
368.598	326.03
368.977	303.05
369.355	333.69
369.733	374.55
370.111	300.5
370.49	318.37
370.868	323.48
371.246	343.91
371.624	400.08
372.002	331.14
372.38	310.71
372.758	359.23
373.136	410.3
373.513	300.5
373.891	366.89
374.269	402.64
374.646	300.5
375.024	366.89
375.402	366.89
375.779	338.8
376.157	346.46
376.534	315.82
376.911	246.88
377.289	308.16
377.666	295.39
378.043	308.16
378.42	354.12
378.797	346.46
379.175	361.78
379.552	313.27
379.929	280.07
380.305	323.48
380.682	384.76
381.059	310.71
381.436	359.23
381.813	331.14
382.189	394.98
382.566	338.8
382.943	372
383.319	341.35
383.696	346.46
384.072	349.01
384.448	320.93
384.825	361.78
385.201	341.35
385.577	282.63
385.953	382.21
386.329	320.93
386.706	366.89
387.082	341.35
387.458	379.66
387.834	351.57
388.209	356.67
388.585	343.91
388.961	392.42
389.337	280.07
389.713	377.1
390.088	313.27
390.464	292.84
390.839	372
391.215	361.78
391.59	364.34
391.966	272.41
392.341	400.08
392.716	331.14
393.092	366.89
393.467	349.01
393.842	374.55
394.217	402.64
394.592	351.57
394.967	389.87
395.342	382.21
395.717	359.23
396.092	356.67
396.467	387.32
396.841	428.17
397.216	351.57
397.591	356.67
397.965	338.8
398.34	394.98
398.714	374.55
399.089	315.82
399.463	374.55
399.838	372
400.212	343.91
400.586	389.87
400.961	394.98
401.335	318.37
401.709	423.06
402.083	415.4
402.457	417.96
402.831	359.23
403.205	377.1
403.579	443.49
403.953	349.01
404.326	333.69
404.7	346.46
405.074	343.91
405.447	366.89
405.821	402.64
406.195	405.19
406.568	435.83
406.942	349.01
407.315	394.98
407.688	392.42
408.062	333.69
408.435	349.01
408.808	377.1
409.181	476.68
409.554	407.74
409.927	440.94
410.3	412.85
410.673	415.4
411.046	389.87
411.419	471.58
411.792	458.81
412.165	310.71
412.537	369.44
412.91	346.46
413.283	356.67
413.655	430.72
414.028	469.02
414.4	372
414.773	430.72
415.145	410.3
415.517	412.85
415.889	292.84
416.262	407.74
416.634	377.1
417.006	417.96
417.378	412.85
417.75	292.84
418.122	313.27
418.494	343.91
418.866	369.44
419.238	331.14
419.609	400.08
419.981	389.87
420.353	400.08
420.725	361.78
421.096	382.21
421.468	356.67
421.839	463.92
422.211	412.85
422.582	366.89
422.953	351.57
423.325	354.12
423.696	372
424.067	377.1
424.438	384.76
424.809	346.46
425.18	410.3
425.551	336.25
425.922	349.01
426.293	338.8
426.664	354.12
427.035	428.17
427.406	364.34
427.776	336.25
428.147	402.64
428.518	369.44
428.888	359.23
429.259	420.51
429.629	405.19
429.999	402.64
430.37	351.57
430.74	310.71
431.11	300.5
431.481	374.55
431.851	336.25
432.221	387.32
432.591	463.92
432.961	366.89
433.331	425.62
433.701	410.3
434.071	384.76
434.441	372
434.81	379.66
435.18	384.76
435.55	356.67
435.919	369.44
436.289	407.74
436.658	346.46
437.028	343.91
437.397	389.87
437.767	438.38
438.136	349.01
438.505	359.23
438.875	374.55
439.244	402.64
439.613	374.55
439.982	428.17
440.351	356.67
440.72	415.4
441.089	372
441.458	400.08
441.827	492
442.196	379.66
442.564	446.04
442.933	443.49
443.302	423.06
443.67	366.89
444.039	351.57
444.407	308.16
444.776	320.93
445.144	346.46
445.513	374.55
445.881	341.35
446.249	346.46
446.617	402.64
446.986	389.87
447.354	379.66
447.722	397.53
448.09	369.44
448.458	428.17
448.826	474.13
449.194	417.96
449.561	394.98
449.929	448.6
450.297	420.51
450.665	397.53
451.032	420.51
451.4	400.08
451.767	359.23
452.135	351.57
452.502	379.66
452.87	397.53
453.237	407.74
453.604	377.1
453.971	361.78
454.339	463.92
454.706	425.62
455.073	410.3
455.44	354.12
455.807	397.53
456.174	443.49
456.541	456.26
456.908	377.1
457.274	333.69
457.641	389.87
458.008	407.74
458.374	374.55
458.741	410.3
459.108	425.62
459.474	453.7
459.841	425.62
460.207	379.66
460.573	372
460.94	446.04
461.306	315.82
461.672	384.76
462.038	326.03
462.404	377.1
462.771	400.08
463.137	400.08
463.503	446.04
463.868	440.94
464.234	400.08
464.6	361.78
464.966	331.14
465.332	374.55
465.697	397.53
466.063	402.64
466.429	382.21
466.794	433.28
467.16	451.15
467.525	374.55
467.89	336.25
468.256	387.32
468.621	443.49
468.986	372
469.351	374.55
469.717	435.83
470.082	400.08
470.447	392.42
470.812	417.96
471.177	354.12
471.542	430.72
471.906	392.42
472.271	392.42
472.636	374.55
473.001	410.3
473.365	366.89
473.73	428.17
474.094	372
474.459	415.4
474.823	458.81
475.188	369.44
475.552	446.04
475.917	397.53
476.281	415.4
476.645	384.76
477.009	458.81
477.373	461.36
477.737	435.83
478.101	420.51
478.465	343.91
478.829	389.87
479.193	407.74
479.557	369.44
479.921	387.32
480.284	343.91
480.648	428.17
481.012	420.51
481.375	366.89
481.739	410.3
482.102	389.87
482.466	359.23
482.829	433.28
483.193	379.66
483.556	423.06
483.919	433.28
484.282	387.32
484.645	402.64
485.009	372
485.372	346.46
485.735	423.06
486.098	333.69
486.46	295.39
486.823	377.1
487.186	415.4
487.549	377.1
487.912	384.76
488.274	389.87
488.637	364.34
488.999	405.19
489.362	379.66
489.724	384.76
490.087	372
490.449	374.55
490.811	420.51
491.174	412.85
491.536	420.51
491.898	402.64
492.26	364.34
492.622	361.78
492.984	341.35
493.346	372
493.708	443.49
494.07	435.83
494.432	392.42
494.794	387.32
495.155	412.85
495.517	341.35
495.879	338.8
496.24	387.32
496.602	379.66
496.963	361.78
497.325	361.78
497.686	331.14
498.048	394.98
498.409	387.32
498.77	356.67
499.131	372
499.492	448.6
499.854	410.3
500.215	435.83
500.576	461.36
500.937	351.57
501.298	364.34
501.658	463.92
502.019	435.83
502.38	443.49
502.741	458.81
503.101	394.98
503.462	331.14
503.823	343.91
504.183	377.1
504.543	430.72
504.904	359.23
505.264	366.89
505.625	359.23
505.985	364.34
506.345	458.81
506.705	438.38
507.065	354.12
507.426	402.64
507.786	405.19
508.146	415.4
508.505	354.12
508.865	338.8
509.225	382.21
509.585	440.94
509.945	405.19
510.304	364.34
510.664	438.38
511.024	433.28
511.383	453.7
511.743	338.8
512.102	451.15
512.462	430.72
512.821	458.81
513.18	443.49
513.539	474.13
513.899	469.02
514.258	484.34
514.617	384.76
514.976	423.06
515.335	458.81
515.694	389.87
516.053	423.06
516.412	425.62
516.771	377.1
517.129	394.98
517.488	448.6
517.847	407.74
518.205	354.12
518.564	415.4
518.922	333.69
519.281	323.48
519.639	354.12
519.998	389.87
520.356	440.94
520.714	394.98
521.073	502.22
521.431	410.3
521.789	453.7
522.147	423.06
522.505	384.76
522.863	387.32
523.221	336.25
523.579	356.67
523.937	341.35
524.295	359.23
524.652	456.26
525.01	435.83
525.368	369.44
525.725	412.85
526.083	453.7
526.44	400.08
526.798	410.3
527.155	453.7
527.513	402.64
527.87	356.67
528.227	438.38
528.584	351.57
528.942	392.42
529.299	341.35
529.656	364.34
530.013	461.36
530.37	438.38
530.727	407.74
531.083	397.53
531.44	359.23
531.797	438.38
532.154	425.62
532.511	379.66
532.867	405.19
533.224	453.7
533.58	425.62
533.937	466.47
534.293	351.57
534.65	389.87
535.006	382.21
535.362	369.44
535.718	415.4
536.075	417.96
536.431	412.85
536.787	366.89
537.143	407.74
537.499	446.04
537.855	410.3
538.211	377.1
538.567	430.72
538.923	405.19
539.278	374.55
539.634	433.28
539.99	420.51
540.345	382.21
540.701	400.08
541.056	354.12
541.412	377.1
541.767	372
542.123	382.21
542.478	417.96
542.833	435.83
543.188	440.94
543.544	377.1
543.899	417.96
544.254	379.66
544.609	349.01
544.964	412.85
545.319	333.69
545.674	415.4
546.029	392.42
546.383	356.67
546.738	397.53
547.093	369.44
547.447	379.66
547.802	346.46
548.157	323.48
548.511	430.72
548.866	387.32
549.22	407.74
549.574	359.23
549.929	456.26
550.283	402.64
550.637	384.76
550.991	389.87
551.345	392.42
551.699	389.87
552.053	392.42
552.407	415.4
552.761	417.96
553.115	417.96
553.469	397.53
553.823	382.21
554.176	430.72
554.53	369.44
554.884	440.94
555.237	660.53
555.591	361.78
555.944	479.24
556.298	392.42
556.651	443.49
557.005	461.36
557.358	463.92
557.711	410.3
558.064	428.17
558.417	397.53
558.771	520.09
559.124	423.06
559.477	448.6
559.83	369.44
560.182	303.05
560.535	486.9
560.888	387.32
561.241	379.66
561.594	326.03
561.946	364.34
562.299	405.19
562.651	400.08
563.004	366.89
563.356	359.23
563.709	374.55
564.061	425.62
564.413	412.85
564.766	446.04
565.118	372
565.47	359.23
565.822	425.62
566.174	397.53
566.526	343.91
566.878	428.17
567.23	382.21
567.582	384.76
567.934	323.48
568.286	369.44
568.638	323.48
568.989	448.6
569.341	440.94
569.693	430.72
570.044	377.1
570.396	415.4
570.747	410.3
571.098	407.74
571.45	377.1
571.801	389.87
572.152	349.01
572.504	392.42
572.855	405.19
573.206	471.58
573.557	341.35
573.908	387.32
574.259	438.38
574.61	430.72
574.961	397.53
575.311	443.49
575.662	410.3
576.013	369.44
576.364	331.14
576.714	389.87
577.065	372
577.415	407.74
577.766	412.85
578.116	397.53
578.467	392.42
578.817	402.64
579.167	379.66
579.518	412.85
579.868	425.62
580.218	356.67
580.568	417.96
580.918	423.06
581.268	412.85
581.618	369.44
581.968	405.19
582.318	369.44
582.668	361.78
583.017	407.74
583.367	412.85
583.717	435.83
584.066	382.21
584.416	361.78
584.765	389.87
585.115	407.74
585.464	440.94
585.814	326.03
586.163	377.1
586.512	382.21
586.862	415.4
587.211	402.64
587.56	364.34
587.909	394.98
588.258	397.53
588.607	384.76
588.956	448.6
589.305	446.04
589.654	394.98
590.002	389.87
590.351	400.08
590.7	481.79
591.048	451.15
591.397	374.55
591.746	377.1
592.094	382.21
592.443	428.17
592.791	336.25
593.139	420.51
593.488	364.34
593.836	372
594.184	338.8
594.532	492
594.88	448.6
595.228	456.26
595.576	392.42
595.924	397.53
596.272	382.21
596.62	318.37
596.968	349.01
597.316	423.06
597.664	394.98
598.011	397.53
598.359	326.03
598.706	463.92
599.054	377.1
599.402	394.98
599.749	338.8
600.096	379.66
600.444	341.35
600.791	369.44
601.138	379.66
601.485	366.89
601.833	402.64
602.18	428.17
602.527	305.61
602.874	315.82
603.221	451.15
603.568	412.85
603.914	435.83
604.261	379.66
604.608	435.83
604.955	372
605.301	377.1
605.648	405.19
605.995	428.17
606.341	384.76
606.688	372
607.034	410.3
607.38	420.51
607.727	446.04
608.073	374.55
608.419	361.78
608.765	341.35
609.112	469.02
609.458	349.01
609.804	354.12
610.15	331.14
610.496	377.1
610.842	405.19
611.187	428.17
611.533	440.94
611.879	423.06
612.225	435.83
612.57	343.91
612.916	435.83
613.261	453.7
613.607	356.67
613.952	338.8
614.298	405.19
614.643	435.83
614.989	346.46
615.334	384.76
615.679	417.96
616.024	349.01
616.369	343.91
616.714	338.8
617.059	389.87
617.404	405.19
617.749	377.1
618.094	374.55
618.439	290.29
618.784	448.6
619.129	486.9
619.473	364.34
619.818	410.3
620.163	417.96
620.507	435.83
620.852	405.19
621.196	451.15
621.54	366.89
621.885	517.54
622.229	400.08
622.573	435.83
622.918	372
623.262	338.8
623.606	374.55
623.95	392.42
624.294	364.34
624.638	361.78
624.982	361.78
625.326	374.55
625.67	397.53
626.013	333.69
626.357	331.14
626.701	341.35
627.044	405.19
627.388	343.91
627.731	369.44
628.075	372
628.418	417.96
628.762	374.55
629.105	338.8
629.448	341.35
629.792	351.57
630.135	277.52
630.478	405.19
630.821	423.06
631.164	300.5
631.507	402.64
631.85	366.89
632.193	394.98
632.536	392.42
632.879	341.35
633.221	366.89
633.564	343.91
633.907	415.4
634.249	397.53
634.592	392.42
634.935	354.12
635.277	410.3
635.619	333.69
635.962	349.01
636.304	346.46
636.646	389.87
636.989	397.53
637.331	333.69
637.673	423.06
638.015	405.19
638.357	433.28
638.699	410.3
639.041	374.55
639.383	397.53
639.725	405.19
640.067	423.06
640.408	387.32
640.75	451.15
641.092	394.98
641.433	313.27
641.775	392.42
642.116	323.48
642.458	331.14
642.799	374.55
643.141	425.62
643.482	428.17
643.823	343.91
644.164	356.67
644.506	435.83
644.847	410.3
645.188	410.3
645.529	400.08
645.87	343.91
646.211	369.44
646.552	392.42
646.893	407.74
647.233	448.6
647.574	354.12
647.915	372
648.255	417.96
648.596	303.05
648.937	420.51
649.277	440.94
649.618	402.64
649.958	343.91
650.298	364.34
650.639	382.21
650.979	336.25
651.319	402.64
651.659	389.87
651.999	389.87
652.339	407.74
652.679	456.26
653.019	377.1
653.359	397.53
653.699	392.42
654.039	410.3
654.379	277.52
654.719	394.98
655.058	384.76
655.398	366.89
655.737	412.85
656.077	453.7
656.416	359.23
656.756	425.62
657.095	343.91
657.435	397.53
657.774	407.74
658.113	392.42
658.452	420.51
658.792	384.76
659.131	400.08
659.47	415.4
659.809	315.82
660.148	366.89
660.487	446.04
660.826	392.42
661.164	354.12
661.503	425.62
661.842	384.76
662.181	292.84
662.519	346.46
662.858	384.76
663.196	384.76
663.535	425.62
663.873	394.98
664.212	394.98
664.55	394.98
664.888	323.48
665.226	389.87
665.565	374.55
665.903	568.61
666.241	420.51
666.579	400.08
666.917	356.67
667.255	338.8
667.593	333.69
667.931	423.06
668.268	377.1
668.606	430.72
668.944	412.85
669.282	374.55
669.619	341.35
669.957	318.37
670.294	402.64
670.632	423.06
670.969	359.23
671.307	453.7
671.644	382.21
671.981	402.64
672.318	402.64
672.656	387.32
672.993	382.21
673.33	412.85
673.667	382.21
674.004	336.25
674.341	400.08
674.678	361.78
675.015	397.53
675.351	336.25
675.688	415.4
676.025	407.74
676.362	269.86
676.698	359.23
677.035	379.66
677.371	389.87
677.708	343.91
678.044	392.42
678.38	361.78
678.717	412.85
679.053	331.14
679.389	440.94
679.725	423.06
680.062	397.53
680.398	382.21
680.734	463.92
681.07	407.74
681.406	366.89
681.742	369.44
682.077	341.35
682.413	443.49
682.749	364.34
683.085	354.12
683.42	361.78
683.756	346.46
684.091	366.89
684.427	384.76
684.762	461.36
685.098	366.89
685.433	379.66
685.768	410.3
686.104	354.12
686.439	372
686.774	369.44
687.109	382.21
687.444	387.32
687.779	400.08
688.114	341.35
688.449	331.14
688.784	377.1
689.119	359.23
689.454	356.67
689.789	428.17
690.123	387.32
690.458	384.76
690.792	320.93
691.127	379.66
691.461	349.01
691.796	384.76
692.13	374.55
692.465	341.35
692.799	366.89
693.133	463.92
693.467	400.08
693.802	379.66
694.136	382.21
694.47	425.62
694.804	428.17
695.138	402.64
695.472	320.93
695.806	417.96
696.139	374.55
696.473	389.87
696.807	387.32
697.141	433.28
697.474	303.05
697.808	338.8
698.141	407.74
698.475	374.55
698.808	469.02
699.142	405.19
699.475	438.38
699.808	430.72
700.142	369.44
700.475	333.69
700.808	440.94
701.141	446.04
701.474	392.42
701.807	387.32
702.14	394.98
702.473	392.42
702.806	374.55
703.139	341.35
703.472	343.91
703.804	359.23
704.137	361.78
704.47	384.76
704.802	356.67
705.135	364.34
705.467	438.38
705.8	392.42
706.132	374.55
706.464	440.94
706.797	389.87
707.129	384.76
707.461	428.17
707.793	338.8
708.125	361.78
708.457	397.53
708.789	354.12
709.121	333.69
709.453	351.57
709.785	372
710.117	328.59
710.449	394.98
710.781	384.76
711.112	356.67
711.444	341.35
711.775	402.64
712.107	405.19
712.438	476.68
712.77	400.08
713.101	448.6
713.433	382.21
713.764	415.4
714.095	359.23
714.426	382.21
714.757	384.76
715.089	351.57
715.42	354.12
715.751	320.93
716.082	387.32
716.412	384.76
716.743	397.53
717.074	374.55
717.405	356.67
717.736	415.4
718.066	415.4
718.397	394.98
718.727	446.04
719.058	343.91
719.388	430.72
719.719	415.4
720.049	369.44
720.38	430.72
720.71	384.76
721.04	417.96
721.37	374.55
721.7	392.42
722.031	433.28
722.361	400.08
722.691	333.69
723.021	313.27
723.35	417.96
723.68	382.21
724.01	428.17
724.34	379.66
724.67	379.66
724.999	359.23
725.329	382.21
725.658	359.23
725.988	310.71
726.317	331.14
726.647	407.74
726.976	402.64
727.306	366.89
727.635	361.78
727.964	433.28
728.293	364.34
728.622	387.32
728.952	364.34
729.281	387.32
729.61	377.1
729.939	415.4
730.267	405.19
730.596	415.4
730.925	354.12
731.254	359.23
731.583	446.04
731.911	349.01
732.24	394.98
732.568	410.3
732.897	443.49
733.225	389.87
733.554	423.06
733.882	476.68
734.21	382.21
734.539	366.89
734.867	346.46
735.195	372
735.523	359.23
735.851	366.89
736.179	446.04
736.507	389.87
736.835	453.7
737.163	331.14
737.491	328.59
737.819	400.08
738.147	453.7
738.474	417.96
738.802	423.06
739.13	346.46
739.457	366.89
739.785	417.96
740.112	410.3
740.44	366.89
740.767	400.08
741.094	364.34
741.422	369.44
741.749	387.32
742.076	410.3
742.403	433.28
742.73	405.19
743.057	382.21
743.384	394.98
743.711	361.78
744.038	407.74
744.365	384.76
744.692	433.28
745.018	410.3
745.345	402.64
745.672	394.98
745.998	369.44
746.325	387.32
746.651	300.5
746.978	366.89
747.304	425.62
747.631	423.06
747.957	343.91
748.283	387.32
748.61	374.55
748.936	323.48
749.262	417.96
749.588	349.01
749.914	338.8
750.24	349.01
750.566	394.98
750.892	435.83
751.218	346.46
751.543	412.85
751.869	372
752.195	354.12
752.521	415.4
752.846	394.98
753.172	402.64
753.497	479.24
753.823	364.34
754.148	425.62
754.473	318.37
754.799	392.42
755.124	369.44
755.449	359.23
755.774	364.34
756.1	372
756.425	392.42
756.75	346.46
757.075	448.6
757.4	466.47
757.724	397.53
758.049	458.81
758.374	343.91
758.699	343.91
759.024	405.19
759.348	471.58
759.673	343.91
759.997	374.55
760.322	435.83
760.646	420.51
760.971	402.64
761.295	384.76
761.619	384.76
761.944	364.34
762.268	428.17
762.592	443.49
762.916	435.83
763.24	379.66
763.564	410.3
763.888	389.87
764.212	387.32
764.536	384.76
764.86	372
765.184	372
765.508	372
765.831	451.15
766.155	583.93
766.478	315.82
766.802	361.78
767.126	392.42
767.449	366.89
767.772	295.39
768.096	374.55
768.419	402.64
768.742	346.46
769.066	425.62
769.389	369.44
769.712	425.62
770.035	423.06
770.358	354.12
770.681	338.8
771.004	366.89
771.327	323.48
771.65	356.67
771.972	379.66
772.295	377.1
772.618	425.62
772.941	379.66
773.263	400.08
773.586	448.6
773.908	379.66
774.231	410.3
774.553	402.64
774.875	387.32
775.198	394.98
775.52	356.67
775.842	351.57
776.164	453.7
776.487	369.44
776.809	349.01
777.131	415.4
777.453	417.96
777.775	387.32
778.096	407.74
778.418	310.71
778.74	333.69
779.062	394.98
779.384	369.44
779.705	349.01
780.027	402.64
780.348	374.55
780.67	349.01
780.991	341.35
781.313	392.42
781.634	417.96
781.955	354.12
782.277	366.89
782.598	366.89
782.919	397.53
783.24	425.62
783.561	364.34
783.882	410.3
784.203	394.98
784.524	415.4
784.845	405.19
785.166	359.23
785.487	366.89
785.807	410.3
786.128	430.72
786.449	359.23
786.769	366.89
787.09	343.91
787.41	428.17
787.731	341.35
788.051	361.78
788.372	394.98
788.692	384.76
789.012	394.98
789.332	407.74
789.653	382.21
789.973	379.66
790.293	389.87
790.613	430.72
790.933	384.76
791.253	423.06
791.573	372
791.893	356.67
792.212	336.25
792.532	400.08
792.852	397.53
793.171	382.21
793.491	354.12
793.811	384.76
794.13	387.32
794.45	333.69
794.769	428.17
795.088	333.69
795.408	349.01
795.727	384.76
796.046	333.69
796.365	349.01
796.684	425.62
797.004	377.1
797.323	303.05
797.642	400.08
797.96	417.96
798.279	369.44
798.598	349.01
798.917	287.73
799.236	366.89
799.554	338.8
799.873	372
800.192	377.1
800.51	377.1
800.829	369.44
801.147	366.89
801.466	351.57
801.784	359.23
802.102	389.87
802.421	428.17
802.739	359.23
803.057	443.49
803.375	382.21
803.693	361.78
804.011	389.87
804.329	428.17
804.647	407.74
