Data from 2025-12-03_xpw_interference_micrometer_634_dark_FLMS141361__56__206.txt Node

Date: Wed Dec 03 15:50:04 MST 2025
User: james
Spectrometer: FLMS14136
Trigger mode: 0
Integration Time (sec): 1.000000E-1
Scans to average: 1
Electric dark correction enabled: true
Nonlinearity correction enabled: false
Boxcar width: 0
XAxis mode: Wavelengths
Number of Pixels in Spectrum: 2048
>>>>>Begin Spectral Data<<<<<
339.315	-79.79
339.697	-79.79
340.079	-79.79
340.461	-110.43
340.843	-115.54
341.225	-146.18
341.607	-120.65
341.989	-120.65
342.371	-135.97
342.752	-41.49
343.134	-26.17
343.516	-69.58
343.897	1.92
344.279	-10.85
344.661	134.69
345.042	81.07
345.423	-13.41
345.805	58.09
346.186	68.3
346.567	185.76
346.949	155.12
347.33	244.49
347.711	193.42
348.092	193.42
348.473	236.83
348.854	226.61
349.235	272.57
349.616	272.57
349.997	328.75
350.378	333.85
350.758	349.17
351.139	377.26
351.52	392.58
351.9	384.92
352.281	377.26
352.661	384.92
353.042	379.81
353.422	387.48
353.803	504.93
354.183	364.49
354.563	433.44
354.943	374.71
355.324	405.35
355.704	423.22
356.084	356.83
356.464	367.05
356.844	418.12
357.224	397.69
357.603	413.01
357.983	435.99
358.363	400.24
358.743	390.03
359.122	395.14
359.502	356.83
359.882	336.41
360.261	364.49
360.641	400.24
361.02	418.12
361.399	384.92
361.779	441.1
362.158	397.69
362.537	435.99
362.916	364.49
363.296	397.69
363.675	338.96
364.054	349.17
364.433	321.09
364.812	351.73
365.19	323.64
365.569	369.6
365.948	313.43
366.327	402.8
366.705	315.98
367.084	433.44
367.463	390.03
367.841	397.69
368.22	407.9
368.598	328.75
368.977	397.69
369.355	390.03
369.733	318.53
370.111	287.89
370.49	359.39
370.868	328.75
371.246	333.85
371.624	328.75
372.002	374.71
372.38	323.64
372.758	313.43
373.136	382.37
373.513	384.92
373.891	351.73
374.269	336.41
374.646	397.69
375.024	377.26
375.402	326.19
375.779	351.73
376.157	349.17
376.534	354.28
376.911	369.6
377.289	328.75
377.666	428.33
378.043	390.03
378.42	407.9
378.797	441.1
379.175	441.1
379.552	466.63
379.929	369.6
380.305	354.28
380.682	379.81
381.059	435.99
381.436	397.69
381.813	369.6
382.189	356.83
382.566	354.28
382.943	372.15
383.319	354.28
383.696	369.6
384.072	435.99
384.448	397.69
384.825	372.15
385.201	433.44
385.577	400.24
385.953	310.87
386.329	369.6
386.706	387.48
387.082	387.48
387.458	441.1
387.834	392.58
388.209	461.52
388.585	415.56
388.961	405.35
389.337	405.35
389.713	413.01
390.088	359.39
390.464	392.58
390.839	361.94
391.215	433.44
391.59	392.58
391.966	415.56
392.341	367.05
392.716	361.94
393.092	351.73
393.467	346.62
393.842	387.48
394.217	400.24
394.592	392.58
394.967	407.9
395.342	374.71
395.717	349.17
396.092	354.28
396.467	377.26
396.841	313.43
397.216	428.33
397.591	364.49
397.965	387.48
398.34	354.28
398.714	326.19
399.089	390.03
399.463	351.73
399.838	390.03
400.212	346.62
400.586	354.28
400.961	338.96
401.335	458.97
401.709	461.52
402.083	395.14
402.457	443.65
402.831	384.92
403.205	369.6
403.579	364.49
403.953	402.8
404.326	361.94
404.7	372.15
405.074	405.35
405.447	372.15
405.821	392.58
406.195	464.08
406.568	382.37
406.942	453.86
407.315	418.12
407.688	407.9
408.062	438.54
408.435	407.9
408.808	367.05
409.181	451.31
409.554	420.67
409.927	446.2
410.3	364.49
410.673	435.99
411.046	395.14
411.419	425.78
411.792	315.98
412.165	315.98
412.537	361.94
412.91	377.26
413.283	326.19
413.655	390.03
414.028	420.67
414.4	428.33
414.773	369.6
415.145	400.24
415.517	344.07
415.889	456.42
416.262	344.07
416.634	298.11
417.006	420.67
417.378	397.69
417.75	428.33
418.122	402.8
418.494	364.49
418.866	354.28
419.238	410.46
419.609	420.67
419.981	402.8
420.353	392.58
420.725	428.33
421.096	410.46
421.468	441.1
421.839	423.22
422.211	418.12
422.582	441.1
422.953	420.67
423.325	420.67
423.696	372.15
424.067	415.56
424.438	364.49
424.809	333.85
425.18	446.2
425.551	372.15
425.922	346.62
426.293	413.01
426.664	413.01
427.035	504.93
427.406	423.22
427.776	364.49
428.147	418.12
428.518	351.73
428.888	326.19
429.259	392.58
429.629	402.8
429.999	425.78
430.37	387.48
430.74	420.67
431.11	392.58
431.481	438.54
431.851	392.58
432.221	435.99
432.591	384.92
432.961	397.69
433.331	369.6
433.701	367.05
434.071	433.44
434.441	469.18
434.81	410.46
435.18	374.71
435.55	430.88
435.919	458.97
436.289	415.56
436.658	400.24
437.028	413.01
437.397	364.49
437.767	441.1
438.136	382.37
438.505	364.49
438.875	402.8
439.244	438.54
439.613	390.03
439.982	453.86
440.351	469.18
440.72	443.65
441.089	425.78
441.458	405.35
441.827	392.58
442.196	354.28
442.564	520.25
442.933	438.54
443.302	418.12
443.67	438.54
444.039	377.26
444.407	420.67
444.776	461.52
445.144	395.14
445.513	420.67
445.881	441.1
446.249	359.39
446.617	379.81
446.986	423.22
447.354	395.14
447.722	425.78
448.09	369.6
448.458	390.03
448.826	423.22
449.194	367.05
449.561	464.08
449.929	379.81
450.297	410.46
450.665	453.86
451.032	425.78
451.4	382.37
451.767	420.67
452.135	359.39
452.502	418.12
452.87	397.69
453.237	382.37
453.604	390.03
453.971	441.1
454.339	384.92
454.706	410.46
455.073	413.01
455.44	405.35
455.807	446.2
456.174	423.22
456.541	354.28
456.908	285.34
457.274	458.97
457.641	382.37
458.008	443.65
458.374	458.97
458.741	390.03
459.108	415.56
459.474	443.65
459.841	413.01
460.207	384.92
460.573	415.56
460.94	387.48
461.306	433.44
461.672	469.18
462.038	367.05
462.404	428.33
462.771	430.88
463.137	423.22
463.503	441.1
463.868	435.99
464.234	441.1
464.6	461.52
464.966	443.65
465.332	425.78
465.697	397.69
466.063	364.49
466.429	369.6
466.794	413.01
467.16	407.9
467.525	364.49
467.89	382.37
468.256	451.31
468.621	428.33
468.986	446.2
469.351	377.26
469.717	372.15
470.082	369.6
470.447	354.28
470.812	367.05
471.177	405.35
471.542	407.9
471.906	384.92
472.271	392.58
472.636	400.24
473.001	458.97
473.365	415.56
473.73	387.48
474.094	397.69
474.459	364.49
474.823	293
475.188	443.65
475.552	384.92
475.917	379.81
476.281	418.12
476.645	402.8
477.009	469.18
477.373	367.05
477.737	395.14
478.101	435.99
478.465	443.65
478.829	384.92
479.193	395.14
479.557	423.22
479.921	433.44
480.284	458.97
480.648	448.76
481.012	392.58
481.375	438.54
481.739	438.54
482.102	390.03
482.466	400.24
482.829	413.01
483.193	456.42
483.556	430.88
483.919	435.99
484.282	405.35
484.645	397.69
485.009	407.9
485.372	379.81
485.735	397.69
486.098	433.44
486.46	425.78
486.823	430.88
487.186	410.46
487.549	410.46
487.912	397.69
488.274	372.15
488.637	405.35
488.999	390.03
489.362	451.31
489.724	441.1
490.087	433.44
490.449	397.69
490.811	384.92
491.174	384.92
491.536	420.67
491.898	407.9
492.26	390.03
492.622	428.33
492.984	413.01
493.346	405.35
493.708	379.81
494.07	395.14
494.432	476.84
494.794	407.9
495.155	484.5
495.517	446.2
495.879	387.48
496.24	443.65
496.602	415.56
496.963	407.9
497.325	361.94
497.686	405.35
498.048	464.08
498.409	418.12
498.77	395.14
499.131	377.26
499.492	407.9
499.854	423.22
500.215	415.56
500.576	407.9
500.937	364.49
501.298	384.92
501.658	418.12
502.019	438.54
502.38	430.88
502.741	418.12
503.101	448.76
503.462	369.6
503.823	349.17
504.183	410.46
504.543	451.31
504.904	420.67
505.264	522.8
505.625	471.74
505.985	435.99
506.345	456.42
506.705	471.74
507.065	405.35
507.426	390.03
507.786	438.54
508.146	341.51
508.505	369.6
508.865	407.9
509.225	430.88
509.585	563.66
509.945	474.29
510.304	456.42
510.664	471.74
511.024	420.67
511.383	441.1
511.743	397.69
512.102	397.69
512.462	441.1
512.821	379.81
513.18	390.03
513.539	369.6
513.899	425.78
514.258	476.84
514.617	410.46
514.976	379.81
515.335	374.71
515.694	367.05
516.053	448.76
516.412	461.52
516.771	379.81
517.129	402.8
517.488	420.67
517.847	435.99
518.205	456.42
518.564	543.23
518.922	423.22
519.281	384.92
519.639	397.69
519.998	407.9
520.356	400.24
520.714	479.4
521.073	499.82
521.431	359.39
521.789	344.07
522.147	374.71
522.505	410.46
522.863	415.56
523.221	430.88
523.579	448.76
523.937	469.18
524.295	405.35
524.652	407.9
525.01	415.56
525.368	430.88
525.725	466.63
526.083	407.9
526.44	379.81
526.798	397.69
527.155	379.81
527.513	469.18
527.87	435.99
528.227	446.2
528.584	451.31
528.942	318.53
529.299	430.88
529.656	453.86
530.013	423.22
530.37	471.74
530.727	420.67
531.083	446.2
531.44	356.83
531.797	413.01
532.154	364.49
532.511	430.88
532.867	402.8
533.224	425.78
533.58	413.01
533.937	413.01
534.293	410.46
534.65	423.22
535.006	448.76
535.362	428.33
535.718	443.65
536.075	415.56
536.431	407.9
536.787	405.35
537.143	384.92
537.499	402.8
537.855	413.01
538.211	420.67
538.567	453.86
538.923	448.76
539.278	377.26
539.634	382.37
539.99	410.46
540.345	356.83
540.701	379.81
541.056	430.88
541.412	361.94
541.767	420.67
542.123	364.49
542.478	400.24
542.833	364.49
543.188	407.9
543.544	359.39
543.899	413.01
544.254	369.6
544.609	428.33
544.964	410.46
545.319	384.92
545.674	428.33
546.029	384.92
546.383	410.46
546.738	425.78
547.093	397.69
547.447	481.95
547.802	387.48
548.157	390.03
548.511	372.15
548.866	349.17
549.22	446.2
549.574	471.74
549.929	446.2
550.283	402.8
550.637	507.48
550.991	392.58
551.345	410.46
551.699	438.54
552.053	387.48
552.407	428.33
552.761	402.8
553.115	456.42
553.469	410.46
553.823	435.99
554.176	374.71
554.53	402.8
554.884	361.94
555.237	635.15
555.591	443.65
555.944	387.48
556.298	464.08
556.651	438.54
557.005	395.14
557.358	453.86
557.711	446.2
558.064	438.54
558.417	395.14
558.771	479.4
559.124	382.37
559.477	464.08
559.83	374.71
560.182	377.26
560.535	497.27
560.888	464.08
561.241	458.97
561.594	356.83
561.946	420.67
562.299	402.8
562.651	377.26
563.004	415.56
563.356	441.1
563.709	415.56
564.061	331.3
564.413	333.85
564.766	443.65
565.118	400.24
565.47	361.94
565.822	392.58
566.174	428.33
566.526	474.29
566.878	374.71
567.23	458.97
567.582	423.22
567.934	476.84
568.286	397.69
568.638	377.26
568.989	430.88
569.341	402.8
569.693	423.22
570.044	456.42
570.396	369.6
570.747	395.14
571.098	413.01
571.45	443.65
571.801	346.62
572.152	435.99
572.504	387.48
572.855	372.15
573.206	428.33
573.557	390.03
573.908	407.9
574.259	349.17
574.61	397.69
574.961	410.46
575.311	359.39
575.662	410.46
576.013	410.46
576.364	446.2
576.714	425.78
577.065	466.63
577.415	374.71
577.766	405.35
578.116	423.22
578.467	428.33
578.817	397.69
579.167	372.15
579.518	423.22
579.868	407.9
580.218	435.99
580.568	446.2
580.918	433.44
581.268	428.33
581.618	476.84
581.968	428.33
582.318	397.69
582.668	428.33
583.017	451.31
583.367	479.4
583.717	441.1
584.066	487.06
584.416	364.49
584.765	435.99
585.115	410.46
585.464	369.6
585.814	367.05
586.163	433.44
586.512	453.86
586.862	410.46
587.211	374.71
587.56	481.95
587.909	479.4
588.258	438.54
588.607	487.06
588.956	443.65
589.305	451.31
589.654	456.42
590.002	400.24
590.351	361.94
590.7	377.26
591.048	410.46
591.397	479.4
591.746	364.49
592.094	413.01
592.443	466.63
592.791	476.84
593.139	364.49
593.488	443.65
593.836	402.8
594.184	453.86
594.532	418.12
594.88	377.26
595.228	494.72
595.576	479.4
595.924	443.65
596.272	466.63
596.62	415.56
596.968	458.97
597.316	492.16
597.664	413.01
598.011	423.22
598.359	484.5
598.706	430.88
599.054	395.14
599.402	413.01
599.749	453.86
600.096	372.15
600.444	390.03
600.791	418.12
601.138	448.76
601.485	387.48
601.833	407.9
602.18	415.56
602.527	446.2
602.874	441.1
603.221	410.46
603.568	384.92
603.914	438.54
604.261	372.15
604.608	425.78
604.955	384.92
605.301	438.54
605.648	415.56
605.995	474.29
606.341	443.65
606.688	438.54
607.034	369.6
607.38	413.01
607.727	387.48
608.073	331.3
608.419	354.28
608.765	415.56
609.112	418.12
609.458	451.31
609.804	474.29
610.15	464.08
610.496	448.76
610.842	435.99
611.187	461.52
611.533	295.55
611.879	423.22
612.225	338.96
612.57	382.37
612.916	384.92
613.261	461.52
613.607	448.76
613.952	446.2
614.298	392.58
614.643	392.58
614.989	430.88
615.334	420.67
615.679	402.8
616.024	397.69
616.369	443.65
616.714	425.78
617.059	364.49
617.404	438.54
617.749	456.42
618.094	469.18
618.439	377.26
618.784	331.3
619.129	420.67
619.473	387.48
619.818	349.17
620.163	415.56
620.507	469.18
620.852	420.67
621.196	446.2
621.54	410.46
621.885	443.65
622.229	415.56
622.573	415.56
622.918	402.8
623.262	471.74
623.606	479.4
623.95	413.01
624.294	407.9
624.638	402.8
624.982	435.99
625.326	400.24
625.67	423.22
626.013	420.67
626.357	428.33
626.701	397.69
627.044	298.11
627.388	361.94
627.731	446.2
628.075	410.46
628.418	400.24
628.762	430.88
629.105	356.83
629.448	423.22
629.792	379.81
630.135	374.71
630.478	349.17
630.821	395.14
631.164	392.58
631.507	379.81
631.85	418.12
632.193	395.14
632.536	397.69
632.879	326.19
633.221	430.88
633.564	395.14
633.907	428.33
634.249	487.06
634.592	451.31
634.935	466.63
635.277	474.29
635.619	441.1
635.962	402.8
636.304	395.14
636.646	418.12
636.989	382.37
637.331	390.03
637.673	423.22
638.015	423.22
638.357	395.14
638.699	367.05
639.041	410.46
639.383	443.65
639.725	397.69
640.067	397.69
640.408	369.6
640.75	425.78
641.092	453.86
641.433	430.88
641.775	435.99
642.116	395.14
642.458	392.58
642.799	418.12
643.141	359.39
643.482	367.05
643.823	387.48
644.164	499.82
644.506	430.88
644.847	405.35
645.188	435.99
645.529	349.17
645.87	446.2
646.211	435.99
646.552	464.08
646.893	407.9
647.233	420.67
647.574	469.18
647.915	351.73
648.255	402.8
648.596	435.99
648.937	420.67
649.277	410.46
649.618	448.76
649.958	474.29
650.298	484.5
650.639	405.35
650.979	405.35
651.319	451.31
651.659	377.26
651.999	418.12
652.339	402.8
652.679	361.94
653.019	461.52
653.359	481.95
653.699	390.03
654.039	433.44
654.379	464.08
654.719	487.06
655.058	405.35
655.398	435.99
655.737	535.57
656.077	474.29
656.416	372.15
656.756	453.86
657.095	402.8
657.435	423.22
657.774	402.8
658.113	464.08
658.452	428.33
658.792	413.01
659.131	423.22
659.47	372.15
659.809	402.8
660.148	487.06
660.487	397.69
660.826	351.73
661.164	382.37
661.503	433.44
661.842	464.08
662.181	415.56
662.519	428.33
662.858	458.97
663.196	346.62
663.535	438.54
663.873	418.12
664.212	390.03
664.55	390.03
664.888	379.81
665.226	369.6
665.565	400.24
665.903	670.9
666.241	420.67
666.579	359.39
666.917	405.35
667.255	451.31
667.593	387.48
667.931	415.56
668.268	441.1
668.606	407.9
668.944	405.35
669.282	349.17
669.619	397.69
669.957	395.14
670.294	476.84
670.632	423.22
670.969	451.31
671.307	420.67
671.644	377.26
671.981	387.48
672.318	407.9
672.656	390.03
672.993	349.17
673.33	415.56
673.667	461.52
674.004	390.03
674.341	420.67
674.678	410.46
675.015	397.69
675.351	471.74
675.688	349.17
676.025	390.03
676.362	420.67
676.698	369.6
677.035	369.6
677.371	420.67
677.708	415.56
678.044	405.35
678.38	344.07
678.717	374.71
679.053	415.56
679.389	418.12
679.725	458.97
680.062	407.9
680.398	387.48
680.734	351.73
681.07	430.88
681.406	420.67
681.742	425.78
682.077	410.46
682.413	438.54
682.749	349.17
683.085	420.67
683.42	305.77
683.756	400.24
684.091	390.03
684.427	461.52
684.762	410.46
685.098	446.2
685.433	395.14
685.768	405.35
686.104	430.88
686.439	379.81
686.774	361.94
687.109	361.94
687.444	413.01
687.779	410.46
688.114	333.85
688.449	397.69
688.784	438.54
689.119	479.4
689.454	441.1
689.789	407.9
690.123	446.2
690.458	430.88
690.792	338.96
691.127	410.46
691.461	420.67
691.796	377.26
692.13	400.24
692.465	374.71
692.799	425.78
693.133	354.28
693.467	395.14
693.802	435.99
694.136	377.26
694.47	484.5
694.804	413.01
695.138	474.29
695.472	407.9
695.806	405.35
696.139	397.69
696.473	423.22
696.807	397.69
697.141	379.81
697.474	361.94
697.808	400.24
698.141	397.69
698.475	466.63
698.808	410.46
699.142	438.54
699.475	349.17
699.808	425.78
700.142	443.65
700.475	435.99
700.808	410.46
701.141	400.24
701.474	392.58
701.807	387.48
702.14	387.48
702.473	415.56
702.806	374.71
703.139	356.83
703.472	405.35
703.804	435.99
704.137	423.22
704.47	377.26
704.802	420.67
705.135	387.48
705.467	397.69
705.8	428.33
706.132	430.88
706.464	420.67
706.797	466.63
707.129	384.92
707.461	384.92
707.793	435.99
708.125	374.71
708.457	402.8
708.789	458.97
709.121	438.54
709.453	377.26
709.785	387.48
710.117	382.37
710.449	430.88
710.781	441.1
711.112	441.1
711.444	435.99
711.775	413.01
712.107	395.14
712.438	405.35
712.77	410.46
713.101	458.97
713.433	377.26
713.764	397.69
714.095	402.8
714.426	415.56
714.757	405.35
715.089	441.1
715.42	410.46
715.751	438.54
716.082	423.22
716.412	413.01
716.743	374.71
717.074	349.17
717.405	435.99
717.736	367.05
718.066	367.05
718.397	392.58
718.727	364.49
719.058	433.44
719.388	415.56
719.719	390.03
720.049	351.73
720.38	402.8
720.71	464.08
721.04	356.83
721.37	517.7
721.7	464.08
722.031	382.37
722.361	402.8
722.691	415.56
723.021	433.44
723.35	382.37
723.68	361.94
724.01	423.22
724.34	443.65
724.67	387.48
724.999	453.86
725.329	387.48
725.658	377.26
725.988	433.44
726.317	405.35
726.647	397.69
726.976	374.71
727.306	410.46
727.635	418.12
727.964	423.22
728.293	446.2
728.622	418.12
728.952	400.24
729.281	405.35
729.61	418.12
729.939	469.18
730.267	410.46
730.596	410.46
730.925	458.97
731.254	400.24
731.583	410.46
731.911	364.49
732.24	369.6
732.568	425.78
732.897	400.24
733.225	400.24
733.554	402.8
733.882	400.24
734.21	367.05
734.539	415.56
734.867	400.24
735.195	367.05
735.523	364.49
735.851	359.39
736.179	413.01
736.507	390.03
736.835	400.24
737.163	387.48
737.491	415.56
737.819	326.19
738.147	390.03
738.474	400.24
738.802	430.88
739.13	402.8
739.457	430.88
739.785	405.35
740.112	415.56
740.44	379.81
740.767	387.48
741.094	390.03
741.422	418.12
741.749	336.41
742.076	502.38
742.403	390.03
742.73	451.31
743.057	420.67
743.384	425.78
743.711	405.35
744.038	379.81
744.365	446.2
744.692	354.28
745.018	397.69
745.345	428.33
745.672	405.35
745.998	397.69
746.325	361.94
746.651	410.46
746.978	415.56
747.304	448.76
747.631	451.31
747.957	433.44
748.283	374.71
748.61	397.69
748.936	430.88
749.262	410.46
749.588	438.54
749.914	407.9
750.24	430.88
750.566	435.99
750.892	395.14
751.218	390.03
751.543	441.1
751.869	410.46
752.195	397.69
752.521	392.58
752.846	390.03
753.172	328.75
753.497	384.92
753.823	415.56
754.148	392.58
754.473	487.06
754.799	349.17
755.124	407.9
755.449	372.15
755.774	438.54
756.1	474.29
756.425	466.63
756.75	430.88
757.075	407.9
757.4	533.02
757.724	392.58
758.049	351.73
758.374	400.24
758.699	425.78
759.024	395.14
759.348	428.33
759.673	433.44
759.997	451.31
760.322	407.9
760.646	387.48
760.971	405.35
761.295	423.22
761.619	379.81
761.944	466.63
762.268	446.2
762.592	438.54
762.916	418.12
763.24	456.42
763.564	367.05
763.888	418.12
764.212	405.35
764.536	405.35
764.86	433.44
765.184	384.92
765.508	441.1
765.831	377.26
766.155	653.03
766.478	418.12
766.802	387.48
767.126	456.42
767.449	441.1
767.772	415.56
768.096	456.42
768.419	425.78
768.742	458.97
769.066	420.67
769.389	367.05
769.712	397.69
770.035	402.8
770.358	400.24
770.681	379.81
771.004	400.24
771.327	359.39
771.65	423.22
771.972	425.78
772.295	420.67
772.618	384.92
772.941	435.99
773.263	423.22
773.586	397.69
773.908	410.46
774.231	423.22
774.553	377.26
774.875	494.72
775.198	430.88
775.52	476.84
775.842	310.87
776.164	405.35
776.487	453.86
776.809	390.03
777.131	392.58
777.453	397.69
777.775	407.9
778.096	423.22
778.418	359.39
778.74	310.87
779.062	374.71
779.384	430.88
779.705	428.33
780.027	441.1
780.348	433.44
780.67	453.86
780.991	395.14
781.313	359.39
781.634	359.39
781.955	423.22
782.277	392.58
782.598	382.37
782.919	471.74
783.24	456.42
783.561	448.76
783.882	413.01
784.203	438.54
784.524	435.99
784.845	448.76
785.166	420.67
785.487	367.05
785.807	384.92
786.128	387.48
786.449	338.96
786.769	374.71
787.09	384.92
787.41	413.01
787.731	415.56
788.051	384.92
788.372	382.37
788.692	433.44
789.012	418.12
789.332	372.15
789.653	392.58
789.973	413.01
790.293	428.33
790.613	476.84
790.933	433.44
791.253	443.65
791.573	413.01
791.893	374.71
792.212	397.69
792.532	392.58
792.852	382.37
793.171	336.41
793.491	418.12
793.811	451.31
794.13	341.51
794.45	402.8
794.769	379.81
795.088	410.46
795.408	338.96
795.727	397.69
796.046	372.15
796.365	441.1
796.684	481.95
797.004	415.56
797.323	374.71
797.642	407.9
797.96	430.88
798.279	384.92
798.598	448.76
798.917	377.26
799.236	415.56
799.554	349.17
799.873	458.97
800.192	390.03
800.51	415.56
800.829	433.44
801.147	435.99
801.466	344.07
801.784	451.31
802.102	433.44
802.421	372.15
802.739	418.12
