Data from 2025-12-03_xpw_interference_micrometer_634_dark_FLMS141361__8__158.txt Node

Date: Wed Dec 03 15:50:00 MST 2025
User: james
Spectrometer: FLMS14136
Trigger mode: 0
Integration Time (sec): 1.000000E-1
Scans to average: 1
Electric dark correction enabled: true
Nonlinearity correction enabled: false
Boxcar width: 0
XAxis mode: Wavelengths
Number of Pixels in Spectrum: 2048
>>>>>Begin Spectral Data<<<<<
339.315	-74.53
339.697	-74.53
340.079	-74.53
340.461	-92.4
340.843	-128.15
341.225	-79.63
341.607	-89.85
341.989	-130.7
342.371	-71.97
342.752	-74.53
343.134	-46.44
343.516	-117.93
343.897	-51.55
344.279	4.63
344.661	37.82
345.042	114.42
345.423	88.89
345.805	76.12
346.186	63.36
346.567	165.49
346.949	111.87
347.33	99.1
347.711	221.67
348.092	214
348.473	234.43
348.854	224.22
349.235	231.88
349.616	247.2
349.997	249.75
350.378	295.71
350.758	280.39
351.139	288.05
351.52	356.99
351.9	400.4
352.281	326.35
352.661	385.08
353.042	372.31
353.422	351.89
353.803	382.53
354.183	341.67
354.563	334.01
354.943	359.55
355.324	369.76
355.704	379.97
356.084	400.4
356.464	364.65
356.844	418.28
357.224	346.78
357.603	356.99
357.983	413.17
358.363	390.19
358.743	356.99
359.122	326.35
359.502	367.21
359.882	354.44
360.261	397.85
360.641	362.1
361.02	326.35
361.399	387.63
361.779	349.33
362.158	382.53
362.537	344.23
362.916	351.89
363.296	326.35
363.675	305.93
364.054	369.76
364.433	313.59
364.812	277.84
365.19	392.74
365.569	341.67
365.948	305.93
366.327	339.12
366.705	331.46
367.084	334.01
367.463	349.33
367.841	280.39
368.22	336.57
368.598	374.87
368.977	328.91
369.355	387.63
369.733	364.65
370.111	346.78
370.49	308.48
370.868	336.57
371.246	326.35
371.624	349.33
372.002	295.71
372.38	367.21
372.758	336.57
373.136	392.74
373.513	356.99
373.891	392.74
374.269	423.38
374.646	367.21
375.024	334.01
375.402	387.63
375.779	334.01
376.157	313.59
376.534	295.71
376.911	318.69
377.289	387.63
377.666	374.87
378.043	344.23
378.42	341.67
378.797	402.95
379.175	316.14
379.552	313.59
379.929	303.37
380.305	354.44
380.682	354.44
381.059	259.97
381.436	359.55
381.813	364.65
382.189	318.69
382.566	344.23
382.943	323.8
383.319	321.25
383.696	277.84
384.072	387.63
384.448	364.65
384.825	334.01
385.201	288.05
385.577	336.57
385.953	336.57
386.329	318.69
386.706	390.19
387.082	300.82
387.458	346.78
387.834	351.89
388.209	321.25
388.585	397.85
388.961	354.44
389.337	321.25
389.713	359.55
390.088	344.23
390.464	408.06
390.839	390.19
391.215	405.51
391.59	367.21
391.966	328.91
392.341	367.21
392.716	362.1
393.092	349.33
393.467	382.53
393.842	408.06
394.217	305.93
394.592	344.23
394.967	372.31
395.342	379.97
395.717	351.89
396.092	408.06
396.467	487.22
396.841	334.01
397.216	311.03
397.591	405.51
397.965	341.67
398.34	385.08
398.714	339.12
399.089	374.87
399.463	374.87
399.838	364.65
400.212	385.08
400.586	336.57
400.961	349.33
401.335	374.87
401.709	451.47
402.083	441.26
402.457	402.95
402.831	382.53
403.205	390.19
403.579	413.17
403.953	341.67
404.326	400.4
404.7	420.83
405.074	372.31
405.447	349.33
405.821	436.15
406.195	413.17
406.568	433.6
406.942	441.26
407.315	372.31
407.688	344.23
408.062	359.55
408.435	374.87
408.808	295.71
409.181	400.4
409.554	385.08
409.927	321.25
410.3	364.65
410.673	454.02
411.046	387.63
411.419	364.65
411.792	395.29
412.165	446.36
412.537	334.01
412.91	326.35
413.283	323.8
413.655	323.8
414.028	379.97
414.4	374.87
414.773	356.99
415.145	349.33
415.517	385.08
415.889	321.25
416.262	385.08
416.634	392.74
417.006	346.78
417.378	364.65
417.75	385.08
418.122	369.76
418.494	369.76
418.866	362.1
419.238	288.05
419.609	334.01
419.981	280.39
420.353	418.28
420.725	456.58
421.096	448.92
421.468	436.15
421.839	395.29
422.211	392.74
422.582	374.87
422.953	377.42
423.325	344.23
423.696	374.87
424.067	410.62
424.438	390.19
424.809	402.95
425.18	349.33
425.551	395.29
425.922	351.89
426.293	433.6
426.664	431.04
427.035	392.74
427.406	385.08
427.776	390.19
428.147	405.51
428.518	362.1
428.888	374.87
429.259	390.19
429.629	408.06
429.999	364.65
430.37	369.76
430.74	364.65
431.11	367.21
431.481	382.53
431.851	334.01
432.221	392.74
432.591	431.04
432.961	362.1
433.331	374.87
433.701	420.83
434.071	385.08
434.441	367.21
434.81	390.19
435.18	405.51
435.55	413.17
435.919	415.72
436.289	372.31
436.658	423.38
437.028	379.97
437.397	339.12
437.767	451.47
438.136	374.87
438.505	405.51
438.875	408.06
439.244	418.28
439.613	387.63
439.982	364.65
440.351	390.19
440.72	356.99
441.089	402.95
441.458	402.95
441.827	415.72
442.196	372.31
442.564	540.84
442.933	405.51
443.302	385.08
443.67	431.04
444.039	359.55
444.407	300.82
444.776	344.23
445.144	461.68
445.513	326.35
445.881	356.99
446.249	400.4
446.617	410.62
446.986	382.53
447.354	377.42
447.722	387.63
448.09	397.85
448.458	372.31
448.826	415.72
449.194	423.38
449.561	408.06
449.929	336.57
450.297	344.23
450.665	359.55
451.032	385.08
451.4	464.24
451.767	392.74
452.135	410.62
452.502	362.1
452.87	390.19
453.237	364.65
453.604	359.55
453.971	397.85
454.339	487.22
454.706	362.1
455.073	400.4
455.44	413.17
455.807	423.38
456.174	359.55
456.541	400.4
456.908	326.35
457.274	502.54
457.641	400.4
458.008	397.85
458.374	433.6
458.741	351.89
459.108	459.13
459.474	351.89
459.841	418.28
460.207	461.68
460.573	456.58
460.94	418.28
461.306	451.47
461.672	428.49
462.038	423.38
462.404	415.72
462.771	377.42
463.137	402.95
463.503	372.31
463.868	405.51
464.234	415.72
464.6	367.21
464.966	400.4
465.332	405.51
465.697	405.51
466.063	395.29
466.429	387.63
466.794	397.85
467.16	395.29
467.525	354.44
467.89	400.4
468.256	402.95
468.621	392.74
468.986	395.29
469.351	334.01
469.717	418.28
470.082	420.83
470.447	359.55
470.812	415.72
471.177	405.51
471.542	433.6
471.906	336.57
472.271	433.6
472.636	390.19
473.001	400.4
473.365	364.65
473.73	448.92
474.094	349.33
474.459	459.13
474.823	397.85
475.188	385.08
475.552	428.49
475.917	351.89
476.281	423.38
476.645	413.17
477.009	420.83
477.373	433.6
477.737	359.55
478.101	431.04
478.465	410.62
478.829	428.49
479.193	410.62
479.557	408.06
479.921	418.28
480.284	413.17
480.648	387.63
481.012	423.38
481.375	413.17
481.739	372.31
482.102	323.8
482.466	418.28
482.829	456.58
483.193	390.19
483.556	446.36
483.919	441.26
484.282	311.03
484.645	431.04
485.009	408.06
485.372	374.87
485.735	387.63
486.098	456.58
486.46	408.06
486.823	464.24
487.186	425.94
487.549	392.74
487.912	385.08
488.274	387.63
488.637	425.94
488.999	420.83
489.362	436.15
489.724	400.4
490.087	382.53
490.449	471.9
490.811	402.95
491.174	410.62
491.536	418.28
491.898	400.4
492.26	397.85
492.622	441.26
492.984	413.17
493.346	372.31
493.708	372.31
494.07	367.21
494.432	377.42
494.794	379.97
495.155	405.51
495.517	379.97
495.879	351.89
496.24	479.56
496.602	341.67
496.963	390.19
497.325	428.49
497.686	400.4
498.048	397.85
498.409	410.62
498.77	367.21
499.131	489.77
499.492	413.17
499.854	346.78
500.215	362.1
500.576	443.81
500.937	469.34
501.298	471.9
501.658	367.21
502.019	410.62
502.38	400.4
502.741	448.92
503.101	469.34
503.462	443.81
503.823	428.49
504.183	377.42
504.543	367.21
504.904	418.28
505.264	344.23
505.625	387.63
505.985	382.53
506.345	443.81
506.705	382.53
507.065	477
507.426	438.7
507.786	405.51
508.146	390.19
508.505	405.51
508.865	415.72
509.225	428.49
509.585	492.32
509.945	423.38
510.304	374.87
510.664	415.72
511.024	413.17
511.383	448.92
511.743	425.94
512.102	395.29
512.462	400.4
512.821	385.08
513.18	367.21
513.539	385.08
513.899	441.26
514.258	464.24
514.617	400.4
514.976	392.74
515.335	349.33
515.694	402.95
516.053	349.33
516.412	428.49
516.771	425.94
517.129	413.17
517.488	431.04
517.847	382.53
518.205	428.49
518.564	410.62
518.922	374.87
519.281	377.42
519.639	436.15
519.998	392.74
520.356	392.74
520.714	344.23
521.073	397.85
521.431	471.9
521.789	451.47
522.147	359.55
522.505	328.91
522.863	346.78
523.221	346.78
523.579	326.35
523.937	367.21
524.295	454.02
524.652	423.38
525.01	438.7
525.368	423.38
525.725	423.38
526.083	369.76
526.44	303.37
526.798	362.1
527.155	395.29
527.513	420.83
527.87	413.17
528.227	379.97
528.584	385.08
528.942	420.83
529.299	408.06
529.656	390.19
530.013	423.38
530.37	405.51
530.727	392.74
531.083	413.17
531.44	413.17
531.797	415.72
532.154	451.47
532.511	400.4
532.867	405.51
533.224	364.65
533.58	425.94
533.937	392.74
534.293	433.6
534.65	385.08
535.006	431.04
535.362	420.83
535.718	425.94
536.075	390.19
536.431	420.83
536.787	387.63
537.143	464.24
537.499	369.76
537.855	459.13
538.211	397.85
538.567	428.49
538.923	415.72
539.278	351.89
539.634	382.53
539.99	459.13
540.345	438.7
540.701	415.72
541.056	441.26
541.412	451.47
541.767	392.74
542.123	423.38
542.478	354.44
542.833	418.28
543.188	387.63
543.544	374.87
543.899	436.15
544.254	385.08
544.609	408.06
544.964	408.06
545.319	405.51
545.674	425.94
546.029	379.97
546.383	362.1
546.738	367.21
547.093	379.97
547.447	410.62
547.802	408.06
548.157	420.83
548.511	402.95
548.866	362.1
549.22	392.74
549.574	372.31
549.929	377.42
550.283	492.32
550.637	359.55
550.991	369.76
551.345	415.72
551.699	418.28
552.053	356.99
552.407	336.57
552.761	397.85
553.115	395.29
553.469	387.63
553.823	392.74
554.176	382.53
554.53	418.28
554.884	395.29
555.237	632.76
555.591	487.22
555.944	364.65
556.298	428.49
556.651	379.97
557.005	397.85
557.358	436.15
557.711	441.26
558.064	377.42
558.417	387.63
558.771	464.24
559.124	379.97
559.477	413.17
559.83	372.31
560.182	387.63
560.535	477
560.888	387.63
561.241	446.36
561.594	431.04
561.946	433.6
562.299	364.65
562.651	331.46
563.004	328.91
563.356	469.34
563.709	497.43
564.061	415.72
564.413	369.76
564.766	387.63
565.118	448.92
565.47	395.29
565.822	334.01
566.174	367.21
566.526	397.85
566.878	392.74
567.23	369.76
567.582	436.15
567.934	464.24
568.286	402.95
568.638	369.76
568.989	459.13
569.341	461.68
569.693	369.76
570.044	456.58
570.396	387.63
570.747	377.42
571.098	356.99
571.45	402.95
571.801	400.4
572.152	351.89
572.504	438.7
572.855	448.92
573.206	318.69
573.557	418.28
573.908	446.36
574.259	377.42
574.61	351.89
574.961	423.38
575.311	438.7
575.662	425.94
576.013	428.49
576.364	502.54
576.714	451.47
577.065	367.21
577.415	415.72
577.766	448.92
578.116	433.6
578.467	433.6
578.817	367.21
579.167	318.69
579.518	382.53
579.868	420.83
580.218	349.33
580.568	413.17
580.918	438.7
581.268	385.08
581.618	387.63
581.968	382.53
582.318	379.97
582.668	413.17
583.017	405.51
583.367	382.53
583.717	339.12
584.066	362.1
584.416	379.97
584.765	405.51
585.115	379.97
585.464	443.81
585.814	369.76
586.163	443.81
586.512	415.72
586.862	377.42
587.211	374.87
587.56	321.25
587.909	425.94
588.258	374.87
588.607	372.31
588.956	431.04
589.305	390.19
589.654	390.19
590.002	359.55
590.351	400.4
590.7	464.24
591.048	428.49
591.397	408.06
591.746	382.53
592.094	367.21
592.443	359.55
592.791	377.42
593.139	448.92
593.488	420.83
593.836	367.21
594.184	443.81
594.532	392.74
594.88	443.81
595.228	362.1
595.576	408.06
595.924	436.15
596.272	405.51
596.62	339.12
596.968	359.55
597.316	408.06
597.664	385.08
598.011	374.87
598.359	418.28
598.706	423.38
599.054	443.81
599.402	456.58
599.749	456.58
600.096	372.31
600.444	390.19
600.791	354.44
601.138	303.37
601.485	446.36
601.833	379.97
602.18	428.49
602.527	400.4
602.874	374.87
603.221	400.4
603.568	392.74
603.914	382.53
604.261	311.03
604.608	400.4
604.955	356.99
605.301	349.33
605.648	349.33
605.995	436.15
606.341	443.81
606.688	464.24
607.034	418.28
607.38	362.1
607.727	415.72
608.073	400.4
608.419	425.94
608.765	402.95
609.112	379.97
609.458	369.76
609.804	459.13
610.15	431.04
610.496	400.4
610.842	392.74
611.187	387.63
611.533	392.74
611.879	346.78
612.225	367.21
612.57	410.62
612.916	305.93
613.261	364.65
613.607	459.13
613.952	336.57
614.298	377.42
614.643	397.85
614.989	395.29
615.334	372.31
615.679	454.02
616.024	484.66
616.369	413.17
616.714	395.29
617.059	400.4
617.404	461.68
617.749	405.51
618.094	364.65
618.439	400.4
618.784	402.95
619.129	397.85
619.473	400.4
619.818	364.65
620.163	428.49
620.507	446.36
620.852	428.49
621.196	382.53
621.54	364.65
621.885	438.7
622.229	405.51
622.573	428.49
622.918	400.4
623.262	431.04
623.606	402.95
623.95	395.29
624.294	443.81
624.638	367.21
624.982	377.42
625.326	446.36
625.67	400.4
626.013	405.51
626.357	392.74
626.701	387.63
627.044	334.01
627.388	402.95
627.731	405.51
628.075	339.12
628.418	408.06
628.762	431.04
629.105	354.44
629.448	354.44
629.792	443.81
630.135	367.21
630.478	382.53
630.821	349.33
631.164	359.55
631.507	359.55
631.85	428.49
632.193	400.4
632.536	377.42
632.879	423.38
633.221	382.53
633.564	356.99
633.907	484.66
634.249	341.67
634.592	425.94
634.935	364.65
635.277	418.28
635.619	349.33
635.962	390.19
636.304	379.97
636.646	359.55
636.989	397.85
637.331	356.99
637.673	438.7
638.015	372.31
638.357	336.57
638.699	372.31
639.041	387.63
639.383	331.46
639.725	385.08
640.067	423.38
640.408	390.19
640.75	408.06
641.092	354.44
641.433	374.87
641.775	405.51
642.116	408.06
642.458	362.1
642.799	400.4
643.141	328.91
643.482	328.91
643.823	392.74
644.164	436.15
644.506	454.02
644.847	392.74
645.188	423.38
645.529	359.55
645.87	415.72
646.211	339.12
646.552	369.76
646.893	339.12
647.233	382.53
647.574	431.04
647.915	387.63
648.255	438.7
648.596	402.95
648.937	420.83
649.277	316.14
649.618	408.06
649.958	433.6
650.298	441.26
650.639	402.95
650.979	418.28
651.319	367.21
651.659	410.62
651.999	408.06
652.339	364.65
652.679	392.74
653.019	346.78
653.359	392.74
653.699	397.85
654.039	354.44
654.379	379.97
654.719	336.57
655.058	415.72
655.398	423.38
655.737	461.68
656.077	356.99
656.416	362.1
656.756	344.23
657.095	369.76
657.435	438.7
657.774	321.25
658.113	441.26
658.452	369.76
658.792	433.6
659.131	418.28
659.47	395.29
659.809	387.63
660.148	418.28
660.487	385.08
660.826	392.74
661.164	328.91
661.503	336.57
661.842	438.7
662.181	436.15
662.519	395.29
662.858	448.92
663.196	402.95
663.535	408.06
663.873	436.15
664.212	400.4
664.55	362.1
664.888	410.62
665.226	443.81
665.565	374.87
665.903	617.44
666.241	395.29
666.579	433.6
666.917	379.97
667.255	379.97
667.593	354.44
667.931	385.08
668.268	379.97
668.606	362.1
668.944	418.28
669.282	441.26
669.619	359.55
669.957	428.49
670.294	425.94
670.632	443.81
670.969	428.49
671.307	418.28
671.644	336.57
671.981	328.91
672.318	410.62
672.656	356.99
672.993	382.53
673.33	397.85
673.667	382.53
674.004	402.95
674.341	418.28
674.678	431.04
675.015	413.17
675.351	451.47
675.688	385.08
676.025	392.74
676.362	397.85
676.698	374.87
677.035	397.85
677.371	395.29
677.708	349.33
678.044	326.35
678.38	405.51
678.717	367.21
679.053	400.4
679.389	454.02
679.725	423.38
680.062	385.08
680.398	336.57
680.734	413.17
681.07	328.91
681.406	334.01
681.742	364.65
682.077	367.21
682.413	456.58
682.749	423.38
683.085	379.97
683.42	425.94
683.756	474.45
684.091	364.65
684.427	379.97
684.762	428.49
685.098	400.4
685.433	436.15
685.768	415.72
686.104	402.95
686.439	392.74
686.774	413.17
687.109	451.47
687.444	461.68
687.779	318.69
688.114	395.29
688.449	379.97
688.784	408.06
689.119	341.67
689.454	321.25
689.789	313.59
690.123	433.6
690.458	382.53
690.792	405.51
691.127	354.44
691.461	349.33
691.796	420.83
692.13	420.83
692.465	308.48
692.799	431.04
693.133	408.06
693.467	397.85
693.802	402.95
694.136	351.89
694.47	387.63
694.804	397.85
695.138	397.85
695.472	379.97
695.806	385.08
696.139	423.38
696.473	413.17
696.807	428.49
697.141	356.99
697.474	385.08
697.808	446.36
698.141	425.94
698.475	433.6
698.808	356.99
699.142	410.62
699.475	379.97
699.808	425.94
700.142	425.94
700.475	372.31
700.808	454.02
701.141	377.42
701.474	441.26
701.807	415.72
702.14	390.19
702.473	390.19
702.806	392.74
703.139	387.63
703.472	410.62
703.804	377.42
704.137	459.13
704.47	410.62
704.802	341.67
705.135	397.85
705.467	336.57
705.8	413.17
706.132	346.78
706.464	420.83
706.797	397.85
707.129	336.57
707.461	369.76
707.793	418.28
708.125	433.6
708.457	408.06
708.789	428.49
709.121	331.46
709.453	402.95
709.785	334.01
710.117	351.89
710.449	392.74
710.781	364.65
711.112	359.55
711.444	344.23
711.775	374.87
712.107	420.83
712.438	354.44
712.77	331.46
713.101	374.87
713.433	313.59
713.764	311.03
714.095	410.62
714.426	385.08
714.757	405.51
715.089	415.72
715.42	441.26
715.751	382.53
716.082	354.44
716.412	354.44
716.743	431.04
717.074	367.21
717.405	405.51
717.736	354.44
718.066	364.65
718.397	438.7
718.727	402.95
719.058	374.87
719.388	374.87
719.719	415.72
720.049	443.81
720.38	410.62
720.71	425.94
721.04	395.29
721.37	441.26
721.7	385.08
722.031	331.46
722.361	359.55
722.691	420.83
723.021	372.31
723.35	415.72
723.68	379.97
724.01	377.42
724.34	387.63
724.67	395.29
724.999	390.19
725.329	418.28
725.658	387.63
725.988	382.53
726.317	323.8
726.647	367.21
726.976	362.1
727.306	413.17
727.635	431.04
727.964	282.95
728.293	372.31
728.622	415.72
728.952	323.8
729.281	423.38
729.61	334.01
729.939	390.19
730.267	385.08
730.596	410.62
730.925	466.79
731.254	410.62
731.583	377.42
731.911	339.12
732.24	382.53
732.568	415.72
732.897	336.57
733.225	346.78
733.554	377.42
733.882	446.36
734.21	395.29
734.539	443.81
734.867	372.31
735.195	464.24
735.523	344.23
735.851	369.76
736.179	446.36
736.507	456.58
736.835	364.65
737.163	390.19
737.491	341.67
737.819	471.9
738.147	390.19
738.474	400.4
738.802	392.74
739.13	482.11
739.457	316.14
739.785	377.42
740.112	382.53
740.44	400.4
740.767	336.57
741.094	397.85
741.422	387.63
741.749	441.26
742.076	372.31
742.403	311.03
742.73	321.25
743.057	346.78
743.384	402.95
743.711	354.44
744.038	349.33
744.365	431.04
744.692	382.53
745.018	359.55
745.345	395.29
745.672	397.85
745.998	356.99
746.325	344.23
746.651	372.31
746.978	359.55
747.304	367.21
747.631	402.95
747.957	405.51
748.283	390.19
748.61	423.38
748.936	423.38
749.262	410.62
749.588	339.12
749.914	408.06
750.24	328.91
750.566	385.08
750.892	392.74
751.218	402.95
751.543	397.85
751.869	372.31
752.195	385.08
752.521	359.55
752.846	359.55
753.172	341.67
753.497	354.44
753.823	379.97
754.148	382.53
754.473	408.06
754.799	395.29
755.124	441.26
755.449	423.38
755.774	323.8
756.1	372.31
756.425	405.51
756.75	448.92
757.075	390.19
757.4	517.86
757.724	410.62
758.049	410.62
758.374	418.28
758.699	377.42
759.024	446.36
759.348	392.74
759.673	413.17
759.997	377.42
760.322	392.74
760.646	420.83
760.971	334.01
761.295	395.29
761.619	418.28
761.944	369.76
762.268	387.63
762.592	359.55
762.916	405.51
763.24	448.92
763.564	382.53
763.888	418.28
764.212	418.28
764.536	415.72
764.86	382.53
765.184	405.51
765.508	367.21
765.831	392.74
766.155	584.24
766.478	451.47
766.802	400.4
767.126	336.57
767.449	395.29
767.772	408.06
768.096	408.06
768.419	392.74
768.742	372.31
769.066	461.68
769.389	397.85
769.712	413.17
770.035	349.33
770.358	374.87
770.681	408.06
771.004	346.78
771.327	385.08
771.65	372.31
771.972	349.33
772.295	367.21
772.618	387.63
772.941	344.23
773.263	431.04
773.586	433.6
773.908	387.63
774.231	372.31
774.553	379.97
774.875	331.46
775.198	456.58
775.52	402.95
775.842	400.4
776.164	423.38
776.487	410.62
776.809	385.08
777.131	385.08
777.453	408.06
777.775	328.91
778.096	392.74
778.418	374.87
778.74	400.4
779.062	331.46
779.384	469.34
779.705	349.33
780.027	420.83
780.348	402.95
780.67	379.97
780.991	346.78
781.313	438.7
781.634	428.49
781.955	431.04
782.277	402.95
782.598	356.99
782.919	428.49
783.24	474.45
783.561	377.42
783.882	431.04
784.203	392.74
784.524	351.89
784.845	400.4
785.166	372.31
785.487	336.57
785.807	385.08
786.128	405.51
786.449	367.21
786.769	374.87
787.09	418.28
787.41	400.4
787.731	446.36
788.051	392.74
788.372	359.55
788.692	351.89
789.012	413.17
789.332	390.19
789.653	446.36
789.973	402.95
790.293	405.51
790.613	446.36
790.933	402.95
791.253	405.51
791.573	390.19
791.893	405.51
792.212	374.87
792.532	328.91
792.852	359.55
793.171	351.89
793.491	385.08
793.811	385.08
794.13	336.57
794.45	382.53
794.769	385.08
795.088	431.04
795.408	405.51
795.727	351.89
796.046	364.65
796.365	395.29
796.684	351.89
797.004	385.08
797.323	379.97
797.642	364.65
797.96	385.08
798.279	405.51
798.598	400.4
798.917	382.53
799.236	385.08
799.554	354.44
799.873	379.97
800.192	362.1
800.51	339.12
800.829	339.12
801.147	349.33
801.466	341.67
801.784	374.87
