Data from 2025-12-03_xpw_interference_micrometer_634_dark_FLMS141361__99__249.txt Node

Date: Wed Dec 03 15:50:09 MST 2025
User: james
Spectrometer: FLMS14136
Trigger mode: 0
Integration Time (sec): 1.000000E-1
Scans to average: 1
Electric dark correction enabled: true
Nonlinearity correction enabled: false
Boxcar width: 0
XAxis mode: Wavelengths
Number of Pixels in Spectrum: 2048
>>>>>Begin Spectral Data<<<<<
339.315	-64.95
339.697	-64.95
340.079	-64.95
340.461	-128.79
340.843	-149.21
341.225	-64.95
341.607	-90.49
341.989	-54.74
342.371	-80.27
342.752	-141.55
343.134	-49.63
343.516	-6.22
343.897	-18.99
344.279	-57.29
344.661	19.31
345.042	19.31
345.423	72.93
345.805	49.95
346.186	169.96
346.567	70.38
346.949	162.3
347.33	146.98
347.711	208.26
348.092	185.28
348.473	213.37
348.854	198.05
349.235	292.52
349.616	251.67
349.997	274.65
350.378	351.25
350.758	328.27
351.139	302.73
351.52	307.84
351.9	295.07
352.281	323.16
352.661	335.93
353.042	379.34
353.422	402.32
353.803	427.85
354.183	364.02
354.563	346.14
354.943	392.1
355.324	394.66
355.704	432.96
356.084	389.55
356.464	269.54
356.844	328.27
357.224	364.02
357.603	379.34
357.983	284.86
358.363	420.19
358.743	392.1
359.122	348.7
359.502	376.78
359.882	397.21
360.261	402.32
360.641	384.44
361.02	392.1
361.399	320.61
361.779	320.61
362.158	333.38
362.537	318.06
362.916	318.06
363.296	307.84
363.675	374.23
364.054	399.76
364.433	346.14
364.812	402.32
365.19	315.5
365.569	328.27
365.948	376.78
366.327	330.82
366.705	338.48
367.084	335.93
367.463	371.68
367.841	320.61
368.22	369.12
368.598	315.5
368.977	346.14
369.355	307.84
369.733	333.38
370.111	330.82
370.49	310.4
370.868	295.07
371.246	346.14
371.624	307.84
372.002	369.12
372.38	302.73
372.758	371.68
373.136	361.46
373.513	361.46
373.891	341.04
374.269	348.7
374.646	338.48
375.024	323.16
375.402	394.66
375.779	364.02
376.157	335.93
376.534	351.25
376.911	348.7
377.289	379.34
377.666	353.8
378.043	356.36
378.42	379.34
378.797	438.06
379.175	315.5
379.552	379.34
379.929	315.5
380.305	341.04
380.682	397.21
381.059	346.14
381.436	376.78
381.813	422.74
382.189	384.44
382.566	356.36
382.943	427.85
383.319	371.68
383.696	318.06
384.072	338.48
384.448	376.78
384.825	351.25
385.201	369.12
385.577	351.25
385.953	381.89
386.329	361.46
386.706	353.8
387.082	346.14
387.458	343.59
387.834	353.8
388.209	323.16
388.585	297.63
388.961	381.89
389.337	302.73
389.713	379.34
390.088	348.7
390.464	284.86
390.839	384.44
391.215	389.55
391.59	422.74
391.966	402.32
392.341	422.74
392.716	287.41
393.092	315.5
393.467	343.59
393.842	318.06
394.217	384.44
394.592	376.78
394.967	320.61
395.342	399.76
395.717	310.4
396.092	384.44
396.467	346.14
396.841	358.91
397.216	341.04
397.591	292.52
397.965	323.16
398.34	356.36
398.714	335.93
399.089	369.12
399.463	343.59
399.838	348.7
400.212	402.32
400.586	366.57
400.961	458.49
401.335	409.98
401.709	402.32
402.083	333.38
402.457	346.14
402.831	346.14
403.205	315.5
403.579	338.48
403.953	379.34
404.326	402.32
404.7	381.89
405.074	346.14
405.447	371.68
405.821	366.57
406.195	328.27
406.568	338.48
406.942	407.42
407.315	328.27
407.688	325.72
408.062	341.04
408.435	417.64
408.808	356.36
409.181	320.61
409.554	387
409.927	369.12
410.3	387
410.673	392.1
411.046	338.48
411.419	417.64
411.792	412.53
412.165	361.46
412.537	450.83
412.91	417.64
413.283	381.89
413.655	384.44
414.028	297.63
414.4	392.1
414.773	427.85
415.145	445.72
415.517	374.23
415.889	432.96
416.262	379.34
416.634	361.46
417.006	312.95
417.378	445.72
417.75	353.8
418.122	381.89
418.494	358.91
418.866	358.91
419.238	364.02
419.609	384.44
419.981	384.44
420.353	325.72
420.725	351.25
421.096	348.7
421.468	415.08
421.839	389.55
422.211	412.53
422.582	384.44
422.953	407.42
423.325	420.19
423.696	341.04
424.067	358.91
424.438	389.55
424.809	443.17
425.18	381.89
425.551	461.04
425.922	463.6
426.293	402.32
426.664	369.12
427.035	450.83
427.406	381.89
427.776	409.98
428.147	358.91
428.518	376.78
428.888	381.89
429.259	369.12
429.629	427.85
429.999	376.78
430.37	366.57
430.74	435.51
431.11	361.46
431.481	366.57
431.851	392.1
432.221	412.53
432.591	425.3
432.961	374.23
433.331	366.57
433.701	455.94
434.071	394.66
434.441	353.8
434.81	364.02
435.18	468.7
435.55	384.44
435.919	384.44
436.289	374.23
436.658	389.55
437.028	315.5
437.397	384.44
437.767	384.44
438.136	358.91
438.505	432.96
438.875	376.78
439.244	369.12
439.613	455.94
439.982	371.68
440.351	404.87
440.72	397.21
441.089	402.32
441.458	420.19
441.827	384.44
442.196	323.16
442.564	427.85
442.933	404.87
443.302	366.57
443.67	415.08
444.039	384.44
444.407	407.42
444.776	379.34
445.144	376.78
445.513	415.08
445.881	430.4
446.249	422.74
446.617	330.82
446.986	376.78
447.354	394.66
447.722	361.46
448.09	358.91
448.458	348.7
448.826	458.49
449.194	384.44
449.561	369.12
449.929	417.64
450.297	432.96
450.665	432.96
451.032	445.72
451.4	346.14
451.767	366.57
452.135	384.44
452.502	374.23
452.87	369.12
453.237	376.78
453.604	407.42
453.971	394.66
454.339	379.34
454.706	361.46
455.073	381.89
455.44	392.1
455.807	404.87
456.174	361.46
456.541	379.34
456.908	389.55
457.274	369.12
457.641	415.08
458.008	404.87
458.374	381.89
458.741	458.49
459.108	346.14
459.474	409.98
459.841	348.7
460.207	384.44
460.573	438.06
460.94	371.68
461.306	448.28
461.672	407.42
462.038	420.19
462.404	392.1
462.771	369.12
463.137	422.74
463.503	356.36
463.868	371.68
464.234	415.08
464.6	417.64
464.966	389.55
465.332	397.21
465.697	409.98
466.063	338.48
466.429	427.85
466.794	366.57
467.16	397.21
467.525	407.42
467.89	361.46
468.256	366.57
468.621	422.74
468.986	438.06
469.351	458.49
469.717	455.94
470.082	366.57
470.447	389.55
470.812	422.74
471.177	407.42
471.542	461.04
471.906	438.06
472.271	351.25
472.636	364.02
473.001	387
473.365	335.93
473.73	381.89
474.094	384.44
474.459	394.66
474.823	443.17
475.188	330.82
475.552	435.51
475.917	420.19
476.281	425.3
476.645	420.19
477.009	379.34
477.373	364.02
477.737	443.17
478.101	384.44
478.465	412.53
478.829	371.68
479.193	353.8
479.557	384.44
479.921	328.27
480.284	389.55
480.648	430.4
481.012	455.94
481.375	450.83
481.739	392.1
482.102	376.78
482.466	397.21
482.829	435.51
483.193	443.17
483.556	374.23
483.919	427.85
484.282	453.38
484.645	328.27
485.009	333.38
485.372	312.95
485.735	397.21
486.098	369.12
486.46	392.1
486.823	404.87
487.186	404.87
487.549	402.32
487.912	407.42
488.274	409.98
488.637	369.12
488.999	389.55
489.362	353.8
489.724	346.14
490.087	397.21
490.449	473.81
490.811	443.17
491.174	430.4
491.536	417.64
491.898	325.72
492.26	415.08
492.622	420.19
492.984	438.06
493.346	361.46
493.708	371.68
494.07	369.12
494.432	392.1
494.794	356.36
495.155	369.12
495.517	394.66
495.879	427.85
496.24	399.76
496.602	397.21
496.963	381.89
497.325	369.12
497.686	402.32
498.048	392.1
498.409	381.89
498.77	430.4
499.131	381.89
499.492	409.98
499.854	399.76
500.215	440.62
500.576	361.46
500.937	455.94
501.298	432.96
501.658	417.64
502.019	422.74
502.38	384.44
502.741	328.27
503.101	333.38
503.462	381.89
503.823	384.44
504.183	404.87
504.543	335.93
504.904	471.26
505.264	353.8
505.625	338.48
505.985	364.02
506.345	335.93
506.705	397.21
507.065	364.02
507.426	417.64
507.786	374.23
508.146	335.93
508.505	427.85
508.865	358.91
509.225	397.21
509.585	461.04
509.945	422.74
510.304	392.1
510.664	443.17
511.024	402.32
511.383	381.89
511.743	358.91
512.102	374.23
512.462	430.4
512.821	440.62
513.18	404.87
513.539	371.68
513.899	471.26
514.258	478.92
514.617	473.81
514.976	333.38
515.335	425.3
515.694	356.36
516.053	407.42
516.412	374.23
516.771	440.62
517.129	415.08
517.488	392.1
517.847	407.42
518.205	450.83
518.564	448.28
518.922	353.8
519.281	394.66
519.639	427.85
519.998	402.32
520.356	397.21
520.714	364.02
521.073	466.15
521.431	448.28
521.789	415.08
522.147	448.28
522.505	353.8
522.863	409.98
523.221	397.21
523.579	430.4
523.937	407.42
524.295	343.59
524.652	473.81
525.01	448.28
525.368	402.32
525.725	341.04
526.083	461.04
526.44	420.19
526.798	387
527.155	328.27
527.513	415.08
527.87	392.1
528.227	417.64
528.584	376.78
528.942	361.46
529.299	364.02
529.656	415.08
530.013	325.72
530.37	438.06
530.727	430.4
531.083	353.8
531.44	348.7
531.797	432.96
532.154	478.92
532.511	478.92
532.867	364.02
533.224	453.38
533.58	384.44
533.937	361.46
534.293	356.36
534.65	399.76
535.006	374.23
535.362	420.19
535.718	328.27
536.075	443.17
536.431	376.78
536.787	364.02
537.143	397.21
537.499	397.21
537.855	358.91
538.211	387
538.567	389.55
538.923	417.64
539.278	422.74
539.634	448.28
539.99	407.42
540.345	463.6
540.701	422.74
541.056	409.98
541.412	407.42
541.767	463.6
542.123	409.98
542.478	318.06
542.833	432.96
543.188	361.46
543.544	374.23
543.899	422.74
544.254	402.32
544.609	450.83
544.964	430.4
545.319	374.23
545.674	389.55
546.029	374.23
546.383	371.68
546.738	341.04
547.093	461.04
547.447	392.1
547.802	404.87
548.157	364.02
548.511	379.34
548.866	392.1
549.22	409.98
549.574	374.23
549.929	333.38
550.283	412.53
550.637	384.44
550.991	397.21
551.345	420.19
551.699	445.72
552.053	394.66
552.407	409.98
552.761	448.28
553.115	412.53
553.469	394.66
553.823	328.27
554.176	412.53
554.53	417.64
554.884	399.76
555.237	619.35
555.591	453.38
555.944	389.55
556.298	438.06
556.651	381.89
557.005	348.7
557.358	348.7
557.711	402.32
558.064	407.42
558.417	374.23
558.771	509.56
559.124	427.85
559.477	404.87
559.83	417.64
560.182	435.51
560.535	427.85
560.888	381.89
561.241	389.55
561.594	361.46
561.946	323.16
562.299	315.5
562.651	384.44
563.004	422.74
563.356	338.48
563.709	404.87
564.061	448.28
564.413	312.95
564.766	364.02
565.118	412.53
565.47	404.87
565.822	402.32
566.174	379.34
566.526	358.91
566.878	415.08
567.23	404.87
567.582	364.02
567.934	407.42
568.286	407.42
568.638	379.34
568.989	389.55
569.341	379.34
569.693	402.32
570.044	402.32
570.396	392.1
570.747	381.89
571.098	432.96
571.45	394.66
571.801	389.55
572.152	440.62
572.504	415.08
572.855	409.98
573.206	353.8
573.557	422.74
573.908	407.42
574.259	440.62
574.61	463.6
574.961	409.98
575.311	430.4
575.662	407.42
576.013	356.36
576.364	399.76
576.714	381.89
577.065	453.38
577.415	387
577.766	448.28
578.116	417.64
578.467	394.66
578.817	445.72
579.167	371.68
579.518	376.78
579.868	407.42
580.218	374.23
580.568	435.51
580.918	369.12
581.268	381.89
581.618	494.24
581.968	430.4
582.318	455.94
582.668	412.53
583.017	384.44
583.367	369.12
583.717	361.46
584.066	435.51
584.416	430.4
584.765	369.12
585.115	432.96
585.464	430.4
585.814	399.76
586.163	407.42
586.512	407.42
586.862	430.4
587.211	335.93
587.56	356.36
587.909	422.74
588.258	448.28
588.607	341.04
588.956	422.74
589.305	381.89
589.654	384.44
590.002	341.04
590.351	404.87
590.7	420.19
591.048	450.83
591.397	384.44
591.746	323.16
592.094	384.44
592.443	397.21
592.791	361.46
593.139	353.8
593.488	343.59
593.836	450.83
594.184	422.74
594.532	333.38
594.88	466.15
595.228	476.36
595.576	366.57
595.924	364.02
596.272	420.19
596.62	353.8
596.968	348.7
597.316	473.81
597.664	353.8
598.011	371.68
598.359	389.55
598.706	438.06
599.054	364.02
599.402	409.98
599.749	389.55
600.096	438.06
600.444	412.53
600.791	404.87
601.138	397.21
601.485	407.42
601.833	381.89
602.18	425.3
602.527	409.98
602.874	392.1
603.221	417.64
603.568	404.87
603.914	379.34
604.261	397.21
604.608	420.19
604.955	376.78
605.301	333.38
605.648	315.5
605.995	376.78
606.341	387
606.688	371.68
607.034	333.38
607.38	402.32
607.727	478.92
608.073	366.57
608.419	369.12
608.765	384.44
609.112	430.4
609.458	392.1
609.804	397.21
610.15	341.04
610.496	435.51
610.842	346.14
611.187	389.55
611.533	407.42
611.879	374.23
612.225	389.55
612.57	412.53
612.916	387
613.261	392.1
613.607	394.66
613.952	356.36
614.298	420.19
614.643	366.57
614.989	409.98
615.334	409.98
615.679	376.78
616.024	376.78
616.369	468.7
616.714	402.32
617.059	387
617.404	376.78
617.749	335.93
618.094	392.1
618.439	404.87
618.784	397.21
619.129	448.28
619.473	438.06
619.818	415.08
620.163	338.48
620.507	366.57
620.852	427.85
621.196	412.53
621.54	343.59
621.885	397.21
622.229	468.7
622.573	361.46
622.918	374.23
623.262	364.02
623.606	371.68
623.95	412.53
624.294	399.76
624.638	425.3
624.982	394.66
625.326	328.27
625.67	348.7
626.013	376.78
626.357	374.23
626.701	399.76
627.044	448.28
627.388	438.06
627.731	412.53
628.075	425.3
628.418	407.42
628.762	407.42
629.105	315.5
629.448	425.3
629.792	409.98
630.135	392.1
630.478	397.21
630.821	509.56
631.164	425.3
631.507	381.89
631.85	471.26
632.193	381.89
632.536	392.1
632.879	364.02
633.221	389.55
633.564	376.78
633.907	399.76
634.249	476.36
634.592	353.8
634.935	366.57
635.277	407.42
635.619	448.28
635.962	435.51
636.304	369.12
636.646	387
636.989	397.21
637.331	371.68
637.673	461.04
638.015	356.36
638.357	341.04
638.699	402.32
639.041	318.06
639.383	392.1
639.725	422.74
640.067	394.66
640.408	409.98
640.75	397.21
641.092	369.12
641.433	379.34
641.775	409.98
642.116	376.78
642.458	381.89
642.799	335.93
643.141	356.36
643.482	346.14
643.823	402.32
644.164	394.66
644.506	468.7
644.847	407.42
645.188	422.74
645.529	374.23
645.87	384.44
646.211	387
646.552	361.46
646.893	394.66
647.233	445.72
647.574	389.55
647.915	407.42
648.255	379.34
648.596	358.91
648.937	384.44
649.277	330.82
649.618	381.89
649.958	356.36
650.298	361.46
650.639	445.72
650.979	409.98
651.319	348.7
651.659	387
651.999	425.3
652.339	379.34
652.679	320.61
653.019	427.85
653.359	356.36
653.699	369.12
654.039	392.1
654.379	404.87
654.719	346.14
655.058	387
655.398	427.85
655.737	440.62
656.077	455.94
656.416	407.42
656.756	417.64
657.095	346.14
657.435	387
657.774	384.44
658.113	392.1
658.452	381.89
658.792	335.93
659.131	376.78
659.47	399.76
659.809	364.02
660.148	440.62
660.487	387
660.826	432.96
661.164	438.06
661.503	348.7
661.842	407.42
662.181	392.1
662.519	379.34
662.858	438.06
663.196	341.04
663.535	387
663.873	394.66
664.212	412.53
664.55	427.85
664.888	302.73
665.226	356.36
665.565	409.98
665.903	614.25
666.241	387
666.579	369.12
666.917	387
667.255	407.42
667.593	320.61
667.931	392.1
668.268	453.38
668.606	381.89
668.944	341.04
669.282	420.19
669.619	328.27
669.957	435.51
670.294	384.44
670.632	364.02
670.969	402.32
671.307	376.78
671.644	394.66
671.981	364.02
672.318	353.8
672.656	389.55
672.993	392.1
673.33	440.62
673.667	323.16
674.004	364.02
674.341	412.53
674.678	435.51
675.015	427.85
675.351	389.55
675.688	379.34
676.025	455.94
676.362	384.44
676.698	417.64
677.035	427.85
677.371	392.1
677.708	420.19
678.044	379.34
678.38	381.89
678.717	407.42
679.053	394.66
679.389	412.53
679.725	346.14
680.062	430.4
680.398	412.53
680.734	409.98
681.07	358.91
681.406	371.68
681.742	356.36
682.077	404.87
682.413	387
682.749	438.06
683.085	450.83
683.42	376.78
683.756	318.06
684.091	351.25
684.427	397.21
684.762	392.1
685.098	341.04
685.433	371.68
685.768	333.38
686.104	351.25
686.439	409.98
686.774	425.3
687.109	404.87
687.444	328.27
687.779	374.23
688.114	392.1
688.449	353.8
688.784	353.8
689.119	361.46
689.454	379.34
689.789	420.19
690.123	425.3
690.458	409.98
690.792	384.44
691.127	402.32
691.461	366.57
691.796	394.66
692.13	366.57
692.465	384.44
692.799	379.34
693.133	381.89
693.467	415.08
693.802	448.28
694.136	435.51
694.47	432.96
694.804	415.08
695.138	415.08
695.472	341.04
695.806	318.06
696.139	364.02
696.473	425.3
696.807	430.4
697.141	307.84
697.474	412.53
697.808	425.3
698.141	369.12
698.475	330.82
698.808	341.04
699.142	404.87
699.475	389.55
699.808	346.14
700.142	348.7
700.475	338.48
700.808	394.66
701.141	381.89
701.474	402.32
701.807	412.53
702.14	387
702.473	374.23
702.806	404.87
703.139	379.34
703.472	466.15
703.804	422.74
704.137	333.38
704.47	307.84
704.802	402.32
705.135	399.76
705.467	374.23
705.8	445.72
706.132	422.74
706.464	430.4
706.797	407.42
707.129	389.55
707.461	358.91
707.793	425.3
708.125	438.06
708.457	346.14
708.789	387
709.121	381.89
709.453	481.47
709.785	422.74
710.117	381.89
710.449	371.68
710.781	374.23
711.112	351.25
711.444	379.34
711.775	399.76
712.107	353.8
712.438	358.91
712.77	389.55
713.101	402.32
713.433	325.72
713.764	328.27
714.095	366.57
714.426	407.42
714.757	425.3
715.089	397.21
715.42	371.68
715.751	351.25
716.082	387
716.412	420.19
716.743	392.1
717.074	389.55
717.405	384.44
717.736	356.36
718.066	330.82
718.397	425.3
718.727	427.85
719.058	420.19
719.388	422.74
719.719	394.66
720.049	394.66
720.38	371.68
720.71	371.68
721.04	384.44
721.37	379.34
721.7	435.51
722.031	389.55
722.361	353.8
722.691	399.76
723.021	361.46
723.35	343.59
723.68	458.49
724.01	364.02
724.34	381.89
724.67	420.19
724.999	430.4
725.329	376.78
725.658	394.66
725.988	425.3
726.317	346.14
726.647	371.68
726.976	305.29
727.306	369.12
727.635	364.02
727.964	392.1
728.293	333.38
728.622	407.42
728.952	381.89
729.281	348.7
729.61	440.62
729.939	307.84
730.267	295.07
730.596	455.94
730.925	402.32
731.254	361.46
731.583	392.1
731.911	371.68
732.24	358.91
732.568	379.34
732.897	358.91
733.225	369.12
733.554	394.66
733.882	361.46
734.21	407.42
734.539	453.38
734.867	341.04
735.195	389.55
735.523	440.62
735.851	407.42
736.179	415.08
736.507	409.98
736.835	412.53
737.163	397.21
737.491	402.32
737.819	379.34
738.147	387
738.474	399.76
738.802	412.53
739.13	435.51
739.457	397.21
739.785	438.06
740.112	356.36
740.44	364.02
740.767	420.19
741.094	438.06
741.422	351.25
741.749	361.46
742.076	364.02
742.403	351.25
742.73	438.06
743.057	379.34
743.384	379.34
743.711	425.3
744.038	491.68
744.365	478.92
744.692	468.7
745.018	376.78
745.345	374.23
745.672	478.92
745.998	397.21
746.325	366.57
746.651	392.1
746.978	379.34
747.304	366.57
747.631	458.49
747.957	351.25
748.283	404.87
748.61	341.04
748.936	407.42
749.262	407.42
749.588	445.72
749.914	430.4
750.24	379.34
750.566	448.28
750.892	397.21
751.218	455.94
751.543	361.46
751.869	448.28
752.195	392.1
752.521	417.64
752.846	353.8
753.172	384.44
753.497	356.36
753.823	348.7
754.148	432.96
754.473	404.87
754.799	420.19
755.124	448.28
755.449	346.14
755.774	420.19
756.1	348.7
756.425	397.21
756.75	402.32
757.075	392.1
757.4	555.52
757.724	376.78
758.049	371.68
758.374	399.76
758.699	379.34
759.024	415.08
759.348	392.1
759.673	389.55
759.997	366.57
760.322	392.1
760.646	404.87
760.971	379.34
761.295	371.68
761.619	387
761.944	374.23
762.268	338.48
762.592	417.64
762.916	364.02
763.24	402.32
763.564	302.73
763.888	397.21
764.212	376.78
764.536	420.19
764.86	318.06
765.184	404.87
765.508	346.14
765.831	402.32
766.155	555.52
766.478	366.57
766.802	364.02
767.126	417.64
767.449	404.87
767.772	450.83
768.096	402.32
768.419	343.59
768.742	427.85
769.066	369.12
769.389	376.78
769.712	404.87
770.035	404.87
770.358	325.72
770.681	387
771.004	315.5
771.327	338.48
771.65	379.34
771.972	371.68
772.295	335.93
772.618	361.46
772.941	407.42
773.263	381.89
773.586	333.38
773.908	392.1
774.231	409.98
774.553	397.21
774.875	379.34
775.198	430.4
775.52	364.02
775.842	341.04
776.164	397.21
776.487	397.21
776.809	438.06
777.131	379.34
777.453	404.87
777.775	376.78
778.096	387
778.418	412.53
778.74	371.68
779.062	358.91
779.384	402.32
779.705	376.78
780.027	389.55
780.348	338.48
780.67	412.53
780.991	379.34
781.313	295.07
781.634	387
781.955	397.21
782.277	364.02
782.598	356.36
782.919	427.85
783.24	443.17
783.561	407.42
783.882	420.19
784.203	412.53
784.524	346.14
784.845	384.44
785.166	361.46
785.487	381.89
785.807	399.76
786.128	361.46
786.449	455.94
786.769	440.62
787.09	384.44
787.41	387
787.731	389.55
788.051	435.51
788.372	443.17
788.692	379.34
789.012	443.17
789.332	376.78
789.653	323.16
789.973	425.3
790.293	320.61
790.613	374.23
790.933	381.89
791.253	353.8
791.573	323.16
791.893	328.27
792.212	333.38
792.532	338.48
792.852	358.91
793.171	404.87
793.491	402.32
793.811	445.72
794.13	392.1
794.45	427.85
794.769	455.94
795.088	404.87
795.408	358.91
795.727	425.3
796.046	361.46
796.365	399.76
796.684	430.4
797.004	310.4
797.323	430.4
797.642	364.02
797.96	381.89
798.279	381.89
798.598	384.44
798.917	397.21
799.236	374.23
799.554	409.98
799.873	404.87
800.192	364.02
800.51	468.7
800.829	471.26
801.147	402.32
801.466	471.26
801.784	435.51
802.102	402.32
802.421	361.46
802.739	404.87
803.057	351.25
803.375	333.38
803.693	399.76
804.011	343.59
804.329	364.02
