Data from 2025-12-03_xpw_interference_micrometer_634_dark_FLMS141361__7__157.txt Node

Date: Wed Dec 03 15:50:00 MST 2025
User: james
Spectrometer: FLMS14136
Trigger mode: 0
Integration Time (sec): 1.000000E-1
Scans to average: 1
Electric dark correction enabled: true
Nonlinearity correction enabled: false
Boxcar width: 0
XAxis mode: Wavelengths
Number of Pixels in Spectrum: 2048
>>>>>Begin Spectral Data<<<<<
339.315	10.69
339.697	10.69
340.079	10.69
340.461	-99.1
340.843	-101.66
341.225	-73.57
341.607	-119.53
341.989	-150.17
342.371	-9.73
342.752	-88.89
343.134	-73.57
343.516	-96.55
343.897	-25.06
344.279	23.46
344.661	41.33
345.042	79.63
345.423	61.76
345.805	128.15
346.186	66.87
346.567	105.17
346.949	130.7
347.33	140.91
347.711	169
348.092	230.28
348.473	194.54
348.854	263.48
349.235	248.16
349.616	291.56
349.997	352.84
350.378	345.18
350.758	299.22
351.139	363.06
351.52	368.17
351.9	347.74
352.281	370.72
352.661	419.23
353.042	337.52
353.422	406.47
353.803	467.75
354.183	409.02
354.563	416.68
354.943	375.83
355.324	396.25
355.704	365.61
356.084	411.57
356.464	437.11
356.844	472.85
357.224	406.47
357.603	421.79
357.983	460.09
358.363	437.11
358.743	378.38
359.122	462.64
359.502	424.34
359.882	329.86
360.261	396.25
360.641	442.21
361.02	383.49
361.399	373.27
361.779	337.52
362.158	380.93
362.537	352.84
362.916	363.06
363.296	301.78
363.675	401.36
364.054	434.55
364.433	317.1
364.812	311.99
365.19	337.52
365.569	327.31
365.948	378.38
366.327	355.4
366.705	393.7
367.084	406.47
367.463	375.83
367.841	365.61
368.22	314.54
368.598	388.59
368.977	289.01
369.355	319.65
369.733	324.76
370.111	365.61
370.49	391.15
370.868	363.06
371.246	378.38
371.624	350.29
372.002	401.36
372.38	434.55
372.758	398.81
373.136	340.08
373.513	347.74
373.891	373.27
374.269	337.52
374.646	360.51
375.024	378.38
375.402	391.15
375.779	424.34
376.157	314.54
376.534	373.27
376.911	340.08
377.289	337.52
377.666	388.59
378.043	360.51
378.42	388.59
378.797	414.13
379.175	304.33
379.552	319.65
379.929	352.84
380.305	299.22
380.682	296.67
381.059	324.76
381.436	373.27
381.813	398.81
382.189	368.17
382.566	396.25
382.943	324.76
383.319	368.17
383.696	416.68
384.072	370.72
384.448	350.29
384.825	360.51
385.201	350.29
385.577	391.15
385.953	337.52
386.329	403.91
386.706	393.7
387.082	357.95
387.458	388.59
387.834	396.25
388.209	363.06
388.585	409.02
388.961	345.18
389.337	345.18
389.713	401.36
390.088	332.42
390.464	340.08
390.839	467.75
391.215	360.51
391.59	383.49
391.966	332.42
392.341	388.59
392.716	345.18
393.092	357.95
393.467	363.06
393.842	352.84
394.217	375.83
394.592	329.86
394.967	411.57
395.342	414.13
395.717	347.74
396.092	345.18
396.467	368.17
396.841	383.49
397.216	393.7
397.591	406.47
397.965	416.68
398.34	386.04
398.714	439.66
399.089	398.81
399.463	350.29
399.838	350.29
400.212	365.61
400.586	437.11
400.961	457.53
401.335	449.87
401.709	449.87
402.083	426.89
402.457	380.93
402.831	391.15
403.205	391.15
403.579	416.68
403.953	396.25
404.326	419.23
404.7	429.45
405.074	388.59
405.447	304.33
405.821	432
406.195	386.04
406.568	345.18
406.942	370.72
407.315	391.15
407.688	378.38
408.062	375.83
408.435	432
408.808	337.52
409.181	439.66
409.554	370.72
409.927	421.79
410.3	363.06
410.673	416.68
411.046	365.61
411.419	388.59
411.792	368.17
412.165	429.45
412.537	406.47
412.91	411.57
413.283	370.72
413.655	442.21
414.028	406.47
414.4	483.07
414.773	393.7
415.145	403.91
415.517	449.87
415.889	329.86
416.262	398.81
416.634	465.19
417.006	403.91
417.378	391.15
417.75	373.27
418.122	467.75
418.494	490.73
418.866	419.23
419.238	398.81
419.609	347.74
419.981	370.72
420.353	360.51
420.725	421.79
421.096	375.83
421.468	396.25
421.839	449.87
422.211	419.23
422.582	373.27
422.953	329.86
423.325	355.4
423.696	334.97
424.067	350.29
424.438	317.1
424.809	398.81
425.18	411.57
425.551	365.61
425.922	465.19
426.293	355.4
426.664	375.83
427.035	419.23
427.406	411.57
427.776	393.7
428.147	426.89
428.518	406.47
428.888	386.04
429.259	357.95
429.629	419.23
429.999	386.04
430.37	432
430.74	426.89
431.11	426.89
431.481	442.21
431.851	406.47
432.221	383.49
432.591	329.86
432.961	380.93
433.331	383.49
433.701	442.21
434.071	409.02
434.441	398.81
434.81	373.27
435.18	439.66
435.55	398.81
435.919	375.83
436.289	432
436.658	429.45
437.028	416.68
437.397	432
437.767	380.93
438.136	424.34
438.505	375.83
438.875	380.93
439.244	393.7
439.613	485.62
439.982	454.98
440.351	416.68
440.72	454.98
441.089	409.02
441.458	393.7
441.827	373.27
442.196	426.89
442.564	521.37
442.933	452.43
443.302	444.77
443.67	322.2
444.039	365.61
444.407	365.61
444.776	424.34
445.144	383.49
445.513	373.27
445.881	416.68
446.249	457.53
446.617	429.45
446.986	444.77
447.354	363.06
447.722	426.89
448.09	380.93
448.458	406.47
448.826	414.13
449.194	388.59
449.561	406.47
449.929	383.49
450.297	350.29
450.665	409.02
451.032	370.72
451.4	477.96
451.767	429.45
452.135	480.51
452.502	396.25
452.87	393.7
453.237	467.75
453.604	467.75
453.971	416.68
454.339	386.04
454.706	388.59
455.073	386.04
455.44	396.25
455.807	391.15
456.174	442.21
456.541	437.11
456.908	457.53
457.274	386.04
457.641	373.27
458.008	393.7
458.374	437.11
458.741	421.79
459.108	401.36
459.474	429.45
459.841	403.91
460.207	426.89
460.573	322.2
460.94	419.23
461.306	493.28
461.672	414.13
462.038	406.47
462.404	342.63
462.771	370.72
463.137	383.49
463.503	454.98
463.868	426.89
464.234	388.59
464.6	393.7
464.966	357.95
465.332	439.66
465.697	386.04
466.063	416.68
466.429	403.91
466.794	411.57
467.16	411.57
467.525	452.43
467.89	401.36
468.256	378.38
468.621	378.38
468.986	388.59
469.351	388.59
469.717	414.13
470.082	360.51
470.447	380.93
470.812	391.15
471.177	426.89
471.542	414.13
471.906	409.02
472.271	398.81
472.636	373.27
473.001	421.79
473.365	393.7
473.73	345.18
474.094	411.57
474.459	398.81
474.823	388.59
475.188	388.59
475.552	442.21
475.917	393.7
476.281	365.61
476.645	437.11
477.009	365.61
477.373	403.91
477.737	429.45
478.101	437.11
478.465	457.53
478.829	421.79
479.193	409.02
479.557	452.43
479.921	447.32
480.284	472.85
480.648	434.55
481.012	386.04
481.375	409.02
481.739	345.18
482.102	475.41
482.466	327.31
482.829	452.43
483.193	467.75
483.556	437.11
483.919	429.45
484.282	472.85
484.645	470.3
485.009	467.75
485.372	457.53
485.735	462.64
486.098	403.91
486.46	365.61
486.823	426.89
487.186	442.21
487.549	449.87
487.912	439.66
488.274	416.68
488.637	370.72
488.999	424.34
489.362	447.32
489.724	437.11
490.087	457.53
490.449	403.91
490.811	398.81
491.174	416.68
491.536	360.51
491.898	375.83
492.26	337.52
492.622	452.43
492.984	462.64
493.346	460.09
493.708	375.83
494.07	345.18
494.432	414.13
494.794	419.23
495.155	391.15
495.517	411.57
495.879	360.51
496.24	347.74
496.602	396.25
496.963	409.02
497.325	434.55
497.686	378.38
498.048	457.53
498.409	437.11
498.77	380.93
499.131	393.7
499.492	462.64
499.854	370.72
500.215	391.15
500.576	454.98
500.937	429.45
501.298	465.19
501.658	419.23
502.019	531.58
502.38	449.87
502.741	411.57
503.101	398.81
503.462	411.57
503.823	406.47
504.183	416.68
504.543	449.87
504.904	437.11
505.264	357.95
505.625	472.85
505.985	421.79
506.345	447.32
506.705	467.75
507.065	355.4
507.426	439.66
507.786	383.49
508.146	401.36
508.505	411.57
508.865	406.47
509.225	401.36
509.585	439.66
509.945	424.34
510.304	409.02
510.664	386.04
511.024	403.91
511.383	365.61
511.743	317.1
512.102	421.79
512.462	426.89
512.821	393.7
513.18	340.08
513.539	365.61
513.899	439.66
514.258	483.07
514.617	409.02
514.976	378.38
515.335	421.79
515.694	447.32
516.053	449.87
516.412	467.75
516.771	396.25
517.129	424.34
517.488	426.89
517.847	396.25
518.205	365.61
518.564	421.79
518.922	454.98
519.281	421.79
519.639	421.79
519.998	442.21
520.356	383.49
520.714	388.59
521.073	403.91
521.431	434.55
521.789	429.45
522.147	454.98
522.505	432
522.863	454.98
523.221	465.19
523.579	452.43
523.937	393.7
524.295	398.81
524.652	424.34
525.01	429.45
525.368	414.13
525.725	434.55
526.083	437.11
526.44	419.23
526.798	406.47
527.155	460.09
527.513	383.49
527.87	462.64
528.227	421.79
528.584	437.11
528.942	401.36
529.299	363.06
529.656	444.77
530.013	444.77
530.37	442.21
530.727	409.02
531.083	434.55
531.44	414.13
531.797	414.13
532.154	449.87
532.511	421.79
532.867	439.66
533.224	429.45
533.58	454.98
533.937	380.93
534.293	439.66
534.65	416.68
535.006	442.21
535.362	460.09
535.718	429.45
536.075	447.32
536.431	406.47
536.787	393.7
537.143	370.72
537.499	416.68
537.855	401.36
538.211	360.51
538.567	490.73
538.923	465.19
539.278	380.93
539.634	419.23
539.99	409.02
540.345	391.15
540.701	398.81
541.056	403.91
541.412	370.72
541.767	386.04
542.123	393.7
542.478	447.32
542.833	414.13
543.188	444.77
543.544	411.57
543.899	357.95
544.254	391.15
544.609	388.59
544.964	357.95
545.319	454.98
545.674	411.57
546.029	363.06
546.383	299.22
546.738	421.79
547.093	424.34
547.447	403.91
547.802	409.02
548.157	342.63
548.511	393.7
548.866	460.09
549.22	414.13
549.574	380.93
549.929	424.34
550.283	409.02
550.637	406.47
550.991	403.91
551.345	378.38
551.699	480.51
552.053	391.15
552.407	355.4
552.761	424.34
553.115	370.72
553.469	406.47
553.823	429.45
554.176	452.43
554.53	424.34
554.884	465.19
555.237	677.12
555.591	488.17
555.944	516.26
556.298	434.55
556.651	434.55
557.005	414.13
557.358	370.72
557.711	378.38
558.064	378.38
558.417	449.87
558.771	506.05
559.124	393.7
559.477	411.57
559.83	452.43
560.182	401.36
560.535	460.09
560.888	393.7
561.241	403.91
561.594	439.66
561.946	403.91
562.299	437.11
562.651	419.23
563.004	475.41
563.356	437.11
563.709	414.13
564.061	380.93
564.413	365.61
564.766	393.7
565.118	462.64
565.47	429.45
565.822	460.09
566.174	426.89
566.526	460.09
566.878	439.66
567.23	396.25
567.582	370.72
567.934	472.85
568.286	467.75
568.638	370.72
568.989	411.57
569.341	434.55
569.693	403.91
570.044	426.89
570.396	393.7
570.747	403.91
571.098	475.41
571.45	439.66
571.801	401.36
572.152	414.13
572.504	475.41
572.855	444.77
573.206	462.64
573.557	398.81
573.908	368.17
574.259	465.19
574.61	434.55
574.961	383.49
575.311	386.04
575.662	426.89
576.013	454.98
576.364	363.06
576.714	475.41
577.065	375.83
577.415	421.79
577.766	409.02
578.116	403.91
578.467	475.41
578.817	437.11
579.167	398.81
579.518	391.15
579.868	414.13
580.218	429.45
580.568	452.43
580.918	442.21
581.268	347.74
581.618	327.31
581.968	401.36
582.318	439.66
582.668	388.59
583.017	375.83
583.367	437.11
583.717	434.55
584.066	498.39
584.416	406.47
584.765	426.89
585.115	401.36
585.464	429.45
585.814	426.89
586.163	360.51
586.512	380.93
586.862	449.87
587.211	421.79
587.56	426.89
587.909	475.41
588.258	352.84
588.607	391.15
588.956	434.55
589.305	365.61
589.654	444.77
590.002	434.55
590.351	393.7
590.7	439.66
591.048	421.79
591.397	470.3
591.746	383.49
592.094	393.7
592.443	416.68
592.791	470.3
593.139	350.29
593.488	352.84
593.836	373.27
594.184	406.47
594.532	401.36
594.88	434.55
595.228	470.3
595.576	409.02
595.924	411.57
596.272	449.87
596.62	403.91
596.968	406.47
597.316	432
597.664	383.49
598.011	396.25
598.359	419.23
598.706	340.08
599.054	398.81
599.402	378.38
599.749	411.57
600.096	391.15
600.444	337.52
600.791	340.08
601.138	447.32
601.485	419.23
601.833	409.02
602.18	493.28
602.527	373.27
602.874	483.07
603.221	498.39
603.568	472.85
603.914	465.19
604.261	368.17
604.608	409.02
604.955	447.32
605.301	342.63
605.648	393.7
605.995	426.89
606.341	391.15
606.688	462.64
607.034	414.13
607.38	444.77
607.727	426.89
608.073	475.41
608.419	454.98
608.765	429.45
609.112	454.98
609.458	426.89
609.804	388.59
610.15	357.95
610.496	386.04
610.842	439.66
611.187	432
611.533	442.21
611.879	401.36
612.225	426.89
612.57	406.47
612.916	388.59
613.261	378.38
613.607	393.7
613.952	380.93
614.298	411.57
614.643	396.25
614.989	421.79
615.334	470.3
615.679	373.27
616.024	403.91
616.369	421.79
616.714	434.55
617.059	386.04
617.404	383.49
617.749	429.45
618.094	414.13
618.439	434.55
618.784	375.83
619.129	398.81
619.473	437.11
619.818	398.81
620.163	368.17
620.507	355.4
620.852	391.15
621.196	386.04
621.54	375.83
621.885	396.25
622.229	416.68
622.573	373.27
622.918	375.83
623.262	416.68
623.606	462.64
623.95	437.11
624.294	383.49
624.638	447.32
624.982	442.21
625.326	480.51
625.67	467.75
626.013	393.7
626.357	401.36
626.701	337.52
627.044	386.04
627.388	401.36
627.731	403.91
628.075	444.77
628.418	386.04
628.762	360.51
629.105	424.34
629.448	449.87
629.792	363.06
630.135	406.47
630.478	424.34
630.821	424.34
631.164	391.15
631.507	342.63
631.85	437.11
632.193	357.95
632.536	357.95
632.879	419.23
633.221	424.34
633.564	452.43
633.907	426.89
634.249	329.86
634.592	396.25
634.935	414.13
635.277	429.45
635.619	447.32
635.962	357.95
636.304	411.57
636.646	434.55
636.989	483.07
637.331	452.43
637.673	375.83
638.015	398.81
638.357	393.7
638.699	419.23
639.041	414.13
639.383	447.32
639.725	386.04
640.067	398.81
640.408	391.15
640.75	398.81
641.092	375.83
641.433	452.43
641.775	452.43
642.116	409.02
642.458	437.11
642.799	355.4
643.141	434.55
643.482	337.52
643.823	447.32
644.164	416.68
644.506	457.53
644.847	393.7
645.188	426.89
645.529	396.25
645.87	401.36
646.211	421.79
646.552	409.02
646.893	375.83
647.233	421.79
647.574	419.23
647.915	409.02
648.255	421.79
648.596	380.93
648.937	393.7
649.277	386.04
649.618	462.64
649.958	470.3
650.298	429.45
650.639	398.81
650.979	462.64
651.319	393.7
651.659	426.89
651.999	370.72
652.339	375.83
652.679	454.98
653.019	373.27
653.359	442.21
653.699	398.81
654.039	432
654.379	368.17
654.719	393.7
655.058	383.49
655.398	442.21
655.737	557.12
656.077	396.25
656.416	429.45
656.756	419.23
657.095	322.2
657.435	439.66
657.774	370.72
658.113	437.11
658.452	396.25
658.792	429.45
659.131	421.79
659.47	434.55
659.809	447.32
660.148	447.32
660.487	421.79
660.826	409.02
661.164	439.66
661.503	432
661.842	406.47
662.181	429.45
662.519	421.79
662.858	447.32
663.196	434.55
663.535	334.97
663.873	345.18
664.212	419.23
664.55	498.39
664.888	434.55
665.226	426.89
665.565	426.89
665.903	626.06
666.241	437.11
666.579	439.66
666.917	416.68
667.255	421.79
667.593	388.59
667.931	462.64
668.268	452.43
668.606	421.79
668.944	444.77
669.282	370.72
669.619	363.06
669.957	363.06
670.294	363.06
670.632	409.02
670.969	419.23
671.307	424.34
671.644	306.88
671.981	434.55
672.318	416.68
672.656	421.79
672.993	434.55
673.33	442.21
673.667	373.27
674.004	380.93
674.341	398.81
674.678	398.81
675.015	383.49
675.351	429.45
675.688	414.13
676.025	467.75
676.362	421.79
676.698	363.06
677.035	442.21
677.371	414.13
677.708	442.21
678.044	439.66
678.38	429.45
678.717	434.55
679.053	465.19
679.389	439.66
679.725	437.11
680.062	416.68
680.398	424.34
680.734	409.02
681.07	401.36
681.406	401.36
681.742	365.61
682.077	439.66
682.413	401.36
682.749	465.19
683.085	357.95
683.42	375.83
683.756	406.47
684.091	475.41
684.427	419.23
684.762	401.36
685.098	411.57
685.433	396.25
685.768	409.02
686.104	452.43
686.439	449.87
686.774	393.7
687.109	396.25
687.444	426.89
687.779	409.02
688.114	411.57
688.449	368.17
688.784	401.36
689.119	401.36
689.454	375.83
689.789	352.84
690.123	324.76
690.458	352.84
690.792	409.02
691.127	365.61
691.461	470.3
691.796	370.72
692.13	439.66
692.465	421.79
692.799	442.21
693.133	375.83
693.467	393.7
693.802	370.72
694.136	429.45
694.47	460.09
694.804	340.08
695.138	378.38
695.472	388.59
695.806	370.72
696.139	406.47
696.473	424.34
696.807	421.79
697.141	421.79
697.474	449.87
697.808	396.25
698.141	388.59
698.475	434.55
698.808	439.66
699.142	406.47
699.475	421.79
699.808	386.04
700.142	322.2
700.475	380.93
700.808	432
701.141	475.41
701.474	462.64
701.807	409.02
702.14	454.98
702.473	403.91
702.806	434.55
703.139	383.49
703.472	452.43
703.804	429.45
704.137	434.55
704.47	439.66
704.802	419.23
705.135	419.23
705.467	416.68
705.8	378.38
706.132	401.36
706.464	391.15
706.797	411.57
707.129	442.21
707.461	355.4
707.793	393.7
708.125	388.59
708.457	424.34
708.789	342.63
709.121	334.97
709.453	403.91
709.785	432
710.117	439.66
710.449	352.84
710.781	432
711.112	419.23
711.444	485.62
711.775	396.25
712.107	414.13
712.438	398.81
712.77	442.21
713.101	485.62
713.433	437.11
713.764	378.38
714.095	375.83
714.426	403.91
714.757	398.81
715.089	421.79
715.42	437.11
715.751	365.61
716.082	414.13
716.412	340.08
716.743	403.91
717.074	421.79
717.405	411.57
717.736	403.91
718.066	393.7
718.397	424.34
718.727	414.13
719.058	398.81
719.388	388.59
719.719	388.59
720.049	439.66
720.38	424.34
720.71	483.07
721.04	416.68
721.37	416.68
721.7	437.11
722.031	444.77
722.361	460.09
722.691	386.04
723.021	380.93
723.35	380.93
723.68	409.02
724.01	426.89
724.34	380.93
724.67	454.98
724.999	465.19
725.329	370.72
725.658	380.93
725.988	465.19
726.317	419.23
726.647	398.81
726.976	368.17
727.306	434.55
727.635	388.59
727.964	426.89
728.293	442.21
728.622	355.4
728.952	368.17
729.281	386.04
729.61	462.64
729.939	383.49
730.267	391.15
730.596	375.83
730.925	401.36
731.254	409.02
731.583	424.34
731.911	337.52
732.24	386.04
732.568	434.55
732.897	380.93
733.225	373.27
733.554	426.89
733.882	406.47
734.21	347.74
734.539	378.38
734.867	342.63
735.195	421.79
735.523	452.43
735.851	432
736.179	421.79
736.507	439.66
736.835	398.81
737.163	368.17
737.491	388.59
737.819	470.3
738.147	380.93
738.474	375.83
738.802	416.68
739.13	437.11
739.457	462.64
739.785	414.13
740.112	406.47
740.44	426.89
740.767	457.53
741.094	368.17
741.422	449.87
741.749	350.29
742.076	447.32
742.403	345.18
742.73	437.11
743.057	370.72
743.384	403.91
743.711	437.11
744.038	365.61
744.365	416.68
744.692	414.13
745.018	373.27
745.345	386.04
745.672	411.57
745.998	462.64
746.325	388.59
746.651	378.38
746.978	416.68
747.304	383.49
747.631	378.38
747.957	304.33
748.283	411.57
748.61	442.21
748.936	449.87
749.262	432
749.588	411.57
749.914	409.02
750.24	378.38
750.566	416.68
750.892	393.7
751.218	409.02
751.543	396.25
751.869	416.68
752.195	406.47
752.521	352.84
752.846	380.93
753.172	370.72
753.497	380.93
753.823	416.68
754.148	378.38
754.473	378.38
754.799	363.06
755.124	424.34
755.449	401.36
755.774	447.32
756.1	401.36
756.425	383.49
756.75	393.7
757.075	444.77
757.4	488.17
757.724	429.45
758.049	429.45
758.374	373.27
758.699	414.13
759.024	406.47
759.348	421.79
759.673	355.4
759.997	409.02
760.322	419.23
760.646	432
760.971	419.23
761.295	426.89
761.619	447.32
761.944	447.32
762.268	460.09
762.592	447.32
762.916	386.04
763.24	401.36
763.564	370.72
763.888	386.04
764.212	370.72
764.536	447.32
764.86	409.02
765.184	470.3
765.508	437.11
765.831	429.45
766.155	615.84
766.478	421.79
766.802	406.47
767.126	421.79
767.449	375.83
767.772	429.45
768.096	414.13
768.419	391.15
768.742	357.95
769.066	421.79
769.389	401.36
769.712	414.13
770.035	363.06
770.358	396.25
770.681	419.23
771.004	342.63
771.327	434.55
771.65	388.59
771.972	391.15
772.295	426.89
772.618	393.7
772.941	424.34
773.263	375.83
773.586	388.59
773.908	442.21
774.231	444.77
774.553	347.74
774.875	360.51
775.198	493.28
775.52	419.23
775.842	393.7
776.164	401.36
776.487	383.49
776.809	378.38
777.131	421.79
777.453	398.81
777.775	368.17
778.096	444.77
778.418	426.89
778.74	322.2
779.062	401.36
779.384	375.83
779.705	470.3
780.027	483.07
780.348	454.98
780.67	398.81
780.991	340.08
781.313	396.25
781.634	363.06
781.955	444.77
782.277	421.79
782.598	414.13
782.919	442.21
783.24	393.7
783.561	439.66
783.882	378.38
784.203	403.91
784.524	368.17
784.845	444.77
785.166	380.93
785.487	411.57
785.807	409.02
786.128	442.21
786.449	403.91
786.769	357.95
787.09	403.91
787.41	375.83
787.731	424.34
788.051	414.13
788.372	457.53
788.692	409.02
789.012	401.36
789.332	357.95
789.653	424.34
789.973	391.15
790.293	401.36
790.613	388.59
790.933	375.83
791.253	393.7
791.573	403.91
791.893	398.81
792.212	350.29
792.532	406.47
792.852	398.81
793.171	363.06
793.491	380.93
793.811	403.91
794.13	411.57
794.45	386.04
794.769	398.81
795.088	414.13
795.408	434.55
795.727	419.23
796.046	493.28
796.365	370.72
796.684	409.02
797.004	393.7
797.323	375.83
797.642	388.59
797.96	368.17
798.279	401.36
798.598	429.45
798.917	370.72
799.236	411.57
799.554	396.25
799.873	373.27
800.192	442.21
800.51	480.51
800.829	378.38
801.147	432
801.466	470.3
801.784	470.3
802.102	462.64
