Data from 2025-12-03_xpw_interference_micrometer_634_dark_FLMS141361__31__181.txt Node

Date: Wed Dec 03 15:50:02 MST 2025
User: james
Spectrometer: FLMS14136
Trigger mode: 0
Integration Time (sec): 1.000000E-1
Scans to average: 1
Electric dark correction enabled: true
Nonlinearity correction enabled: false
Boxcar width: 0
XAxis mode: Wavelengths
Number of Pixels in Spectrum: 2048
>>>>>Begin Spectral Data<<<<<
339.315	5.59
339.697	5.59
340.079	5.59
340.461	-63.36
340.843	-116.98
341.225	-81.23
341.607	-99.1
341.989	-155.28
342.371	-96.55
342.752	-30.16
343.134	-27.61
343.516	-48.04
343.897	-55.7
344.279	-30.16
344.661	-7.18
345.042	8.14
345.423	166.45
345.805	112.83
346.186	130.7
346.567	94.95
346.949	117.93
347.33	146.02
347.711	253.26
348.092	214.96
348.473	212.41
348.854	286.46
349.235	253.26
349.616	266.03
349.997	283.9
350.378	286.46
350.758	243.05
351.139	368.17
351.52	304.33
351.9	363.06
352.281	355.4
352.661	357.95
353.042	370.72
353.422	368.17
353.803	347.74
354.183	357.95
354.563	370.72
354.943	380.93
355.324	324.76
355.704	396.25
356.084	355.4
356.464	365.61
356.844	375.83
357.224	414.13
357.603	373.27
357.983	373.27
358.363	352.84
358.743	342.63
359.122	403.91
359.502	393.7
359.882	342.63
360.261	378.38
360.641	414.13
361.02	342.63
361.399	332.42
361.779	342.63
362.158	360.51
362.537	378.38
362.916	317.1
363.296	357.95
363.675	363.06
364.054	365.61
364.433	396.25
364.812	319.65
365.19	329.86
365.569	276.24
365.948	347.74
366.327	317.1
366.705	329.86
367.084	340.08
367.463	391.15
367.841	340.08
368.22	329.86
368.598	386.04
368.977	319.65
369.355	370.72
369.733	355.4
370.111	340.08
370.49	301.78
370.868	283.9
371.246	355.4
371.624	337.52
372.002	273.69
372.38	332.42
372.758	301.78
373.136	363.06
373.513	324.76
373.891	373.27
374.269	347.74
374.646	357.95
375.024	327.31
375.402	306.88
375.779	327.31
376.157	391.15
376.534	360.51
376.911	365.61
377.289	360.51
377.666	360.51
378.043	350.29
378.42	329.86
378.797	373.27
379.175	360.51
379.552	365.61
379.929	396.25
380.305	360.51
380.682	357.95
381.059	294.12
381.436	296.67
381.813	347.74
382.189	329.86
382.566	314.54
382.943	363.06
383.319	396.25
383.696	350.29
384.072	319.65
384.448	378.38
384.825	327.31
385.201	332.42
385.577	370.72
385.953	370.72
386.329	273.69
386.706	370.72
387.082	414.13
387.458	350.29
387.834	355.4
388.209	347.74
388.585	391.15
388.961	322.2
389.337	370.72
389.713	357.95
390.088	370.72
390.464	365.61
390.839	393.7
391.215	406.47
391.59	406.47
391.966	375.83
392.341	363.06
392.716	352.84
393.092	357.95
393.467	352.84
393.842	276.24
394.217	306.88
394.592	398.81
394.967	452.43
395.342	291.56
395.717	406.47
396.092	386.04
396.467	406.47
396.841	380.93
397.216	398.81
397.591	327.31
397.965	337.52
398.34	352.84
398.714	375.83
399.089	365.61
399.463	365.61
399.838	329.86
400.212	378.38
400.586	398.81
400.961	357.95
401.335	373.27
401.709	421.79
402.083	426.89
402.457	411.57
402.831	355.4
403.205	378.38
403.579	396.25
403.953	444.77
404.326	375.83
404.7	337.52
405.074	263.48
405.447	301.78
405.821	281.35
406.195	347.74
406.568	375.83
406.942	403.91
407.315	342.63
407.688	327.31
408.062	355.4
408.435	363.06
408.808	363.06
409.181	409.02
409.554	416.68
409.927	368.17
410.3	403.91
410.673	352.84
411.046	406.47
411.419	332.42
411.792	345.18
412.165	378.38
412.537	373.27
412.91	363.06
413.283	388.59
413.655	378.38
414.028	314.54
414.4	414.13
414.773	419.23
415.145	380.93
415.517	396.25
415.889	383.49
416.262	419.23
416.634	391.15
417.006	437.11
417.378	465.19
417.75	337.52
418.122	426.89
418.494	324.76
418.866	429.45
419.238	373.27
419.609	340.08
419.981	327.31
420.353	424.34
420.725	380.93
421.096	347.74
421.468	360.51
421.839	355.4
422.211	398.81
422.582	314.54
422.953	432
423.325	426.89
423.696	317.1
424.067	365.61
424.438	378.38
424.809	406.47
425.18	439.66
425.551	437.11
425.922	449.87
426.293	411.57
426.664	388.59
427.035	401.36
427.406	368.17
427.776	365.61
428.147	421.79
428.518	401.36
428.888	391.15
429.259	401.36
429.629	454.98
429.999	416.68
430.37	462.64
430.74	457.53
431.11	416.68
431.481	424.34
431.851	373.27
432.221	416.68
432.591	383.49
432.961	352.84
433.331	373.27
433.701	342.63
434.071	403.91
434.441	368.17
434.81	352.84
435.18	398.81
435.55	306.88
435.919	352.84
436.289	350.29
436.658	398.81
437.028	396.25
437.397	432
437.767	363.06
438.136	396.25
438.505	380.93
438.875	347.74
439.244	432
439.613	393.7
439.982	357.95
440.351	370.72
440.72	411.57
441.089	380.93
441.458	409.02
441.827	411.57
442.196	360.51
442.564	426.89
442.933	411.57
443.302	447.32
443.67	432
444.039	442.21
444.407	429.45
444.776	462.64
445.144	470.3
445.513	421.79
445.881	386.04
446.249	432
446.617	370.72
446.986	426.89
447.354	375.83
447.722	454.98
448.09	411.57
448.458	432
448.826	424.34
449.194	398.81
449.561	357.95
449.929	401.36
450.297	370.72
450.665	352.84
451.032	401.36
451.4	386.04
451.767	396.25
452.135	360.51
452.502	332.42
452.87	380.93
453.237	368.17
453.604	357.95
453.971	386.04
454.339	429.45
454.706	442.21
455.073	411.57
455.44	406.47
455.807	424.34
456.174	386.04
456.541	416.68
456.908	360.51
457.274	398.81
457.641	368.17
458.008	403.91
458.374	398.81
458.741	447.32
459.108	442.21
459.474	386.04
459.841	398.81
460.207	452.43
460.573	490.73
460.94	396.25
461.306	419.23
461.672	386.04
462.038	355.4
462.404	360.51
462.771	337.52
463.137	355.4
463.503	393.7
463.868	475.41
464.234	375.83
464.6	329.86
464.966	352.84
465.332	414.13
465.697	363.06
466.063	424.34
466.429	432
466.794	454.98
467.16	393.7
467.525	444.77
467.89	454.98
468.256	452.43
468.621	393.7
468.986	434.55
469.351	429.45
469.717	424.34
470.082	411.57
470.447	409.02
470.812	352.84
471.177	401.36
471.542	424.34
471.906	365.61
472.271	411.57
472.636	424.34
473.001	442.21
473.365	439.66
473.73	383.49
474.094	391.15
474.459	403.91
474.823	380.93
475.188	391.15
475.552	363.06
475.917	391.15
476.281	434.55
476.645	442.21
477.009	401.36
477.373	388.59
477.737	421.79
478.101	414.13
478.465	391.15
478.829	442.21
479.193	401.36
479.557	396.25
479.921	368.17
480.284	391.15
480.648	411.57
481.012	355.4
481.375	398.81
481.739	432
482.102	401.36
482.466	386.04
482.829	434.55
483.193	380.93
483.556	411.57
483.919	442.21
484.282	434.55
484.645	352.84
485.009	411.57
485.372	416.68
485.735	401.36
486.098	363.06
486.46	419.23
486.823	340.08
487.186	393.7
487.549	396.25
487.912	449.87
488.274	421.79
488.637	447.32
488.999	424.34
489.362	398.81
489.724	380.93
490.087	334.97
490.449	373.27
490.811	373.27
491.174	391.15
491.536	406.47
491.898	424.34
492.26	424.34
492.622	403.91
492.984	360.51
493.346	337.52
493.708	373.27
494.07	454.98
494.432	414.13
494.794	401.36
495.155	370.72
495.517	403.91
495.879	429.45
496.24	444.77
496.602	401.36
496.963	467.75
497.325	429.45
497.686	477.96
498.048	409.02
498.409	447.32
498.77	424.34
499.131	406.47
499.492	378.38
499.854	380.93
500.215	424.34
500.576	460.09
500.937	363.06
501.298	457.53
501.658	462.64
502.019	444.77
502.38	406.47
502.741	393.7
503.101	465.19
503.462	411.57
503.823	419.23
504.183	383.49
504.543	403.91
504.904	434.55
505.264	447.32
505.625	365.61
505.985	383.49
506.345	373.27
506.705	388.59
507.065	363.06
507.426	393.7
507.786	444.77
508.146	409.02
508.505	421.79
508.865	424.34
509.225	368.17
509.585	480.51
509.945	432
510.304	411.57
510.664	393.7
511.024	370.72
511.383	345.18
511.743	386.04
512.102	452.43
512.462	383.49
512.821	396.25
513.18	368.17
513.539	388.59
513.899	442.21
514.258	500.94
514.617	465.19
514.976	411.57
515.335	401.36
515.694	416.68
516.053	355.4
516.412	403.91
516.771	370.72
517.129	442.21
517.488	439.66
517.847	444.77
518.205	398.81
518.564	457.53
518.922	401.36
519.281	406.47
519.639	378.38
519.998	391.15
520.356	409.02
520.714	421.79
521.073	368.17
521.431	365.61
521.789	386.04
522.147	370.72
522.505	396.25
522.863	421.79
523.221	378.38
523.579	419.23
523.937	396.25
524.295	311.99
524.652	396.25
525.01	375.83
525.368	406.47
525.725	373.27
526.083	409.02
526.44	332.42
526.798	363.06
527.155	424.34
527.513	414.13
527.87	411.57
528.227	373.27
528.584	439.66
528.942	398.81
529.299	475.41
529.656	437.11
530.013	460.09
530.37	421.79
530.727	457.53
531.083	347.74
531.44	414.13
531.797	426.89
532.154	447.32
532.511	434.55
532.867	452.43
533.224	409.02
533.58	460.09
533.937	475.41
534.293	490.73
534.65	401.36
535.006	426.89
535.362	370.72
535.718	444.77
536.075	380.93
536.431	416.68
536.787	388.59
537.143	380.93
537.499	414.13
537.855	432
538.211	444.77
538.567	401.36
538.923	483.07
539.278	403.91
539.634	421.79
539.99	414.13
540.345	442.21
540.701	386.04
541.056	383.49
541.412	314.54
541.767	332.42
542.123	350.29
542.478	409.02
542.833	419.23
543.188	409.02
543.544	373.27
543.899	365.61
544.254	375.83
544.609	406.47
544.964	432
545.319	398.81
545.674	306.88
546.029	363.06
546.383	373.27
546.738	360.51
547.093	350.29
547.447	340.08
547.802	393.7
548.157	465.19
548.511	426.89
548.866	360.51
549.22	416.68
549.574	398.81
549.929	352.84
550.283	454.98
550.637	437.11
550.991	419.23
551.345	406.47
551.699	434.55
552.053	424.34
552.407	409.02
552.761	437.11
553.115	444.77
553.469	454.98
553.823	403.91
554.176	396.25
554.53	378.38
554.884	414.13
555.237	628.61
555.591	465.19
555.944	414.13
556.298	447.32
556.651	465.19
557.005	470.3
557.358	393.7
557.711	403.91
558.064	419.23
558.417	363.06
558.771	477.96
559.124	460.09
559.477	439.66
559.83	437.11
560.182	383.49
560.535	511.15
560.888	370.72
561.241	426.89
561.594	327.31
561.946	337.52
562.299	426.89
562.651	350.29
563.004	429.45
563.356	426.89
563.709	432
564.061	409.02
564.413	411.57
564.766	457.53
565.118	429.45
565.47	401.36
565.822	401.36
566.174	421.79
566.526	460.09
566.878	360.51
567.23	416.68
567.582	462.64
567.934	396.25
568.286	370.72
568.638	365.61
568.989	347.74
569.341	391.15
569.693	409.02
570.044	370.72
570.396	429.45
570.747	360.51
571.098	391.15
571.45	513.71
571.801	452.43
572.152	386.04
572.504	437.11
572.855	380.93
573.206	360.51
573.557	437.11
573.908	439.66
574.259	368.17
574.61	299.22
574.961	386.04
575.311	490.73
575.662	396.25
576.013	437.11
576.364	396.25
576.714	403.91
577.065	380.93
577.415	373.27
577.766	419.23
578.116	388.59
578.467	429.45
578.817	432
579.167	409.02
579.518	462.64
579.868	416.68
580.218	396.25
580.568	380.93
580.918	396.25
581.268	380.93
581.618	317.1
581.968	398.81
582.318	426.89
582.668	383.49
583.017	391.15
583.367	447.32
583.717	329.86
584.066	373.27
584.416	429.45
584.765	396.25
585.115	378.38
585.464	294.12
585.814	429.45
586.163	416.68
586.512	439.66
586.862	391.15
587.211	388.59
587.56	426.89
587.909	444.77
588.258	391.15
588.607	452.43
588.956	396.25
589.305	409.02
589.654	363.06
590.002	467.75
590.351	426.89
590.7	419.23
591.048	401.36
591.397	414.13
591.746	444.77
592.094	414.13
592.443	365.61
592.791	386.04
593.139	363.06
593.488	352.84
593.836	393.7
594.184	403.91
594.532	409.02
594.88	475.41
595.228	424.34
595.576	403.91
595.924	409.02
596.272	416.68
596.62	409.02
596.968	429.45
597.316	342.63
597.664	370.72
598.011	393.7
598.359	365.61
598.706	386.04
599.054	460.09
599.402	447.32
599.749	373.27
600.096	368.17
600.444	357.95
600.791	452.43
601.138	357.95
601.485	327.31
601.833	391.15
602.18	396.25
602.527	432
602.874	380.93
603.221	396.25
603.568	437.11
603.914	470.3
604.261	406.47
604.608	483.07
604.955	398.81
605.301	429.45
605.648	406.47
605.995	429.45
606.341	457.53
606.688	345.18
607.034	380.93
607.38	398.81
607.727	391.15
608.073	383.49
608.419	352.84
608.765	380.93
609.112	380.93
609.458	432
609.804	414.13
610.15	368.17
610.496	370.72
610.842	452.43
611.187	447.32
611.533	429.45
611.879	380.93
612.225	365.61
612.57	401.36
612.916	352.84
613.261	416.68
613.607	432
613.952	414.13
614.298	421.79
614.643	429.45
614.989	454.98
615.334	386.04
615.679	383.49
616.024	416.68
616.369	401.36
616.714	444.77
617.059	383.49
617.404	403.91
617.749	419.23
618.094	380.93
618.439	434.55
618.784	393.7
619.129	388.59
619.473	380.93
619.818	370.72
620.163	378.38
620.507	434.55
620.852	391.15
621.196	411.57
621.54	452.43
621.885	375.83
622.229	429.45
622.573	370.72
622.918	457.53
623.262	426.89
623.606	409.02
623.95	416.68
624.294	370.72
624.638	378.38
624.982	373.27
625.326	365.61
625.67	383.49
626.013	421.79
626.357	426.89
626.701	398.81
627.044	475.41
627.388	373.27
627.731	432
628.075	424.34
628.418	380.93
628.762	429.45
629.105	403.91
629.448	375.83
629.792	409.02
630.135	401.36
630.478	411.57
630.821	414.13
631.164	449.87
631.507	380.93
631.85	457.53
632.193	340.08
632.536	429.45
632.879	396.25
633.221	375.83
633.564	444.77
633.907	421.79
634.249	457.53
634.592	444.77
634.935	327.31
635.277	368.17
635.619	380.93
635.962	454.98
636.304	419.23
636.646	401.36
636.989	396.25
637.331	380.93
637.673	373.27
638.015	426.89
638.357	375.83
638.699	306.88
639.041	350.29
639.383	398.81
639.725	327.31
640.067	378.38
640.408	462.64
640.75	375.83
641.092	386.04
641.433	437.11
641.775	370.72
642.116	380.93
642.458	357.95
642.799	393.7
643.141	373.27
643.482	416.68
643.823	380.93
644.164	401.36
644.506	439.66
644.847	429.45
645.188	403.91
645.529	411.57
645.87	437.11
646.211	447.32
646.552	386.04
646.893	424.34
647.233	380.93
647.574	378.38
647.915	419.23
648.255	403.91
648.596	393.7
648.937	406.47
649.277	386.04
649.618	396.25
649.958	495.83
650.298	373.27
650.639	424.34
650.979	434.55
651.319	393.7
651.659	414.13
651.999	383.49
652.339	357.95
652.679	414.13
653.019	327.31
653.359	424.34
653.699	378.38
654.039	437.11
654.379	378.38
654.719	416.68
655.058	393.7
655.398	375.83
655.737	516.26
656.077	447.32
656.416	403.91
656.756	357.95
657.095	429.45
657.435	470.3
657.774	490.73
658.113	429.45
658.452	452.43
658.792	452.43
659.131	401.36
659.47	401.36
659.809	406.47
660.148	421.79
660.487	437.11
660.826	324.76
661.164	355.4
661.503	352.84
661.842	406.47
662.181	352.84
662.519	409.02
662.858	383.49
663.196	337.52
663.535	439.66
663.873	398.81
664.212	426.89
664.55	424.34
664.888	396.25
665.226	452.43
665.565	432
665.903	603.08
666.241	439.66
666.579	409.02
666.917	360.51
667.255	375.83
667.593	380.93
667.931	437.11
668.268	452.43
668.606	396.25
668.944	357.95
669.282	360.51
669.619	429.45
669.957	386.04
670.294	347.74
670.632	375.83
670.969	401.36
671.307	355.4
671.644	403.91
671.981	355.4
672.318	373.27
672.656	334.97
672.993	454.98
673.33	363.06
673.667	388.59
674.004	398.81
674.341	398.81
674.678	414.13
675.015	378.38
675.351	426.89
675.688	396.25
676.025	386.04
676.362	454.98
676.698	432
677.035	424.34
677.371	454.98
677.708	429.45
678.044	414.13
678.38	355.4
678.717	373.27
679.053	409.02
679.389	426.89
679.725	347.74
680.062	398.81
680.398	368.17
680.734	350.29
681.07	332.42
681.406	365.61
681.742	365.61
682.077	334.97
682.413	421.79
682.749	393.7
683.085	419.23
683.42	363.06
683.756	368.17
684.091	386.04
684.427	368.17
684.762	411.57
685.098	357.95
685.433	401.36
685.768	388.59
686.104	375.83
686.439	416.68
686.774	411.57
687.109	426.89
687.444	503.49
687.779	414.13
688.114	409.02
688.449	365.61
688.784	383.49
689.119	355.4
689.454	419.23
689.789	426.89
690.123	419.23
690.458	393.7
690.792	424.34
691.127	396.25
691.461	414.13
691.796	386.04
692.13	378.38
692.465	352.84
692.799	409.02
693.133	439.66
693.467	414.13
693.802	406.47
694.136	429.45
694.47	483.07
694.804	386.04
695.138	414.13
695.472	414.13
695.806	426.89
696.139	319.65
696.473	424.34
696.807	444.77
697.141	439.66
697.474	383.49
697.808	386.04
698.141	306.88
698.475	332.42
698.808	391.15
699.142	429.45
699.475	383.49
699.808	432
700.142	434.55
700.475	432
700.808	350.29
701.141	414.13
701.474	329.86
701.807	352.84
702.14	452.43
702.473	375.83
702.806	393.7
703.139	340.08
703.472	444.77
703.804	421.79
704.137	398.81
704.47	317.1
704.802	391.15
705.135	419.23
705.467	421.79
705.8	401.36
706.132	406.47
706.464	350.29
706.797	411.57
707.129	421.79
707.461	334.97
707.793	393.7
708.125	411.57
708.457	432
708.789	350.29
709.121	373.27
709.453	444.77
709.785	386.04
710.117	360.51
710.449	380.93
710.781	357.95
711.112	342.63
711.444	398.81
711.775	406.47
712.107	401.36
712.438	432
712.77	409.02
713.101	432
713.433	403.91
713.764	421.79
714.095	350.29
714.426	355.4
714.757	416.68
715.089	444.77
715.42	432
715.751	426.89
716.082	444.77
716.412	403.91
716.743	332.42
717.074	416.68
717.405	434.55
717.736	403.91
718.066	322.2
718.397	434.55
718.727	419.23
719.058	260.92
719.388	383.49
719.719	327.31
720.049	403.91
720.38	391.15
720.71	414.13
721.04	511.15
721.37	340.08
721.7	398.81
722.031	314.54
722.361	373.27
722.691	437.11
723.021	391.15
723.35	370.72
723.68	373.27
724.01	388.59
724.34	378.38
724.67	350.29
724.999	340.08
725.329	368.17
725.658	421.79
725.988	365.61
726.317	350.29
726.647	411.57
726.976	391.15
727.306	360.51
727.635	363.06
727.964	406.47
728.293	406.47
728.622	391.15
728.952	426.89
729.281	352.84
729.61	424.34
729.939	414.13
730.267	457.53
730.596	383.49
730.925	337.52
731.254	409.02
731.583	460.09
731.911	403.91
732.24	398.81
732.568	329.86
732.897	380.93
733.225	355.4
733.554	449.87
733.882	391.15
734.21	386.04
734.539	391.15
734.867	373.27
735.195	365.61
735.523	355.4
735.851	414.13
736.179	442.21
736.507	429.45
736.835	444.77
737.163	409.02
737.491	409.02
737.819	391.15
738.147	426.89
738.474	403.91
738.802	386.04
739.13	365.61
739.457	483.07
739.785	368.17
740.112	322.2
740.44	403.91
740.767	388.59
741.094	370.72
741.422	411.57
741.749	429.45
742.076	363.06
742.403	309.44
742.73	406.47
743.057	319.65
743.384	426.89
743.711	363.06
744.038	421.79
744.365	409.02
744.692	452.43
745.018	373.27
745.345	424.34
745.672	406.47
745.998	437.11
746.325	360.51
746.651	342.63
746.978	373.27
747.304	439.66
747.631	373.27
747.957	319.65
748.283	403.91
748.61	434.55
748.936	380.93
749.262	383.49
749.588	411.57
749.914	414.13
750.24	434.55
750.566	426.89
750.892	378.38
751.218	350.29
751.543	363.06
751.869	342.63
752.195	424.34
752.521	426.89
752.846	375.83
753.172	388.59
753.497	434.55
753.823	357.95
754.148	347.74
754.473	327.31
754.799	391.15
755.124	342.63
755.449	386.04
755.774	421.79
756.1	391.15
756.425	483.07
756.75	434.55
757.075	393.7
757.4	513.71
757.724	396.25
758.049	416.68
758.374	424.34
758.699	388.59
759.024	355.4
759.348	393.7
759.673	347.74
759.997	337.52
760.322	355.4
760.646	368.17
760.971	403.91
761.295	391.15
761.619	396.25
761.944	388.59
762.268	386.04
762.592	352.84
762.916	421.79
763.24	414.13
763.564	477.96
763.888	424.34
764.212	434.55
764.536	360.51
764.86	439.66
765.184	317.1
765.508	403.91
765.831	383.49
766.155	595.42
766.478	442.21
766.802	340.08
767.126	403.91
767.449	388.59
767.772	391.15
768.096	396.25
768.419	345.18
768.742	414.13
769.066	396.25
769.389	375.83
769.712	368.17
770.035	409.02
770.358	409.02
770.681	439.66
771.004	403.91
771.327	432
771.65	426.89
771.972	457.53
772.295	386.04
772.618	444.77
772.941	406.47
773.263	449.87
773.586	444.77
773.908	414.13
774.231	393.7
774.553	398.81
774.875	380.93
775.198	449.87
775.52	393.7
775.842	383.49
776.164	360.51
776.487	421.79
776.809	426.89
777.131	383.49
777.453	393.7
777.775	380.93
778.096	416.68
778.418	368.17
778.74	485.62
779.062	378.38
779.384	467.75
779.705	388.59
780.027	401.36
780.348	434.55
780.67	442.21
780.991	398.81
781.313	396.25
781.634	396.25
781.955	373.27
782.277	375.83
782.598	355.4
782.919	403.91
783.24	439.66
783.561	475.41
783.882	409.02
784.203	434.55
784.524	403.91
784.845	345.18
785.166	398.81
785.487	283.9
785.807	373.27
786.128	373.27
786.449	373.27
786.769	396.25
787.09	398.81
787.41	419.23
787.731	409.02
788.051	429.45
788.372	500.94
788.692	365.61
789.012	345.18
789.332	411.57
789.653	380.93
789.973	391.15
790.293	322.2
790.613	439.66
790.933	396.25
791.253	406.47
791.573	391.15
791.893	444.77
792.212	386.04
792.532	368.17
792.852	419.23
793.171	437.11
793.491	357.95
793.811	439.66
794.13	386.04
794.45	345.18
794.769	332.42
795.088	370.72
795.408	391.15
795.727	393.7
796.046	383.49
796.365	398.81
796.684	396.25
797.004	406.47
797.323	424.34
797.642	368.17
797.96	396.25
798.279	409.02
798.598	460.09
798.917	460.09
799.236	411.57
799.554	368.17
799.873	375.83
800.192	340.08
800.51	391.15
800.829	380.93
801.147	329.86
801.466	383.49
801.784	426.89
802.102	488.17
802.421	437.11
