Data from 2025-12-03_xpw_interference_micrometer_634_dark_FLMS141361__14__164.txt Node

Date: Wed Dec 03 15:50:00 MST 2025
User: james
Spectrometer: FLMS14136
Trigger mode: 0
Integration Time (sec): 1.000000E-1
Scans to average: 1
Electric dark correction enabled: true
Nonlinearity correction enabled: false
Boxcar width: 0
XAxis mode: Wavelengths
Number of Pixels in Spectrum: 2048
>>>>>Begin Spectral Data<<<<<
339.315	-40.38
339.697	-40.38
340.079	-40.38
340.461	-65.91
340.843	-119.53
341.225	-50.59
341.607	-96.55
341.989	-101.66
342.371	-145.06
342.752	-63.36
343.134	-40.38
343.516	-73.57
343.897	-4.63
344.279	-40.38
344.661	10.69
345.042	56.65
345.423	36.23
345.805	146.02
346.186	138.36
346.567	87.29
346.949	140.91
347.33	243.05
347.711	263.48
348.092	243.05
348.473	217.52
348.854	260.92
349.235	271.14
349.616	296.67
349.997	317.1
350.378	309.44
350.758	375.83
351.139	401.36
351.52	429.45
351.9	368.17
352.281	360.51
352.661	398.81
353.042	406.47
353.422	357.95
353.803	403.91
354.183	391.15
354.563	378.38
354.943	388.59
355.324	414.13
355.704	329.86
356.084	380.93
356.464	347.74
356.844	434.55
357.224	380.93
357.603	472.85
357.983	370.72
358.363	393.7
358.743	426.89
359.122	386.04
359.502	442.21
359.882	452.43
360.261	365.61
360.641	357.95
361.02	378.38
361.399	396.25
361.779	350.29
362.158	424.34
362.537	383.49
362.916	398.81
363.296	393.7
363.675	386.04
364.054	411.57
364.433	391.15
364.812	403.91
365.19	437.11
365.569	357.95
365.948	391.15
366.327	375.83
366.705	426.89
367.084	332.42
367.463	373.27
367.841	396.25
368.22	342.63
368.598	357.95
368.977	360.51
369.355	340.08
369.733	317.1
370.111	421.79
370.49	363.06
370.868	391.15
371.246	401.36
371.624	306.88
372.002	350.29
372.38	411.57
372.758	375.83
373.136	370.72
373.513	332.42
373.891	370.72
374.269	355.4
374.646	347.74
375.024	355.4
375.402	375.83
375.779	329.86
376.157	378.38
376.534	357.95
376.911	352.84
377.289	424.34
377.666	334.97
378.043	368.17
378.42	419.23
378.797	406.47
379.175	421.79
379.552	419.23
379.929	383.49
380.305	378.38
380.682	357.95
381.059	304.33
381.436	347.74
381.813	416.68
382.189	373.27
382.566	414.13
382.943	414.13
383.319	403.91
383.696	357.95
384.072	299.22
384.448	457.53
384.825	416.68
385.201	375.83
385.577	383.49
385.953	334.97
386.329	383.49
386.706	352.84
387.082	368.17
387.458	370.72
387.834	419.23
388.209	370.72
388.585	380.93
388.961	388.59
389.337	421.79
389.713	398.81
390.088	375.83
390.464	391.15
390.839	454.98
391.215	329.86
391.59	368.17
391.966	322.2
392.341	416.68
392.716	340.08
393.092	396.25
393.467	393.7
393.842	421.79
394.217	429.45
394.592	401.36
394.967	429.45
395.342	416.68
395.717	437.11
396.092	424.34
396.467	401.36
396.841	368.17
397.216	439.66
397.591	378.38
397.965	380.93
398.34	396.25
398.714	347.74
399.089	393.7
399.463	373.27
399.838	391.15
400.212	378.38
400.586	373.27
400.961	452.43
401.335	350.29
401.709	350.29
402.083	449.87
402.457	477.96
402.831	467.75
403.205	442.21
403.579	355.4
403.953	403.91
404.326	332.42
404.7	383.49
405.074	396.25
405.447	434.55
405.821	421.79
406.195	411.57
406.568	426.89
406.942	460.09
407.315	386.04
407.688	411.57
408.062	452.43
408.435	383.49
408.808	388.59
409.181	398.81
409.554	421.79
409.927	345.18
410.3	340.08
410.673	332.42
411.046	332.42
411.419	350.29
411.792	409.02
412.165	462.64
412.537	386.04
412.91	421.79
413.283	299.22
413.655	388.59
414.028	396.25
414.4	393.7
414.773	370.72
415.145	370.72
415.517	383.49
415.889	444.77
416.262	462.64
416.634	370.72
417.006	391.15
417.378	380.93
417.75	396.25
418.122	386.04
418.494	462.64
418.866	447.32
419.238	380.93
419.609	439.66
419.981	414.13
420.353	375.83
420.725	424.34
421.096	421.79
421.468	398.81
421.839	426.89
422.211	403.91
422.582	365.61
422.953	421.79
423.325	342.63
423.696	409.02
424.067	386.04
424.438	449.87
424.809	416.68
425.18	396.25
425.551	388.59
425.922	373.27
426.293	414.13
426.664	409.02
427.035	470.3
427.406	403.91
427.776	462.64
428.147	411.57
428.518	475.41
428.888	444.77
429.259	365.61
429.629	447.32
429.999	360.51
430.37	396.25
430.74	467.75
431.11	393.7
431.481	429.45
431.851	375.83
432.221	383.49
432.591	383.49
432.961	386.04
433.331	480.51
433.701	439.66
434.071	370.72
434.441	391.15
434.81	398.81
435.18	393.7
435.55	388.59
435.919	452.43
436.289	391.15
436.658	429.45
437.028	386.04
437.397	465.19
437.767	432
438.136	355.4
438.505	388.59
438.875	449.87
439.244	477.96
439.613	365.61
439.982	357.95
440.351	347.74
440.72	414.13
441.089	419.23
441.458	414.13
441.827	475.41
442.196	403.91
442.564	544.35
442.933	419.23
443.302	477.96
443.67	340.08
444.039	340.08
444.407	426.89
444.776	398.81
445.144	434.55
445.513	375.83
445.881	401.36
446.249	439.66
446.617	414.13
446.986	462.64
447.354	378.38
447.722	406.47
448.09	347.74
448.458	406.47
448.826	462.64
449.194	409.02
449.561	403.91
449.929	409.02
450.297	393.7
450.665	416.68
451.032	465.19
451.4	421.79
451.767	398.81
452.135	411.57
452.502	460.09
452.87	411.57
453.237	406.47
453.604	368.17
453.971	432
454.339	383.49
454.706	421.79
455.073	460.09
455.44	409.02
455.807	462.64
456.174	462.64
456.541	406.47
456.908	393.7
457.274	429.45
457.641	391.15
458.008	462.64
458.374	444.77
458.741	401.36
459.108	424.34
459.474	334.97
459.841	416.68
460.207	488.17
460.573	472.85
460.94	483.07
461.306	444.77
461.672	388.59
462.038	439.66
462.404	411.57
462.771	411.57
463.137	380.93
463.503	414.13
463.868	470.3
464.234	442.21
464.6	426.89
464.966	488.17
465.332	421.79
465.697	414.13
466.063	447.32
466.429	373.27
466.794	388.59
467.16	437.11
467.525	462.64
467.89	424.34
468.256	483.07
468.621	424.34
468.986	454.98
469.351	411.57
469.717	380.93
470.082	360.51
470.447	437.11
470.812	411.57
471.177	442.21
471.542	426.89
471.906	411.57
472.271	429.45
472.636	401.36
473.001	426.89
473.365	439.66
473.73	421.79
474.094	398.81
474.459	406.47
474.823	363.06
475.188	388.59
475.552	477.96
475.917	403.91
476.281	454.98
476.645	437.11
477.009	419.23
477.373	460.09
477.737	386.04
478.101	457.53
478.465	454.98
478.829	439.66
479.193	409.02
479.557	439.66
479.921	398.81
480.284	391.15
480.648	485.62
481.012	373.27
481.375	398.81
481.739	388.59
482.102	437.11
482.466	477.96
482.829	457.53
483.193	409.02
483.556	439.66
483.919	429.45
484.282	403.91
484.645	470.3
485.009	454.98
485.372	363.06
485.735	500.94
486.098	426.89
486.46	373.27
486.823	375.83
487.186	457.53
487.549	393.7
487.912	337.52
488.274	411.57
488.637	383.49
488.999	403.91
489.362	472.85
489.724	403.91
490.087	411.57
490.449	406.47
490.811	396.25
491.174	375.83
491.536	375.83
491.898	457.53
492.26	475.41
492.622	419.23
492.984	383.49
493.346	439.66
493.708	552.01
494.07	452.43
494.432	409.02
494.794	467.75
495.155	500.94
495.517	439.66
495.879	406.47
496.24	465.19
496.602	429.45
496.963	424.34
497.325	388.59
497.686	357.95
498.048	406.47
498.409	444.77
498.77	401.36
499.131	434.55
499.492	419.23
499.854	388.59
500.215	401.36
500.576	416.68
500.937	380.93
501.298	475.41
501.658	439.66
502.019	437.11
502.38	449.87
502.741	539.24
503.101	442.21
503.462	449.87
503.823	378.38
504.183	444.77
504.543	419.23
504.904	380.93
505.264	495.83
505.625	439.66
505.985	483.07
506.345	393.7
506.705	370.72
507.065	432
507.426	393.7
507.786	442.21
508.146	437.11
508.505	406.47
508.865	483.07
509.225	426.89
509.585	498.39
509.945	465.19
510.304	403.91
510.664	447.32
511.024	424.34
511.383	398.81
511.743	467.75
512.102	498.39
512.462	388.59
512.821	401.36
513.18	398.81
513.539	500.94
513.899	398.81
514.258	439.66
514.617	472.85
514.976	388.59
515.335	357.95
515.694	460.09
516.053	475.41
516.412	391.15
516.771	470.3
517.129	429.45
517.488	398.81
517.847	477.96
518.205	472.85
518.564	460.09
518.922	398.81
519.281	414.13
519.639	419.23
519.998	411.57
520.356	378.38
520.714	434.55
521.073	416.68
521.431	398.81
521.789	401.36
522.147	480.51
522.505	391.15
522.863	429.45
523.221	357.95
523.579	340.08
523.937	444.77
524.295	401.36
524.652	419.23
525.01	434.55
525.368	411.57
525.725	447.32
526.083	442.21
526.44	409.02
526.798	406.47
527.155	457.53
527.513	429.45
527.87	411.57
528.227	434.55
528.584	485.62
528.942	475.41
529.299	449.87
529.656	457.53
530.013	406.47
530.37	421.79
530.727	421.79
531.083	378.38
531.44	480.51
531.797	434.55
532.154	442.21
532.511	411.57
532.867	378.38
533.224	398.81
533.58	396.25
533.937	437.11
534.293	421.79
534.65	378.38
535.006	424.34
535.362	378.38
535.718	383.49
536.075	411.57
536.431	393.7
536.787	437.11
537.143	475.41
537.499	493.28
537.855	462.64
538.211	432
538.567	373.27
538.923	488.17
539.278	483.07
539.634	488.17
539.99	421.79
540.345	462.64
540.701	475.41
541.056	452.43
541.412	393.7
541.767	467.75
542.123	411.57
542.478	437.11
542.833	462.64
543.188	493.28
543.544	414.13
543.899	447.32
544.254	454.98
544.609	432
544.964	467.75
545.319	396.25
545.674	434.55
546.029	457.53
546.383	467.75
546.738	424.34
547.093	429.45
547.447	421.79
547.802	475.41
548.157	419.23
548.511	411.57
548.866	398.81
549.22	396.25
549.574	411.57
549.929	368.17
550.283	432
550.637	444.77
550.991	480.51
551.345	380.93
551.699	332.42
552.053	447.32
552.407	426.89
552.761	398.81
553.115	432
553.469	467.75
553.823	449.87
554.176	419.23
554.53	398.81
554.884	345.18
555.237	669.46
555.591	470.3
555.944	511.15
556.298	419.23
556.651	444.77
557.005	406.47
557.358	409.02
557.711	460.09
558.064	373.27
558.417	426.89
558.771	541.79
559.124	419.23
559.477	439.66
559.83	416.68
560.182	424.34
560.535	454.98
560.888	434.55
561.241	460.09
561.594	368.17
561.946	391.15
562.299	426.89
562.651	406.47
563.004	342.63
563.356	449.87
563.709	477.96
564.061	403.91
564.413	403.91
564.766	426.89
565.118	521.37
565.47	454.98
565.822	421.79
566.174	386.04
566.526	409.02
566.878	434.55
567.23	386.04
567.582	375.83
567.934	403.91
568.286	373.27
568.638	401.36
568.989	465.19
569.341	424.34
569.693	457.53
570.044	426.89
570.396	334.97
570.747	457.53
571.098	426.89
571.45	449.87
571.801	460.09
572.152	414.13
572.504	419.23
572.855	475.41
573.206	368.17
573.557	393.7
573.908	437.11
574.259	444.77
574.61	447.32
574.961	409.02
575.311	437.11
575.662	398.81
576.013	421.79
576.364	454.98
576.714	409.02
577.065	449.87
577.415	475.41
577.766	421.79
578.116	411.57
578.467	368.17
578.817	480.51
579.167	477.96
579.518	426.89
579.868	411.57
580.218	419.23
580.568	403.91
580.918	363.06
581.268	414.13
581.618	370.72
581.968	403.91
582.318	452.43
582.668	457.53
583.017	421.79
583.367	457.53
583.717	432
584.066	432
584.416	449.87
584.765	432
585.115	449.87
585.464	401.36
585.814	421.79
586.163	414.13
586.512	380.93
586.862	414.13
587.211	437.11
587.56	411.57
587.909	406.47
588.258	452.43
588.607	426.89
588.956	465.19
589.305	375.83
589.654	388.59
590.002	355.4
590.351	363.06
590.7	416.68
591.048	414.13
591.397	393.7
591.746	378.38
592.094	396.25
592.443	460.09
592.791	370.72
593.139	432
593.488	439.66
593.836	373.27
594.184	409.02
594.532	406.47
594.88	432
595.228	470.3
595.576	421.79
595.924	485.62
596.272	475.41
596.62	534.13
596.968	403.91
597.316	406.47
597.664	391.15
598.011	421.79
598.359	477.96
598.706	472.85
599.054	460.09
599.402	426.89
599.749	432
600.096	424.34
600.444	370.72
600.791	475.41
601.138	409.02
601.485	437.11
601.833	391.15
602.18	437.11
602.527	437.11
602.874	449.87
603.221	516.26
603.568	416.68
603.914	424.34
604.261	490.73
604.608	470.3
604.955	432
605.301	419.23
605.648	406.47
605.995	429.45
606.341	439.66
606.688	380.93
607.034	398.81
607.38	439.66
607.727	414.13
608.073	363.06
608.419	477.96
608.765	403.91
609.112	454.98
609.458	406.47
609.804	386.04
610.15	378.38
610.496	442.21
610.842	401.36
611.187	357.95
611.533	424.34
611.879	444.77
612.225	386.04
612.57	386.04
612.916	490.73
613.261	365.61
613.607	452.43
613.952	409.02
614.298	393.7
614.643	419.23
614.989	419.23
615.334	375.83
615.679	363.06
616.024	375.83
616.369	449.87
616.714	409.02
617.059	409.02
617.404	472.85
617.749	454.98
618.094	434.55
618.439	485.62
618.784	460.09
619.129	447.32
619.473	396.25
619.818	457.53
620.163	380.93
620.507	383.49
620.852	480.51
621.196	465.19
621.54	419.23
621.885	391.15
622.229	421.79
622.573	398.81
622.918	442.21
623.262	424.34
623.606	426.89
623.95	437.11
624.294	332.42
624.638	437.11
624.982	432
625.326	424.34
625.67	465.19
626.013	447.32
626.357	373.27
626.701	411.57
627.044	411.57
627.388	457.53
627.731	414.13
628.075	391.15
628.418	365.61
628.762	416.68
629.105	444.77
629.448	391.15
629.792	426.89
630.135	470.3
630.478	429.45
630.821	375.83
631.164	437.11
631.507	454.98
631.85	470.3
632.193	409.02
632.536	383.49
632.879	357.95
633.221	380.93
633.564	414.13
633.907	409.02
634.249	304.33
634.592	414.13
634.935	462.64
635.277	447.32
635.619	409.02
635.962	337.52
636.304	391.15
636.646	406.47
636.989	363.06
637.331	398.81
637.673	414.13
638.015	432
638.357	419.23
638.699	406.47
639.041	454.98
639.383	426.89
639.725	529.03
640.067	531.58
640.408	409.02
640.75	360.51
641.092	378.38
641.433	429.45
641.775	403.91
642.116	398.81
642.458	350.29
642.799	398.81
643.141	444.77
643.482	401.36
643.823	414.13
644.164	437.11
644.506	434.55
644.847	421.79
645.188	442.21
645.529	529.03
645.87	439.66
646.211	380.93
646.552	447.32
646.893	426.89
647.233	409.02
647.574	414.13
647.915	406.47
648.255	393.7
648.596	470.3
648.937	409.02
649.277	447.32
649.618	470.3
649.958	360.51
650.298	363.06
650.639	465.19
650.979	419.23
651.319	424.34
651.659	432
651.999	498.39
652.339	426.89
652.679	465.19
653.019	411.57
653.359	380.93
653.699	429.45
654.039	460.09
654.379	406.47
654.719	380.93
655.058	432
655.398	470.3
655.737	577.54
656.077	414.13
656.416	386.04
656.756	401.36
657.095	337.52
657.435	370.72
657.774	421.79
658.113	363.06
658.452	360.51
658.792	449.87
659.131	386.04
659.47	386.04
659.809	380.93
660.148	396.25
660.487	434.55
660.826	403.91
661.164	454.98
661.503	401.36
661.842	383.49
662.181	432
662.519	472.85
662.858	375.83
663.196	375.83
663.535	437.11
663.873	437.11
664.212	426.89
664.55	403.91
664.888	424.34
665.226	480.51
665.565	363.06
665.903	613.29
666.241	421.79
666.579	493.28
666.917	475.41
667.255	493.28
667.593	409.02
667.931	442.21
668.268	345.18
668.606	452.43
668.944	416.68
669.282	419.23
669.619	365.61
669.957	419.23
670.294	513.71
670.632	475.41
670.969	414.13
671.307	398.81
671.644	378.38
671.981	380.93
672.318	432
672.656	396.25
672.993	378.38
673.33	424.34
673.667	442.21
674.004	386.04
674.341	322.2
674.678	378.38
675.015	472.85
675.351	467.75
675.688	465.19
676.025	432
676.362	414.13
676.698	477.96
677.035	444.77
677.371	396.25
677.708	421.79
678.044	391.15
678.38	424.34
678.717	391.15
679.053	424.34
679.389	426.89
679.725	472.85
680.062	375.83
680.398	309.44
680.734	447.32
681.07	414.13
681.406	324.76
681.742	378.38
682.077	432
682.413	414.13
682.749	391.15
683.085	444.77
683.42	347.74
683.756	370.72
684.091	421.79
684.427	406.47
684.762	411.57
685.098	424.34
685.433	386.04
685.768	401.36
686.104	378.38
686.439	365.61
686.774	442.21
687.109	388.59
687.444	340.08
687.779	322.2
688.114	444.77
688.449	391.15
688.784	424.34
689.119	386.04
689.454	365.61
689.789	380.93
690.123	462.64
690.458	406.47
690.792	403.91
691.127	439.66
691.461	375.83
691.796	437.11
692.13	480.51
692.465	426.89
692.799	419.23
693.133	439.66
693.467	403.91
693.802	378.38
694.136	460.09
694.47	409.02
694.804	506.05
695.138	426.89
695.472	393.7
695.806	449.87
696.139	419.23
696.473	432
696.807	363.06
697.141	375.83
697.474	434.55
697.808	449.87
698.141	437.11
698.475	432
698.808	429.45
699.142	350.29
699.475	398.81
699.808	409.02
700.142	457.53
700.475	429.45
700.808	370.72
701.141	398.81
701.474	439.66
701.807	454.98
702.14	434.55
702.473	416.68
702.806	465.19
703.139	414.13
703.472	437.11
703.804	426.89
704.137	475.41
704.47	396.25
704.802	457.53
705.135	363.06
705.467	388.59
705.8	426.89
706.132	429.45
706.464	424.34
706.797	401.36
707.129	398.81
707.461	311.99
707.793	378.38
708.125	411.57
708.457	375.83
708.789	378.38
709.121	386.04
709.453	434.55
709.785	406.47
710.117	449.87
710.449	398.81
710.781	388.59
711.112	432
711.444	378.38
711.775	449.87
712.107	439.66
712.438	378.38
712.77	467.75
713.101	347.74
713.433	403.91
713.764	414.13
714.095	434.55
714.426	347.74
714.757	449.87
715.089	360.51
715.42	432
715.751	411.57
716.082	419.23
716.412	373.27
716.743	442.21
717.074	437.11
717.405	396.25
717.736	363.06
718.066	416.68
718.397	411.57
718.727	419.23
719.058	449.87
719.388	370.72
719.719	378.38
720.049	416.68
720.38	460.09
720.71	444.77
721.04	442.21
721.37	373.27
721.7	403.91
722.031	383.49
722.361	447.32
722.691	391.15
723.021	452.43
723.35	391.15
723.68	386.04
724.01	449.87
724.34	406.47
724.67	421.79
724.999	447.32
725.329	490.73
725.658	403.91
725.988	373.27
726.317	457.53
726.647	409.02
726.976	429.45
727.306	426.89
727.635	391.15
727.964	363.06
728.293	465.19
728.622	414.13
728.952	439.66
729.281	426.89
729.61	391.15
729.939	324.76
730.267	477.96
730.596	403.91
730.925	495.83
731.254	421.79
731.583	424.34
731.911	434.55
732.24	477.96
732.568	416.68
732.897	447.32
733.225	462.64
733.554	447.32
733.882	393.7
734.21	342.63
734.539	449.87
734.867	421.79
735.195	454.98
735.523	442.21
735.851	416.68
736.179	454.98
736.507	411.57
736.835	406.47
737.163	426.89
737.491	368.17
737.819	457.53
738.147	442.21
738.474	434.55
738.802	368.17
739.13	398.81
739.457	485.62
739.785	401.36
740.112	340.08
740.44	332.42
740.767	388.59
741.094	370.72
741.422	386.04
741.749	396.25
742.076	324.76
742.403	388.59
742.73	391.15
743.057	434.55
743.384	347.74
743.711	409.02
744.038	449.87
744.365	452.43
744.692	472.85
745.018	429.45
745.345	485.62
745.672	393.7
745.998	375.83
746.325	380.93
746.651	347.74
746.978	370.72
747.304	421.79
747.631	327.31
747.957	340.08
748.283	429.45
748.61	340.08
748.936	386.04
749.262	424.34
749.588	457.53
749.914	454.98
750.24	421.79
750.566	460.09
750.892	432
751.218	363.06
751.543	360.51
751.869	442.21
752.195	409.02
752.521	437.11
752.846	416.68
753.172	365.61
753.497	345.18
753.823	393.7
754.148	434.55
754.473	460.09
754.799	388.59
755.124	419.23
755.449	442.21
755.774	411.57
756.1	393.7
756.425	322.2
756.75	444.77
757.075	370.72
757.4	580.1
757.724	457.53
758.049	375.83
758.374	467.75
758.699	380.93
759.024	368.17
759.348	434.55
759.673	424.34
759.997	424.34
760.322	416.68
760.646	409.02
760.971	452.43
761.295	391.15
761.619	426.89
761.944	444.77
762.268	424.34
762.592	401.36
762.916	442.21
763.24	414.13
763.564	447.32
763.888	488.17
764.212	498.39
764.536	483.07
764.86	462.64
765.184	475.41
765.508	449.87
765.831	475.41
766.155	661.8
766.478	401.36
766.802	345.18
767.126	434.55
767.449	411.57
767.772	444.77
768.096	365.61
768.419	403.91
768.742	396.25
769.066	365.61
769.389	416.68
769.712	403.91
770.035	334.97
770.358	398.81
770.681	414.13
771.004	434.55
771.327	391.15
771.65	444.77
771.972	475.41
772.295	391.15
772.618	391.15
772.941	416.68
773.263	421.79
773.586	401.36
773.908	442.21
774.231	370.72
774.553	388.59
774.875	401.36
775.198	452.43
775.52	437.11
775.842	391.15
776.164	378.38
776.487	421.79
776.809	380.93
777.131	388.59
777.453	406.47
777.775	470.3
778.096	391.15
778.418	370.72
778.74	409.02
779.062	449.87
779.384	398.81
779.705	365.61
780.027	391.15
780.348	388.59
780.67	378.38
780.991	424.34
781.313	449.87
781.634	483.07
781.955	429.45
782.277	429.45
782.598	365.61
782.919	347.74
783.24	411.57
783.561	363.06
783.882	327.31
784.203	439.66
784.524	363.06
784.845	442.21
785.166	432
785.487	383.49
785.807	388.59
786.128	360.51
786.449	340.08
786.769	345.18
787.09	380.93
787.41	439.66
787.731	447.32
788.051	426.89
788.372	398.81
788.692	360.51
789.012	383.49
789.332	470.3
789.653	383.49
789.973	409.02
790.293	360.51
790.613	452.43
790.933	398.81
791.253	432
791.573	368.17
791.893	442.21
792.212	401.36
792.532	409.02
792.852	391.15
793.171	429.45
793.491	447.32
793.811	396.25
794.13	460.09
794.45	350.29
794.769	470.3
795.088	373.27
795.408	419.23
795.727	393.7
796.046	340.08
796.365	378.38
796.684	406.47
797.004	414.13
797.323	442.21
797.642	447.32
797.96	419.23
798.279	429.45
798.598	442.21
798.917	411.57
799.236	409.02
799.554	378.38
799.873	337.52
800.192	380.93
800.51	406.47
800.829	332.42
801.147	409.02
801.466	485.62
801.784	447.32
802.102	454.98
