Data from 2025-12-03_xpw_interference_micrometer_634_dark_FLMS141361__45__195.txt Node

Date: Wed Dec 03 15:50:03 MST 2025
User: james
Spectrometer: FLMS14136
Trigger mode: 0
Integration Time (sec): 1.000000E-1
Scans to average: 1
Electric dark correction enabled: true
Nonlinearity correction enabled: false
Boxcar width: 0
XAxis mode: Wavelengths
Number of Pixels in Spectrum: 2048
>>>>>Begin Spectral Data<<<<<
339.315	-105.97
339.697	-105.97
340.079	-105.97
340.461	-70.22
340.843	-123.84
341.225	-131.5
341.607	-49.79
341.989	-136.61
342.371	-128.95
342.752	-75.32
343.134	-16.6
343.516	-67.66
343.897	-65.11
344.279	-1.28
344.661	77.88
345.042	80.43
345.423	65.11
345.805	52.34
346.186	93.2
346.567	108.52
346.949	195.33
347.33	151.93
347.711	223.42
348.092	228.53
348.473	210.65
348.854	254.06
349.235	236.19
349.616	323
349.997	269.38
350.378	297.47
350.758	287.26
351.139	325.56
351.52	333.22
351.9	361.3
352.281	391.94
352.661	305.13
353.042	394.5
353.422	328.11
353.803	366.41
354.183	407.26
354.563	363.86
354.943	353.64
355.324	371.52
355.704	404.71
356.084	389.39
356.464	399.6
356.844	348.54
357.224	391.94
357.603	379.18
357.983	381.73
358.363	356.2
358.743	279.59
359.122	386.84
359.502	407.26
359.882	427.69
360.261	420.03
360.641	345.98
361.02	389.39
361.399	374.07
361.779	379.18
362.158	351.09
362.537	379.18
362.916	305.13
363.296	358.75
363.675	315.34
364.054	269.38
364.433	284.7
364.812	287.26
365.19	376.62
365.569	338.32
365.948	320.45
366.327	328.11
366.705	315.34
367.084	297.47
367.463	284.7
367.841	320.45
368.22	315.34
368.598	363.86
368.977	432.8
369.355	302.58
369.733	325.56
370.111	323
370.49	297.47
370.868	356.2
371.246	323
371.624	297.47
372.002	394.5
372.38	376.62
372.758	333.22
373.136	282.15
373.513	305.13
373.891	333.22
374.269	379.18
374.646	363.86
375.024	394.5
375.402	348.54
375.779	343.43
376.157	356.2
376.534	323
376.911	399.6
377.289	361.3
377.666	307.68
378.043	389.39
378.42	394.5
378.797	397.05
379.175	361.3
379.552	330.66
379.929	269.38
380.305	287.26
380.682	307.68
381.059	407.26
381.436	351.09
381.813	371.52
382.189	351.09
382.566	386.84
382.943	389.39
383.319	320.45
383.696	351.09
384.072	381.73
384.448	450.67
384.825	335.77
385.201	356.2
385.577	376.62
385.953	386.84
386.329	279.59
386.706	323
387.082	343.43
387.458	338.32
387.834	343.43
388.209	366.41
388.585	368.96
388.961	307.68
389.337	345.98
389.713	368.96
390.088	358.75
390.464	366.41
390.839	315.34
391.215	368.96
391.59	320.45
391.966	335.77
392.341	379.18
392.716	409.82
393.092	366.41
393.467	376.62
393.842	374.07
394.217	340.88
394.592	325.56
394.967	420.03
395.342	389.39
395.717	389.39
396.092	371.52
396.467	317.9
396.841	391.94
397.216	407.26
397.591	391.94
397.965	330.66
398.34	391.94
398.714	381.73
399.089	394.5
399.463	412.37
399.838	356.2
400.212	371.52
400.586	340.88
400.961	368.96
401.335	320.45
401.709	363.86
402.083	305.13
402.457	356.2
402.831	422.58
403.205	345.98
403.579	430.24
403.953	384.28
404.326	338.32
404.7	381.73
405.074	379.18
405.447	407.26
405.821	379.18
406.195	412.37
406.568	397.05
406.942	381.73
407.315	404.71
407.688	371.52
408.062	305.13
408.435	323
408.808	300.02
409.181	374.07
409.554	351.09
409.927	374.07
410.3	404.71
410.673	407.26
411.046	394.5
411.419	361.3
411.792	353.64
412.165	353.64
412.537	394.5
412.91	399.6
413.283	458.33
413.655	323
414.028	409.82
414.4	368.96
414.773	412.37
415.145	389.39
415.517	302.58
415.889	356.2
416.262	417.48
416.634	381.73
417.006	310.24
417.378	338.32
417.75	425.14
418.122	384.28
418.494	453.22
418.866	376.62
419.238	422.58
419.609	384.28
419.981	348.54
420.353	422.58
420.725	384.28
421.096	376.62
421.468	420.03
421.839	432.8
422.211	371.52
422.582	323
422.953	323
423.325	422.58
423.696	437.9
424.067	356.2
424.438	394.5
424.809	374.07
425.18	376.62
425.551	384.28
425.922	353.64
426.293	374.07
426.664	379.18
427.035	430.24
427.406	374.07
427.776	363.86
428.147	333.22
428.518	330.66
428.888	371.52
429.259	323
429.629	409.82
429.999	333.22
430.37	325.56
430.74	427.69
431.11	394.5
431.481	432.8
431.851	389.39
432.221	379.18
432.591	394.5
432.961	379.18
433.331	361.3
433.701	412.37
434.071	422.58
434.441	420.03
434.81	366.41
435.18	356.2
435.55	340.88
435.919	417.48
436.289	417.48
436.658	353.64
437.028	384.28
437.397	361.3
437.767	379.18
438.136	363.86
438.505	379.18
438.875	425.14
439.244	432.8
439.613	397.05
439.982	414.92
440.351	437.9
440.72	425.14
441.089	391.94
441.458	358.75
441.827	363.86
442.196	297.47
442.564	450.67
442.933	458.33
443.302	458.33
443.67	409.82
444.039	391.94
444.407	453.22
444.776	353.64
445.144	399.6
445.513	407.26
445.881	397.05
446.249	443.01
446.617	399.6
446.986	366.41
447.354	343.43
447.722	414.92
448.09	320.45
448.458	417.48
448.826	450.67
449.194	374.07
449.561	353.64
449.929	371.52
450.297	368.96
450.665	391.94
451.032	317.9
451.4	435.35
451.767	504.29
452.135	417.48
452.502	335.77
452.87	417.48
453.237	358.75
453.604	356.2
453.971	379.18
454.339	317.9
454.706	374.07
455.073	391.94
455.44	435.35
455.807	437.9
456.174	356.2
456.541	481.31
456.908	386.84
457.274	333.22
457.641	348.54
458.008	420.03
458.374	366.41
458.741	333.22
459.108	389.39
459.474	386.84
459.841	371.52
460.207	343.43
460.573	368.96
460.94	356.2
461.306	435.35
461.672	361.3
462.038	394.5
462.404	371.52
462.771	338.32
463.137	409.82
463.503	356.2
463.868	338.32
464.234	376.62
464.6	376.62
464.966	361.3
465.332	460.88
465.697	432.8
466.063	384.28
466.429	348.54
466.794	397.05
467.16	422.58
467.525	402.16
467.89	384.28
468.256	366.41
468.621	394.5
468.986	407.26
469.351	361.3
469.717	409.82
470.082	399.6
470.447	363.86
470.812	317.9
471.177	305.13
471.542	335.77
471.906	320.45
472.271	414.92
472.636	422.58
473.001	368.96
473.365	414.92
473.73	437.9
474.094	363.86
474.459	371.52
474.823	356.2
475.188	374.07
475.552	409.82
475.917	338.32
476.281	345.98
476.645	394.5
477.009	338.32
477.373	407.26
477.737	376.62
478.101	425.14
478.465	384.28
478.829	351.09
479.193	343.43
479.557	399.6
479.921	399.6
480.284	358.75
480.648	386.84
481.012	399.6
481.375	361.3
481.739	376.62
482.102	397.05
482.466	363.86
482.829	463.44
483.193	422.58
483.556	399.6
483.919	384.28
484.282	379.18
484.645	356.2
485.009	545.15
485.372	361.3
485.735	389.39
486.098	305.13
486.46	409.82
486.823	376.62
487.186	453.22
487.549	448.12
487.912	420.03
488.274	427.69
488.637	455.78
488.999	371.52
489.362	368.96
489.724	422.58
490.087	445.56
490.449	394.5
490.811	397.05
491.174	417.48
491.536	386.84
491.898	374.07
492.26	389.39
492.622	394.5
492.984	363.86
493.346	368.96
493.708	455.78
494.07	366.41
494.432	379.18
494.794	414.92
495.155	407.26
495.517	414.92
495.879	374.07
496.24	325.56
496.602	358.75
496.963	368.96
497.325	333.22
497.686	435.35
498.048	394.5
498.409	417.48
498.77	417.48
499.131	460.88
499.492	358.75
499.854	348.54
500.215	312.79
500.576	389.39
500.937	443.01
501.298	473.65
501.658	320.45
502.019	481.31
502.38	453.22
502.741	391.94
503.101	453.22
503.462	417.48
503.823	330.66
504.183	412.37
504.543	376.62
504.904	417.48
505.264	368.96
505.625	376.62
505.985	417.48
506.345	430.24
506.705	409.82
507.065	417.48
507.426	384.28
507.786	333.22
508.146	407.26
508.505	412.37
508.865	368.96
509.225	374.07
509.585	481.31
509.945	389.39
510.304	391.94
510.664	381.73
511.024	430.24
511.383	417.48
511.743	412.37
512.102	402.16
512.462	453.22
512.821	437.9
513.18	440.46
513.539	402.16
513.899	422.58
514.258	412.37
514.617	404.71
514.976	361.3
515.335	407.26
515.694	407.26
516.053	473.65
516.412	394.5
516.771	376.62
517.129	399.6
517.488	430.24
517.847	391.94
518.205	404.71
518.564	399.6
518.922	412.37
519.281	427.69
519.639	453.22
519.998	440.46
520.356	356.2
520.714	437.9
521.073	450.67
521.431	422.58
521.789	488.97
522.147	409.82
522.505	374.07
522.863	381.73
523.221	386.84
523.579	440.46
523.937	412.37
524.295	348.54
524.652	391.94
525.01	389.39
525.368	376.62
525.725	356.2
526.083	366.41
526.44	351.09
526.798	483.87
527.155	317.9
527.513	338.32
527.87	399.6
528.227	361.3
528.584	437.9
528.942	473.65
529.299	345.98
529.656	402.16
530.013	412.37
530.37	374.07
530.727	376.62
531.083	404.71
531.44	356.2
531.797	320.45
532.154	353.64
532.511	440.46
532.867	379.18
533.224	363.86
533.58	458.33
533.937	363.86
534.293	376.62
534.65	356.2
535.006	374.07
535.362	440.46
535.718	389.39
536.075	358.75
536.431	363.86
536.787	460.88
537.143	407.26
537.499	397.05
537.855	381.73
538.211	389.39
538.567	366.41
538.923	404.71
539.278	368.96
539.634	468.54
539.99	381.73
540.345	425.14
540.701	389.39
541.056	361.3
541.412	404.71
541.767	335.77
542.123	358.75
542.478	402.16
542.833	381.73
543.188	384.28
543.544	414.92
543.899	437.9
544.254	427.69
544.609	432.8
544.964	425.14
545.319	440.46
545.674	420.03
546.029	363.86
546.383	402.16
546.738	394.5
547.093	494.08
547.447	473.65
547.802	404.71
548.157	356.2
548.511	425.14
548.866	391.94
549.22	422.58
549.574	394.5
549.929	389.39
550.283	404.71
550.637	397.05
550.991	427.69
551.345	384.28
551.699	345.98
552.053	358.75
552.407	312.79
552.761	379.18
553.115	425.14
553.469	368.96
553.823	381.73
554.176	348.54
554.53	366.41
554.884	384.28
555.237	688.14
555.591	443.01
555.944	427.69
556.298	394.5
556.651	394.5
557.005	468.54
557.358	443.01
557.711	420.03
558.064	363.86
558.417	409.82
558.771	486.42
559.124	371.52
559.477	371.52
559.83	425.14
560.182	453.22
560.535	476.2
560.888	366.41
561.241	407.26
561.594	389.39
561.946	335.77
562.299	414.92
562.651	455.78
563.004	409.82
563.356	407.26
563.709	368.96
564.061	445.56
564.413	414.92
564.766	371.52
565.118	414.92
565.47	376.62
565.822	430.24
566.174	471.1
566.526	366.41
566.878	394.5
567.23	430.24
567.582	381.73
567.934	432.8
568.286	404.71
568.638	399.6
568.989	448.12
569.341	458.33
569.693	391.94
570.044	379.18
570.396	345.98
570.747	374.07
571.098	389.39
571.45	427.69
571.801	376.62
572.152	389.39
572.504	420.03
572.855	371.52
573.206	409.82
573.557	287.26
573.908	437.9
574.259	351.09
574.61	356.2
574.961	361.3
575.311	468.54
575.662	455.78
576.013	366.41
576.364	389.39
576.714	407.26
577.065	440.46
577.415	358.75
577.766	425.14
578.116	412.37
578.467	435.35
578.817	320.45
579.167	371.52
579.518	368.96
579.868	351.09
580.218	384.28
580.568	427.69
580.918	351.09
581.268	391.94
581.618	335.77
581.968	420.03
582.318	455.78
582.668	437.9
583.017	397.05
583.367	368.96
583.717	407.26
584.066	394.5
584.416	338.32
584.765	384.28
585.115	361.3
585.464	399.6
585.814	399.6
586.163	417.48
586.512	374.07
586.862	443.01
587.211	437.9
587.56	391.94
587.909	394.5
588.258	425.14
588.607	412.37
588.956	312.79
589.305	381.73
589.654	460.88
590.002	414.92
590.351	340.88
590.7	333.22
591.048	335.77
591.397	371.52
591.746	409.82
592.094	351.09
592.443	389.39
592.791	384.28
593.139	381.73
593.488	335.77
593.836	417.48
594.184	376.62
594.532	420.03
594.88	443.01
595.228	394.5
595.576	384.28
595.924	409.82
596.272	412.37
596.62	422.58
596.968	435.35
597.316	471.1
597.664	422.58
598.011	443.01
598.359	366.41
598.706	379.18
599.054	391.94
599.402	417.48
599.749	335.77
600.096	389.39
600.444	407.26
600.791	391.94
601.138	384.28
601.485	358.75
601.833	315.34
602.18	394.5
602.527	427.69
602.874	368.96
603.221	386.84
603.568	430.24
603.914	455.78
604.261	476.2
604.608	417.48
604.955	368.96
605.301	330.66
605.648	363.86
605.995	353.64
606.341	358.75
606.688	381.73
607.034	351.09
607.38	353.64
607.727	358.75
608.073	391.94
608.419	427.69
608.765	397.05
609.112	384.28
609.458	345.98
609.804	391.94
610.15	404.71
610.496	353.64
610.842	420.03
611.187	404.71
611.533	366.41
611.879	409.82
612.225	343.43
612.57	376.62
612.916	384.28
613.261	358.75
613.607	366.41
613.952	389.39
614.298	404.71
614.643	425.14
614.989	407.26
615.334	389.39
615.679	361.3
616.024	348.54
616.369	414.92
616.714	414.92
617.059	361.3
617.404	397.05
617.749	371.52
618.094	450.67
618.439	379.18
618.784	351.09
619.129	430.24
619.473	371.52
619.818	361.3
620.163	351.09
620.507	315.34
620.852	427.69
621.196	412.37
621.54	397.05
621.885	427.69
622.229	358.75
622.573	343.43
622.918	397.05
623.262	394.5
623.606	374.07
623.95	417.48
624.294	425.14
624.638	471.1
624.982	450.67
625.326	414.92
625.67	409.82
626.013	384.28
626.357	412.37
626.701	412.37
627.044	338.32
627.388	412.37
627.731	379.18
628.075	366.41
628.418	397.05
628.762	402.16
629.105	371.52
629.448	371.52
629.792	399.6
630.135	430.24
630.478	412.37
630.821	478.76
631.164	351.09
631.507	381.73
631.85	422.58
632.193	407.26
632.536	404.71
632.879	381.73
633.221	340.88
633.564	499.19
633.907	425.14
634.249	450.67
634.592	386.84
634.935	432.8
635.277	358.75
635.619	353.64
635.962	386.84
636.304	348.54
636.646	356.2
636.989	437.9
637.331	358.75
637.673	420.03
638.015	412.37
638.357	414.92
638.699	348.54
639.041	412.37
639.383	366.41
639.725	356.2
640.067	394.5
640.408	381.73
640.75	417.48
641.092	409.82
641.433	394.5
641.775	399.6
642.116	351.09
642.458	353.64
642.799	381.73
643.141	409.82
643.482	407.26
643.823	402.16
644.164	358.75
644.506	443.01
644.847	402.16
645.188	394.5
645.529	376.62
645.87	325.56
646.211	463.44
646.552	381.73
646.893	460.88
647.233	465.99
647.574	394.5
647.915	386.84
648.255	320.45
648.596	397.05
648.937	435.35
649.277	353.64
649.618	409.82
649.958	351.09
650.298	358.75
650.639	409.82
650.979	379.18
651.319	412.37
651.659	422.58
651.999	397.05
652.339	402.16
652.679	417.48
653.019	345.98
653.359	356.2
653.699	414.92
654.039	345.98
654.379	363.86
654.719	435.35
655.058	455.78
655.398	476.2
655.737	435.35
656.077	368.96
656.416	409.82
656.756	455.78
657.095	425.14
657.435	425.14
657.774	376.62
658.113	391.94
658.452	389.39
658.792	481.31
659.131	491.53
659.47	414.92
659.809	443.01
660.148	376.62
660.487	381.73
660.826	386.84
661.164	328.11
661.503	391.94
661.842	368.96
662.181	422.58
662.519	409.82
662.858	351.09
663.196	300.02
663.535	356.2
663.873	407.26
664.212	422.58
664.55	376.62
664.888	407.26
665.226	348.54
665.565	374.07
665.903	580.89
666.241	384.28
666.579	389.39
666.917	356.2
667.255	348.54
667.593	363.86
667.931	445.56
668.268	366.41
668.606	363.86
668.944	371.52
669.282	302.58
669.619	399.6
669.957	440.46
670.294	358.75
670.632	402.16
670.969	394.5
671.307	376.62
671.644	381.73
671.981	361.3
672.318	422.58
672.656	450.67
672.993	409.82
673.33	432.8
673.667	345.98
674.004	427.69
674.341	351.09
674.678	356.2
675.015	417.48
675.351	399.6
675.688	404.71
676.025	483.87
676.362	343.43
676.698	389.39
677.035	376.62
677.371	368.96
677.708	397.05
678.044	307.68
678.38	376.62
678.717	404.71
679.053	391.94
679.389	353.64
679.725	427.69
680.062	420.03
680.398	368.96
680.734	310.24
681.07	374.07
681.406	363.86
681.742	361.3
682.077	381.73
682.413	402.16
682.749	460.88
683.085	389.39
683.42	407.26
683.756	376.62
684.091	397.05
684.427	427.69
684.762	427.69
685.098	374.07
685.433	343.43
685.768	343.43
686.104	368.96
686.439	379.18
686.774	420.03
687.109	368.96
687.444	379.18
687.779	386.84
688.114	386.84
688.449	397.05
688.784	386.84
689.119	391.94
689.454	363.86
689.789	445.56
690.123	328.11
690.458	409.82
690.792	407.26
691.127	353.64
691.461	414.92
691.796	371.52
692.13	412.37
692.465	450.67
692.799	430.24
693.133	409.82
693.467	366.41
693.802	397.05
694.136	376.62
694.47	422.58
694.804	443.01
695.138	476.2
695.472	404.71
695.806	353.64
696.139	412.37
696.473	407.26
696.807	379.18
697.141	420.03
697.474	358.75
697.808	427.69
698.141	399.6
698.475	458.33
698.808	376.62
699.142	386.84
699.475	414.92
699.808	397.05
700.142	379.18
700.475	420.03
700.808	394.5
701.141	414.92
701.474	302.58
701.807	356.2
702.14	397.05
702.473	358.75
702.806	363.86
703.139	445.56
703.472	455.78
703.804	389.39
704.137	376.62
704.47	430.24
704.802	435.35
705.135	394.5
705.467	371.52
705.8	374.07
706.132	391.94
706.464	384.28
706.797	420.03
707.129	391.94
707.461	394.5
707.793	376.62
708.125	328.11
708.457	376.62
708.789	376.62
709.121	297.47
709.453	368.96
709.785	437.9
710.117	379.18
710.449	358.75
710.781	356.2
711.112	397.05
711.444	420.03
711.775	366.41
712.107	366.41
712.438	328.11
712.77	307.68
713.101	351.09
713.433	374.07
713.764	333.22
714.095	407.26
714.426	371.52
714.757	412.37
715.089	374.07
715.42	409.82
715.751	307.68
716.082	371.52
716.412	463.44
716.743	384.28
717.074	371.52
717.405	453.22
717.736	381.73
718.066	371.52
718.397	414.92
718.727	371.52
719.058	412.37
719.388	402.16
719.719	432.8
720.049	363.86
720.38	407.26
720.71	315.34
721.04	325.56
721.37	376.62
721.7	374.07
722.031	343.43
722.361	430.24
722.691	368.96
723.021	368.96
723.35	363.86
723.68	389.39
724.01	386.84
724.34	371.52
724.67	391.94
724.999	455.78
725.329	422.58
725.658	384.28
725.988	473.65
726.317	381.73
726.647	333.22
726.976	351.09
727.306	363.86
727.635	366.41
727.964	427.69
728.293	379.18
728.622	402.16
728.952	379.18
729.281	399.6
729.61	384.28
729.939	386.84
730.267	345.98
730.596	376.62
730.925	371.52
731.254	384.28
731.583	425.14
731.911	430.24
732.24	379.18
732.568	391.94
732.897	353.64
733.225	404.71
733.554	340.88
733.882	381.73
734.21	361.3
734.539	435.35
734.867	399.6
735.195	407.26
735.523	366.41
735.851	366.41
736.179	353.64
736.507	391.94
736.835	363.86
737.163	384.28
737.491	384.28
737.819	399.6
738.147	407.26
738.474	420.03
738.802	450.67
739.13	399.6
739.457	356.2
739.785	394.5
740.112	386.84
740.44	356.2
740.767	391.94
741.094	435.35
741.422	414.92
741.749	363.86
742.076	389.39
742.403	376.62
742.73	379.18
743.057	425.14
743.384	348.54
743.711	427.69
744.038	358.75
744.365	340.88
744.692	404.71
745.018	397.05
745.345	368.96
745.672	407.26
745.998	351.09
746.325	343.43
746.651	445.56
746.978	407.26
747.304	425.14
747.631	351.09
747.957	374.07
748.283	379.18
748.61	420.03
748.936	333.22
749.262	386.84
749.588	338.32
749.914	356.2
750.24	335.77
750.566	425.14
750.892	343.43
751.218	356.2
751.543	409.82
751.869	389.39
752.195	353.64
752.521	379.18
752.846	328.11
753.172	315.34
753.497	386.84
753.823	389.39
754.148	417.48
754.473	412.37
754.799	384.28
755.124	389.39
755.449	448.12
755.774	399.6
756.1	351.09
756.425	394.5
756.75	412.37
757.075	389.39
757.4	473.65
757.724	376.62
758.049	368.96
758.374	443.01
758.699	397.05
759.024	366.41
759.348	368.96
759.673	391.94
759.997	330.66
760.322	409.82
760.646	363.86
760.971	381.73
761.295	391.94
761.619	397.05
761.944	294.92
762.268	445.56
762.592	427.69
762.916	345.98
763.24	399.6
763.564	368.96
763.888	389.39
764.212	409.82
764.536	394.5
764.86	376.62
765.184	381.73
765.508	391.94
765.831	340.88
766.155	588.55
766.478	399.6
766.802	366.41
767.126	366.41
767.449	340.88
767.772	374.07
768.096	422.58
768.419	358.75
768.742	430.24
769.066	407.26
769.389	374.07
769.712	371.52
770.035	432.8
770.358	407.26
770.681	435.35
771.004	363.86
771.327	371.52
771.65	335.77
771.972	353.64
772.295	430.24
772.618	353.64
772.941	325.56
773.263	404.71
773.586	450.67
773.908	437.9
774.231	430.24
774.553	317.9
774.875	368.96
775.198	407.26
775.52	348.54
775.842	376.62
776.164	366.41
776.487	356.2
776.809	338.32
777.131	366.41
777.453	348.54
777.775	394.5
778.096	445.56
778.418	407.26
778.74	420.03
779.062	351.09
779.384	379.18
779.705	389.39
780.027	481.31
780.348	407.26
780.67	376.62
780.991	412.37
781.313	397.05
781.634	310.24
781.955	312.79
782.277	404.71
782.598	361.3
782.919	414.92
783.24	432.8
783.561	353.64
783.882	363.86
784.203	391.94
784.524	414.92
784.845	407.26
785.166	379.18
785.487	333.22
785.807	397.05
786.128	333.22
786.449	394.5
786.769	391.94
787.09	409.82
787.41	343.43
787.731	343.43
788.051	317.9
788.372	351.09
788.692	376.62
789.012	414.92
789.332	368.96
789.653	361.3
789.973	300.02
790.293	384.28
790.613	323
790.933	351.09
791.253	381.73
791.573	371.52
791.893	358.75
792.212	297.47
792.532	412.37
792.852	391.94
793.171	407.26
793.491	361.3
793.811	366.41
794.13	386.84
794.45	330.66
794.769	425.14
795.088	371.52
795.408	363.86
795.727	338.32
796.046	397.05
796.365	420.03
796.684	437.9
797.004	343.43
797.323	407.26
797.642	323
797.96	391.94
798.279	394.5
798.598	343.43
798.917	338.32
799.236	338.32
799.554	391.94
799.873	409.82
800.192	394.5
800.51	402.16
800.829	356.2
801.147	300.02
801.466	371.52
801.784	379.18
802.102	427.69
802.421	394.5
802.739	397.05
803.057	437.9
803.375	356.2
803.693	445.56
