Data from 2025-12-03_xpw_interference_micrometer_634_dark_FLMS141361__64__214.txt Node

Date: Wed Dec 03 15:50:05 MST 2025
User: james
Spectrometer: FLMS14136
Trigger mode: 0
Integration Time (sec): 1.000000E-1
Scans to average: 1
Electric dark correction enabled: true
Nonlinearity correction enabled: false
Boxcar width: 0
XAxis mode: Wavelengths
Number of Pixels in Spectrum: 2048
>>>>>Begin Spectral Data<<<<<
339.315	-56.81
339.697	-56.81
340.079	-56.81
340.461	-90.01
340.843	-123.2
341.225	-69.58
341.607	-112.99
341.989	-110.43
342.371	-90.01
342.752	-15.96
343.134	-84.9
343.516	-26.17
343.897	-23.62
344.279	47.88
344.661	42.77
345.042	35.11
345.423	42.77
345.805	96.39
346.186	111.71
346.567	93.84
346.949	63.2
347.33	104.05
347.711	180.65
348.092	178.1
348.473	267.47
348.854	272.57
349.235	272.57
349.616	244.49
349.997	338.96
350.378	338.96
350.758	264.91
351.139	290.45
351.52	382.37
351.9	344.07
352.281	328.75
352.661	305.77
353.042	354.28
353.422	349.17
353.803	382.37
354.183	323.64
354.563	331.3
354.943	367.05
355.324	344.07
355.704	379.81
356.084	361.94
356.464	374.71
356.844	356.83
357.224	418.12
357.603	328.75
357.983	359.39
358.363	423.22
358.743	433.44
359.122	326.19
359.502	344.07
359.882	303.21
360.261	415.56
360.641	374.71
361.02	433.44
361.399	346.62
361.779	336.41
362.158	331.3
362.537	397.69
362.916	333.85
363.296	433.44
363.675	305.77
364.054	384.92
364.433	351.73
364.812	315.98
365.19	318.53
365.569	321.09
365.948	300.66
366.327	308.32
366.705	341.51
367.084	364.49
367.463	390.03
367.841	338.96
368.22	400.24
368.598	333.85
368.977	397.69
369.355	338.96
369.733	364.49
370.111	374.71
370.49	254.7
370.868	336.41
371.246	323.64
371.624	346.62
372.002	418.12
372.38	407.9
372.758	367.05
373.136	367.05
373.513	310.87
373.891	377.26
374.269	382.37
374.646	326.19
375.024	346.62
375.402	390.03
375.779	377.26
376.157	395.14
376.534	321.09
376.911	372.15
377.289	400.24
377.666	295.55
378.043	367.05
378.42	323.64
378.797	420.67
379.175	323.64
379.552	346.62
379.929	346.62
380.305	315.98
380.682	395.14
381.059	336.41
381.436	336.41
381.813	341.51
382.189	346.62
382.566	372.15
382.943	382.37
383.319	387.48
383.696	446.2
384.072	377.26
384.448	354.28
384.825	374.71
385.201	351.73
385.577	300.66
385.953	423.22
386.329	351.73
386.706	351.73
387.082	379.81
387.458	333.85
387.834	333.85
388.209	308.32
388.585	333.85
388.961	333.85
389.337	326.19
389.713	397.69
390.088	359.39
390.464	387.48
390.839	351.73
391.215	407.9
391.59	387.48
391.966	349.17
392.341	310.87
392.716	313.43
393.092	326.19
393.467	310.87
393.842	390.03
394.217	410.46
394.592	377.26
394.967	428.33
395.342	374.71
395.717	349.17
396.092	369.6
396.467	336.41
396.841	336.41
397.216	387.48
397.591	410.46
397.965	384.92
398.34	392.58
398.714	367.05
399.089	321.09
399.463	338.96
399.838	346.62
400.212	425.78
400.586	321.09
400.961	282.79
401.335	369.6
401.709	387.48
402.083	310.87
402.457	369.6
402.831	382.37
403.205	369.6
403.579	413.01
403.953	400.24
404.326	359.39
404.7	374.71
405.074	410.46
405.447	349.17
405.821	400.24
406.195	333.85
406.568	392.58
406.942	420.67
407.315	451.31
407.688	395.14
408.062	377.26
408.435	420.67
408.808	395.14
409.181	354.28
409.554	331.3
409.927	361.94
410.3	400.24
410.673	428.33
411.046	351.73
411.419	405.35
411.792	344.07
412.165	384.92
412.537	305.77
412.91	338.96
413.283	377.26
413.655	469.18
414.028	423.22
414.4	321.09
414.773	293
415.145	346.62
415.517	413.01
415.889	400.24
416.262	349.17
416.634	407.9
417.006	397.69
417.378	395.14
417.75	415.56
418.122	318.53
418.494	443.65
418.866	300.66
419.238	346.62
419.609	331.3
419.981	405.35
420.353	338.96
420.725	344.07
421.096	382.37
421.468	446.2
421.839	356.83
422.211	384.92
422.582	361.94
422.953	364.49
423.325	392.58
423.696	367.05
424.067	361.94
424.438	349.17
424.809	290.45
425.18	400.24
425.551	392.58
425.922	364.49
426.293	359.39
426.664	338.96
427.035	461.52
427.406	390.03
427.776	407.9
428.147	369.6
428.518	410.46
428.888	298.11
429.259	400.24
429.629	392.58
429.999	425.78
430.37	410.46
430.74	430.88
431.11	384.92
431.481	379.81
431.851	453.86
432.221	410.46
432.591	425.78
432.961	413.01
433.331	364.49
433.701	384.92
434.071	390.03
434.441	428.33
434.81	364.49
435.18	382.37
435.55	377.26
435.919	410.46
436.289	438.54
436.658	377.26
437.028	430.88
437.397	356.83
437.767	395.14
438.136	423.22
438.505	397.69
438.875	425.78
439.244	448.76
439.613	448.76
439.982	364.49
440.351	413.01
440.72	433.44
441.089	377.26
441.458	392.58
441.827	356.83
442.196	374.71
442.564	405.35
442.933	428.33
443.302	384.92
443.67	418.12
444.039	433.44
444.407	392.58
444.776	377.26
445.144	367.05
445.513	387.48
445.881	374.71
446.249	446.2
446.617	418.12
446.986	469.18
447.354	433.44
447.722	428.33
448.09	387.48
448.458	433.44
448.826	464.08
449.194	405.35
449.561	346.62
449.929	372.15
450.297	374.71
450.665	410.46
451.032	438.54
451.4	315.98
451.767	364.49
452.135	433.44
452.502	390.03
452.87	397.69
453.237	423.22
453.604	402.8
453.971	384.92
454.339	395.14
454.706	418.12
455.073	456.42
455.44	379.81
455.807	448.76
456.174	428.33
456.541	479.4
456.908	464.08
457.274	435.99
457.641	453.86
458.008	387.48
458.374	458.97
458.741	441.1
459.108	453.86
459.474	384.92
459.841	402.8
460.207	402.8
460.573	400.24
460.94	354.28
461.306	407.9
461.672	466.63
462.038	435.99
462.404	400.24
462.771	413.01
463.137	418.12
463.503	392.58
463.868	407.9
464.234	374.71
464.6	410.46
464.966	413.01
465.332	354.28
465.697	372.15
466.063	382.37
466.429	395.14
466.794	446.2
467.16	392.58
467.525	374.71
467.89	384.92
468.256	448.76
468.621	423.22
468.986	430.88
469.351	423.22
469.717	423.22
470.082	448.76
470.447	410.46
470.812	390.03
471.177	405.35
471.542	415.56
471.906	382.37
472.271	374.71
472.636	354.28
473.001	423.22
473.365	428.33
473.73	415.56
474.094	387.48
474.459	407.9
474.823	359.39
475.188	387.48
475.552	438.54
475.917	458.97
476.281	464.08
476.645	308.32
477.009	484.5
477.373	413.01
477.737	499.82
478.101	349.17
478.465	435.99
478.829	425.78
479.193	425.78
479.557	351.73
479.921	405.35
480.284	418.12
480.648	438.54
481.012	428.33
481.375	435.99
481.739	377.26
482.102	443.65
482.466	418.12
482.829	413.01
483.193	397.69
483.556	428.33
483.919	379.81
484.282	443.65
484.645	400.24
485.009	392.58
485.372	428.33
485.735	430.88
486.098	405.35
486.46	390.03
486.823	425.78
487.186	402.8
487.549	400.24
487.912	387.48
488.274	344.07
488.637	433.44
488.999	435.99
489.362	415.56
489.724	479.4
490.087	494.72
490.449	435.99
490.811	382.37
491.174	382.37
491.536	346.62
491.898	405.35
492.26	372.15
492.622	379.81
492.984	395.14
493.346	413.01
493.708	438.54
494.07	359.39
494.432	349.17
494.794	474.29
495.155	390.03
495.517	458.97
495.879	323.64
496.24	441.1
496.602	435.99
496.963	323.64
497.325	336.41
497.686	433.44
498.048	400.24
498.409	407.9
498.77	382.37
499.131	448.76
499.492	395.14
499.854	451.31
500.215	407.9
500.576	410.46
500.937	397.69
501.298	438.54
501.658	400.24
502.019	484.5
502.38	374.71
502.741	392.58
503.101	418.12
503.462	338.96
503.823	359.39
504.183	479.4
504.543	354.28
504.904	367.05
505.264	430.88
505.625	420.67
505.985	382.37
506.345	438.54
506.705	428.33
507.065	492.16
507.426	384.92
507.786	456.42
508.146	397.69
508.505	413.01
508.865	359.39
509.225	418.12
509.585	438.54
509.945	351.73
510.304	323.64
510.664	344.07
511.024	372.15
511.383	423.22
511.743	354.28
512.102	458.97
512.462	474.29
512.821	430.88
513.18	441.1
513.539	464.08
513.899	433.44
514.258	441.1
514.617	451.31
514.976	476.84
515.335	435.99
515.694	333.85
516.053	349.17
516.412	379.81
516.771	443.65
517.129	356.83
517.488	341.51
517.847	364.49
518.205	405.35
518.564	415.56
518.922	428.33
519.281	441.1
519.639	346.62
519.998	402.8
520.356	458.97
520.714	402.8
521.073	471.74
521.431	346.62
521.789	395.14
522.147	346.62
522.505	405.35
522.863	379.81
523.221	433.44
523.579	413.01
523.937	382.37
524.295	433.44
524.652	410.46
525.01	471.74
525.368	425.78
525.725	430.88
526.083	425.78
526.44	359.39
526.798	456.42
527.155	453.86
527.513	405.35
527.87	402.8
528.227	451.31
528.584	423.22
528.942	354.28
529.299	367.05
529.656	379.81
530.013	420.67
530.37	435.99
530.727	464.08
531.083	453.86
531.44	369.6
531.797	395.14
532.154	367.05
532.511	435.99
532.867	456.42
533.224	369.6
533.58	407.9
533.937	382.37
534.293	402.8
534.65	382.37
535.006	400.24
535.362	392.58
535.718	379.81
536.075	435.99
536.431	430.88
536.787	400.24
537.143	390.03
537.499	446.2
537.855	474.29
538.211	446.2
538.567	415.56
538.923	415.56
539.278	413.01
539.634	379.81
539.99	433.44
540.345	331.3
540.701	356.83
541.056	400.24
541.412	415.56
541.767	379.81
542.123	405.35
542.478	351.73
542.833	354.28
543.188	397.69
543.544	395.14
543.899	372.15
544.254	415.56
544.609	458.97
544.964	413.01
545.319	464.08
545.674	456.42
546.029	433.44
546.383	397.69
546.738	349.17
547.093	390.03
547.447	402.8
547.802	420.67
548.157	377.26
548.511	420.67
548.866	405.35
549.22	410.46
549.574	410.46
549.929	453.86
550.283	441.1
550.637	382.37
550.991	374.71
551.345	379.81
551.699	492.16
552.053	446.2
552.407	425.78
552.761	428.33
553.115	379.81
553.469	395.14
553.823	377.26
554.176	382.37
554.53	392.58
554.884	435.99
555.237	627.49
555.591	428.33
555.944	471.74
556.298	476.84
556.651	443.65
557.005	390.03
557.358	397.69
557.711	379.81
558.064	489.61
558.417	333.85
558.771	481.95
559.124	469.18
559.477	384.92
559.83	387.48
560.182	423.22
560.535	430.88
560.888	443.65
561.241	407.9
561.594	407.9
561.946	415.56
562.299	430.88
562.651	374.71
563.004	356.83
563.356	361.94
563.709	402.8
564.061	430.88
564.413	392.58
564.766	438.54
565.118	425.78
565.47	466.63
565.822	369.6
566.174	384.92
566.526	397.69
566.878	438.54
567.23	438.54
567.582	400.24
567.934	413.01
568.286	341.51
568.638	300.66
568.989	402.8
569.341	410.46
569.693	410.46
570.044	400.24
570.396	405.35
570.747	435.99
571.098	415.56
571.45	338.96
571.801	400.24
572.152	387.48
572.504	413.01
572.855	310.87
573.206	379.81
573.557	410.46
573.908	458.97
574.259	405.35
574.61	369.6
574.961	374.71
575.311	379.81
575.662	372.15
576.013	382.37
576.364	415.56
576.714	469.18
577.065	354.28
577.415	395.14
577.766	354.28
578.116	372.15
578.467	423.22
578.817	392.58
579.167	402.8
579.518	382.37
579.868	415.56
580.218	435.99
580.568	425.78
580.918	338.96
581.268	364.49
581.618	382.37
581.968	402.8
582.318	356.83
582.668	466.63
583.017	464.08
583.367	425.78
583.717	359.39
584.066	402.8
584.416	351.73
584.765	379.81
585.115	346.62
585.464	374.71
585.814	359.39
586.163	400.24
586.512	441.1
586.862	438.54
587.211	377.26
587.56	400.24
587.909	390.03
588.258	420.67
588.607	392.58
588.956	448.76
589.305	379.81
589.654	344.07
590.002	374.71
590.351	379.81
590.7	367.05
591.048	395.14
591.397	413.01
591.746	397.69
592.094	369.6
592.443	397.69
592.791	392.58
593.139	390.03
593.488	356.83
593.836	410.46
594.184	402.8
594.532	390.03
594.88	369.6
595.228	387.48
595.576	400.24
595.924	359.39
596.272	415.56
596.62	441.1
596.968	387.48
597.316	420.67
597.664	395.14
598.011	387.48
598.359	405.35
598.706	377.26
599.054	395.14
599.402	397.69
599.749	423.22
600.096	423.22
600.444	351.73
600.791	407.9
601.138	428.33
601.485	354.28
601.833	425.78
602.18	390.03
602.527	458.97
602.874	433.44
603.221	438.54
603.568	428.33
603.914	466.63
604.261	407.9
604.608	451.31
604.955	382.37
605.301	331.3
605.648	367.05
605.995	423.22
606.341	384.92
606.688	435.99
607.034	435.99
607.38	382.37
607.727	318.53
608.073	453.86
608.419	413.01
608.765	402.8
609.112	492.16
609.458	384.92
609.804	359.39
610.15	415.56
610.496	451.31
610.842	379.81
611.187	418.12
611.533	481.95
611.879	499.82
612.225	359.39
612.57	400.24
612.916	382.37
613.261	390.03
613.607	458.97
613.952	400.24
614.298	487.06
614.643	410.46
614.989	410.46
615.334	392.58
615.679	349.17
616.024	356.83
616.369	435.99
616.714	364.49
617.059	369.6
617.404	344.07
617.749	382.37
618.094	392.58
618.439	326.19
618.784	395.14
619.129	387.48
619.473	410.46
619.818	359.39
620.163	407.9
620.507	382.37
620.852	458.97
621.196	451.31
621.54	446.2
621.885	433.44
622.229	441.1
622.573	387.48
622.918	359.39
623.262	387.48
623.606	390.03
623.95	461.52
624.294	321.09
624.638	359.39
624.982	346.62
625.326	400.24
625.67	333.85
626.013	405.35
626.357	379.81
626.701	351.73
627.044	338.96
627.388	321.09
627.731	356.83
628.075	344.07
628.418	441.1
628.762	359.39
629.105	420.67
629.448	464.08
629.792	407.9
630.135	425.78
630.478	333.85
630.821	359.39
631.164	410.46
631.507	377.26
631.85	382.37
632.193	397.69
632.536	441.1
632.879	405.35
633.221	382.37
633.564	425.78
633.907	510.04
634.249	430.88
634.592	443.65
634.935	364.49
635.277	361.94
635.619	341.51
635.962	415.56
636.304	328.75
636.646	382.37
636.989	384.92
637.331	420.67
637.673	423.22
638.015	369.6
638.357	379.81
638.699	372.15
639.041	405.35
639.383	415.56
639.725	420.67
640.067	379.81
640.408	359.39
640.75	382.37
641.092	392.58
641.433	323.64
641.775	446.2
642.116	379.81
642.458	395.14
642.799	384.92
643.141	336.41
643.482	387.48
643.823	354.28
644.164	438.54
644.506	418.12
644.847	387.48
645.188	448.76
645.529	361.94
645.87	367.05
646.211	458.97
646.552	453.86
646.893	433.44
647.233	405.35
647.574	361.94
647.915	443.65
648.255	384.92
648.596	272.57
648.937	392.58
649.277	420.67
649.618	415.56
649.958	407.9
650.298	428.33
650.639	349.17
650.979	384.92
651.319	377.26
651.659	377.26
651.999	418.12
652.339	384.92
652.679	418.12
653.019	453.86
653.359	407.9
653.699	469.18
654.039	397.69
654.379	392.58
654.719	425.78
655.058	397.69
655.398	418.12
655.737	489.61
656.077	420.67
656.416	407.9
656.756	392.58
657.095	438.54
657.435	402.8
657.774	349.17
658.113	372.15
658.452	384.92
658.792	367.05
659.131	338.96
659.47	395.14
659.809	425.78
660.148	387.48
660.487	310.87
660.826	313.43
661.164	407.9
661.503	382.37
661.842	372.15
662.181	395.14
662.519	377.26
662.858	341.51
663.196	374.71
663.535	410.46
663.873	377.26
664.212	392.58
664.55	349.17
664.888	341.51
665.226	415.56
665.565	413.01
665.903	645.37
666.241	461.52
666.579	354.28
666.917	418.12
667.255	415.56
667.593	390.03
667.931	369.6
668.268	397.69
668.606	458.97
668.944	418.12
669.282	410.46
669.619	384.92
669.957	361.94
670.294	397.69
670.632	356.83
670.969	410.46
671.307	351.73
671.644	420.67
671.981	418.12
672.318	474.29
672.656	471.74
672.993	364.49
673.33	344.07
673.667	351.73
674.004	338.96
674.341	369.6
674.678	392.58
675.015	382.37
675.351	379.81
675.688	354.28
676.025	451.31
676.362	400.24
676.698	390.03
677.035	354.28
677.371	372.15
677.708	410.46
678.044	395.14
678.38	364.49
678.717	413.01
679.053	369.6
679.389	349.17
679.725	428.33
680.062	387.48
680.398	446.2
680.734	390.03
681.07	384.92
681.406	402.8
681.742	413.01
682.077	377.26
682.413	435.99
682.749	407.9
683.085	349.17
683.42	344.07
683.756	387.48
684.091	413.01
684.427	413.01
684.762	405.35
685.098	418.12
685.433	377.26
685.768	430.88
686.104	425.78
686.439	382.37
686.774	443.65
687.109	433.44
687.444	338.96
687.779	372.15
688.114	369.6
688.449	415.56
688.784	410.46
689.119	354.28
689.454	395.14
689.789	379.81
690.123	433.44
690.458	349.17
690.792	377.26
691.127	315.98
691.461	395.14
691.796	430.88
692.13	395.14
692.465	402.8
692.799	392.58
693.133	351.73
693.467	364.49
693.802	382.37
694.136	425.78
694.47	471.74
694.804	425.78
695.138	397.69
695.472	435.99
695.806	372.15
696.139	354.28
696.473	372.15
696.807	387.48
697.141	407.9
697.474	369.6
697.808	402.8
698.141	338.96
698.475	382.37
698.808	402.8
699.142	441.1
699.475	364.49
699.808	400.24
700.142	384.92
700.475	451.31
700.808	390.03
701.141	377.26
701.474	400.24
701.807	402.8
702.14	390.03
702.473	435.99
702.806	433.44
703.139	390.03
703.472	476.84
703.804	451.31
704.137	402.8
704.47	354.28
704.802	415.56
705.135	413.01
705.467	369.6
705.8	344.07
706.132	397.69
706.464	387.48
706.797	430.88
707.129	405.35
707.461	494.72
707.793	423.22
708.125	438.54
708.457	364.49
708.789	438.54
709.121	344.07
709.453	390.03
709.785	433.44
710.117	387.48
710.449	469.18
710.781	418.12
711.112	344.07
711.444	395.14
711.775	387.48
712.107	433.44
712.438	428.33
712.77	382.37
713.101	387.48
713.433	413.01
713.764	379.81
714.095	310.87
714.426	364.49
714.757	392.58
715.089	384.92
715.42	456.42
715.751	471.74
716.082	341.51
716.412	384.92
716.743	402.8
717.074	372.15
717.405	415.56
717.736	308.32
718.066	413.01
718.397	435.99
718.727	435.99
719.058	346.62
719.388	390.03
719.719	384.92
720.049	392.58
720.38	413.01
720.71	361.94
721.04	384.92
721.37	423.22
721.7	430.88
722.031	435.99
722.361	369.6
722.691	387.48
723.021	374.71
723.35	328.75
723.68	407.9
724.01	364.49
724.34	387.48
724.67	407.9
724.999	405.35
725.329	418.12
725.658	418.12
725.988	453.86
726.317	423.22
726.647	361.94
726.976	377.26
727.306	351.73
727.635	384.92
727.964	451.31
728.293	379.81
728.622	377.26
728.952	384.92
729.281	448.76
729.61	354.28
729.939	369.6
730.267	346.62
730.596	428.33
730.925	387.48
731.254	346.62
731.583	400.24
731.911	367.05
732.24	367.05
732.568	336.41
732.897	315.98
733.225	451.31
733.554	443.65
733.882	474.29
734.21	382.37
734.539	438.54
734.867	318.53
735.195	390.03
735.523	333.85
735.851	303.21
736.179	372.15
736.507	369.6
736.835	405.35
737.163	433.44
737.491	387.48
737.819	395.14
738.147	379.81
738.474	407.9
738.802	400.24
739.13	407.9
739.457	336.41
739.785	410.46
740.112	438.54
740.44	441.1
740.767	392.58
741.094	423.22
741.422	405.35
741.749	402.8
742.076	415.56
742.403	415.56
742.73	435.99
743.057	392.58
743.384	415.56
743.711	382.37
744.038	387.48
744.365	469.18
744.692	410.46
745.018	346.62
745.345	374.71
745.672	407.9
745.998	392.58
746.325	338.96
746.651	346.62
746.978	367.05
747.304	356.83
747.631	430.88
747.957	415.56
748.283	433.44
748.61	361.94
748.936	397.69
749.262	379.81
749.588	315.98
749.914	390.03
750.24	420.67
750.566	346.62
750.892	349.17
751.218	310.87
751.543	425.78
751.869	374.71
752.195	418.12
752.521	405.35
752.846	379.81
753.172	321.09
753.497	413.01
753.823	418.12
754.148	443.65
754.473	420.67
754.799	390.03
755.124	435.99
755.449	413.01
755.774	405.35
756.1	354.28
756.425	466.63
756.75	361.94
757.075	328.75
757.4	530.46
757.724	397.69
758.049	346.62
758.374	374.71
758.699	364.49
759.024	361.94
759.348	372.15
759.673	356.83
759.997	453.86
760.322	382.37
760.646	349.17
760.971	400.24
761.295	407.9
761.619	344.07
761.944	369.6
762.268	379.81
762.592	405.35
762.916	392.58
763.24	418.12
763.564	338.96
763.888	430.88
764.212	361.94
764.536	333.85
764.86	361.94
765.184	379.81
765.508	405.35
765.831	333.85
766.155	729.63
766.478	451.31
766.802	415.56
767.126	397.69
767.449	397.69
767.772	359.39
768.096	425.78
768.419	423.22
768.742	423.22
769.066	407.9
769.389	390.03
769.712	367.05
770.035	344.07
770.358	390.03
770.681	321.09
771.004	415.56
771.327	321.09
771.65	413.01
771.972	405.35
772.295	415.56
772.618	397.69
772.941	359.39
773.263	395.14
773.586	372.15
773.908	356.83
774.231	372.15
774.553	359.39
774.875	423.22
775.198	425.78
775.52	372.15
775.842	415.56
776.164	466.63
776.487	425.78
776.809	474.29
777.131	446.2
777.453	387.48
777.775	423.22
778.096	346.62
778.418	425.78
778.74	326.19
779.062	356.83
779.384	400.24
779.705	484.5
780.027	382.37
780.348	387.48
780.67	382.37
780.991	359.39
781.313	400.24
781.634	435.99
781.955	351.73
782.277	308.32
782.598	425.78
782.919	369.6
783.24	326.19
783.561	410.46
783.882	359.39
784.203	377.26
784.524	354.28
784.845	407.9
785.166	456.42
785.487	395.14
785.807	382.37
786.128	407.9
786.449	372.15
786.769	361.94
787.09	372.15
787.41	369.6
787.731	397.69
788.051	384.92
788.372	410.46
788.692	349.17
789.012	405.35
789.332	367.05
789.653	387.48
789.973	405.35
790.293	379.81
790.613	341.51
790.933	428.33
791.253	418.12
791.573	413.01
791.893	451.31
792.212	405.35
792.532	346.62
792.852	351.73
793.171	405.35
793.491	481.95
793.811	377.26
794.13	423.22
794.45	425.78
794.769	413.01
795.088	390.03
795.408	377.26
795.727	349.17
796.046	418.12
796.365	359.39
796.684	359.39
797.004	387.48
797.323	400.24
797.642	290.45
797.96	364.49
798.279	369.6
798.598	356.83
798.917	379.81
799.236	425.78
799.554	423.22
799.873	415.56
800.192	367.05
800.51	390.03
800.829	382.37
801.147	390.03
801.466	392.58
801.784	413.01
