Data from 2025-12-03_xpw_interference_micrometer_634_dark_FLMS141361__88__238.txt Node

Date: Wed Dec 03 15:50:08 MST 2025
User: james
Spectrometer: FLMS14136
Trigger mode: 0
Integration Time (sec): 1.000000E-1
Scans to average: 1
Electric dark correction enabled: true
Nonlinearity correction enabled: false
Boxcar width: 0
XAxis mode: Wavelengths
Number of Pixels in Spectrum: 2048
>>>>>Begin Spectral Data<<<<<
339.315	-26.97
339.697	-26.97
340.079	-26.97
340.461	-21.86
340.843	-42.29
341.225	-111.23
341.607	-75.48
341.989	-141.87
342.371	-98.46
342.752	-72.93
343.134	-21.86
343.516	-55.06
343.897	3.67
344.279	11.33
344.661	24.1
345.042	24.1
345.423	52.18
345.805	57.29
346.186	75.17
346.567	149.21
346.949	179.85
347.33	238.58
347.711	210.49
348.092	205.39
348.473	225.81
348.854	256.45
349.235	276.88
349.616	205.39
349.997	304.97
350.378	340.72
350.758	366.25
351.139	294.76
351.52	330.5
351.9	340.72
352.281	409.66
352.661	391.78
353.042	361.14
353.422	353.48
353.803	404.55
354.183	361.14
354.563	343.27
354.943	368.8
355.324	384.12
355.704	424.98
356.084	424.98
356.464	368.8
356.844	407.1
357.224	338.16
357.603	343.27
357.983	435.19
358.363	432.64
358.743	396.89
359.122	412.21
359.502	435.19
359.882	373.91
360.261	450.51
360.641	330.5
361.02	394.34
361.399	333.06
361.779	307.52
362.158	391.78
362.537	322.84
362.916	302.42
363.296	379.02
363.675	371.36
364.054	384.12
364.433	348.38
364.812	358.59
365.19	325.4
365.569	368.8
365.948	379.02
366.327	366.25
366.705	345.82
367.084	356.04
367.463	299.86
367.841	442.85
368.22	335.61
368.598	376.46
368.977	330.5
369.355	363.7
369.733	307.52
370.111	386.68
370.49	320.29
370.868	455.62
371.246	368.8
371.624	427.53
372.002	340.72
372.38	322.84
372.758	343.27
373.136	315.18
373.513	335.61
373.891	363.7
374.269	363.7
374.646	394.34
375.024	320.29
375.402	330.5
375.779	379.02
376.157	399.44
376.534	241.13
376.911	307.52
377.289	384.12
377.666	356.04
378.043	340.72
378.42	409.66
378.797	361.14
379.175	389.23
379.552	412.21
379.929	379.02
380.305	432.64
380.682	368.8
381.059	356.04
381.436	348.38
381.813	304.97
382.189	271.78
382.566	386.68
382.943	345.82
383.319	330.5
383.696	381.57
384.072	338.16
384.448	386.68
384.825	340.72
385.201	302.42
385.577	389.23
385.953	284.54
386.329	345.82
386.706	419.87
387.082	399.44
387.458	356.04
387.834	417.32
388.209	376.46
388.585	396.89
388.961	366.25
389.337	391.78
389.713	345.82
390.088	371.36
390.464	447.96
390.839	391.78
391.215	312.63
391.59	402
391.966	399.44
392.341	361.14
392.716	379.02
393.092	353.48
393.467	327.95
393.842	299.86
394.217	389.23
394.592	366.25
394.967	333.06
395.342	381.57
395.717	373.91
396.092	350.93
396.467	391.78
396.841	414.76
397.216	353.48
397.591	348.38
397.965	322.84
398.34	379.02
398.714	327.95
399.089	317.74
399.463	432.64
399.838	338.16
400.212	376.46
400.586	453.07
400.961	386.68
401.335	368.8
401.709	325.4
402.083	396.89
402.457	307.52
402.831	361.14
403.205	432.64
403.579	356.04
403.953	427.53
404.326	412.21
404.7	373.91
405.074	394.34
405.447	422.42
405.821	366.25
406.195	353.48
406.568	338.16
406.942	455.62
407.315	409.66
407.688	437.74
408.062	373.91
408.435	402
408.808	292.2
409.181	350.93
409.554	412.21
409.927	348.38
410.3	394.34
410.673	394.34
411.046	450.51
411.419	399.44
411.792	402
412.165	389.23
412.537	322.84
412.91	407.1
413.283	356.04
413.655	476.05
414.028	427.53
414.4	424.98
414.773	386.68
415.145	376.46
415.517	338.16
415.889	350.93
416.262	404.55
416.634	478.6
417.006	458.17
417.378	422.42
417.75	394.34
418.122	481.15
418.494	473.49
418.866	422.42
419.238	384.12
419.609	409.66
419.981	402
420.353	394.34
420.725	389.23
421.096	358.59
421.468	391.78
421.839	424.98
422.211	414.76
422.582	396.89
422.953	356.04
423.325	404.55
423.696	327.95
424.067	389.23
424.438	366.25
424.809	442.85
425.18	379.02
425.551	463.28
425.922	407.1
426.293	432.64
426.664	424.98
427.035	453.07
427.406	399.44
427.776	437.74
428.147	394.34
428.518	404.55
428.888	404.55
429.259	396.89
429.629	422.42
429.999	399.44
430.37	379.02
430.74	399.44
431.11	407.1
431.481	455.62
431.851	432.64
432.221	371.36
432.591	417.32
432.961	417.32
433.331	384.12
433.701	358.59
434.071	379.02
434.441	447.96
434.81	412.21
435.18	399.44
435.55	356.04
435.919	447.96
436.289	422.42
436.658	430.08
437.028	437.74
437.397	458.17
437.767	361.14
438.136	368.8
438.505	340.72
438.875	396.89
439.244	432.64
439.613	430.08
439.982	407.1
440.351	368.8
440.72	386.68
441.089	379.02
441.458	391.78
441.827	422.42
442.196	442.85
442.564	468.39
442.933	417.32
443.302	394.34
443.67	404.55
444.039	440.3
444.407	417.32
444.776	422.42
445.144	322.84
445.513	389.23
445.881	376.46
446.249	350.93
446.617	440.3
446.986	327.95
447.354	437.74
447.722	386.68
448.09	424.98
448.458	468.39
448.826	442.85
449.194	432.64
449.561	376.46
449.929	409.66
450.297	335.61
450.665	368.8
451.032	389.23
451.4	350.93
451.767	376.46
452.135	463.28
452.502	417.32
452.87	340.72
453.237	409.66
453.604	371.36
453.971	450.51
454.339	463.28
454.706	424.98
455.073	391.78
455.44	399.44
455.807	432.64
456.174	460.73
456.541	486.26
456.908	358.59
457.274	381.57
457.641	394.34
458.008	407.1
458.374	419.87
458.741	402
459.108	445.4
459.474	430.08
459.841	422.42
460.207	396.89
460.573	379.02
460.94	430.08
461.306	356.04
461.672	501.58
462.038	417.32
462.404	386.68
462.771	463.28
463.137	386.68
463.503	437.74
463.868	391.78
464.234	356.04
464.6	409.66
464.966	417.32
465.332	447.96
465.697	424.98
466.063	442.85
466.429	396.89
466.794	432.64
467.16	417.32
467.525	435.19
467.89	363.7
468.256	407.1
468.621	455.62
468.986	407.1
469.351	343.27
469.717	455.62
470.082	453.07
470.447	435.19
470.812	356.04
471.177	414.76
471.542	486.26
471.906	445.4
472.271	384.12
472.636	371.36
473.001	419.87
473.365	373.91
473.73	430.08
474.094	419.87
474.459	394.34
474.823	504.13
475.188	399.44
475.552	376.46
475.917	361.14
476.281	424.98
476.645	394.34
477.009	345.82
477.373	407.1
477.737	384.12
478.101	409.66
478.465	404.55
478.829	417.32
479.193	391.78
479.557	455.62
479.921	437.74
480.284	384.12
480.648	371.36
481.012	409.66
481.375	404.55
481.739	427.53
482.102	445.4
482.466	465.83
482.829	529.67
483.193	414.76
483.556	386.68
483.919	424.98
484.282	430.08
484.645	407.1
485.009	379.02
485.372	386.68
485.735	384.12
486.098	391.78
486.46	396.89
486.823	407.1
487.186	396.89
487.549	404.55
487.912	445.4
488.274	453.07
488.637	442.85
488.999	422.42
489.362	394.34
489.724	419.87
490.087	470.94
490.449	384.12
490.811	384.12
491.174	435.19
491.536	396.89
491.898	396.89
492.26	389.23
492.622	404.55
492.984	481.15
493.346	381.57
493.708	447.96
494.07	356.04
494.432	424.98
494.794	376.46
495.155	419.87
495.517	437.74
495.879	376.46
496.24	399.44
496.602	473.49
496.963	371.36
497.325	412.21
497.686	468.39
498.048	396.89
498.409	455.62
498.77	419.87
499.131	389.23
499.492	376.46
499.854	437.74
500.215	450.51
500.576	458.17
500.937	422.42
501.298	478.6
501.658	468.39
502.019	473.49
502.38	473.49
502.741	414.76
503.101	381.57
503.462	376.46
503.823	373.91
504.183	435.19
504.543	440.3
504.904	399.44
505.264	396.89
505.625	419.87
505.985	419.87
506.345	422.42
506.705	483.71
507.065	432.64
507.426	407.1
507.786	422.42
508.146	424.98
508.505	414.76
508.865	430.08
509.225	350.93
509.585	516.9
509.945	404.55
510.304	379.02
510.664	396.89
511.024	353.48
511.383	460.73
511.743	373.91
512.102	412.21
512.462	391.78
512.821	409.66
513.18	407.1
513.539	414.76
513.899	404.55
514.258	419.87
514.617	427.53
514.976	376.46
515.335	430.08
515.694	435.19
516.053	453.07
516.412	458.17
516.771	366.25
517.129	453.07
517.488	384.12
517.847	419.87
518.205	447.96
518.564	366.25
518.922	353.48
519.281	404.55
519.639	417.32
519.998	412.21
520.356	417.32
520.714	399.44
521.073	338.16
521.431	412.21
521.789	379.02
522.147	432.64
522.505	427.53
522.863	437.74
523.221	384.12
523.579	468.39
523.937	409.66
524.295	412.21
524.652	478.6
525.01	465.83
525.368	376.46
525.725	381.57
526.083	409.66
526.44	386.68
526.798	430.08
527.155	458.17
527.513	404.55
527.87	422.42
528.227	366.25
528.584	422.42
528.942	447.96
529.299	501.58
529.656	476.05
530.013	427.53
530.37	409.66
530.727	412.21
531.083	391.78
531.44	455.62
531.797	422.42
532.154	402
532.511	414.76
532.867	440.3
533.224	379.02
533.58	358.59
533.937	358.59
534.293	414.76
534.65	417.32
535.006	463.28
535.362	478.6
535.718	407.1
536.075	394.34
536.431	402
536.787	419.87
537.143	381.57
537.499	422.42
537.855	424.98
538.211	465.83
538.567	412.21
538.923	419.87
539.278	419.87
539.634	373.91
539.99	384.12
540.345	404.55
540.701	447.96
541.056	407.1
541.412	440.3
541.767	414.76
542.123	399.44
542.478	391.78
542.833	468.39
543.188	396.89
543.544	455.62
543.899	463.28
544.254	440.3
544.609	412.21
544.964	402
545.319	394.34
545.674	470.94
546.029	381.57
546.383	435.19
546.738	379.02
547.093	379.02
547.447	381.57
547.802	379.02
548.157	379.02
548.511	366.25
548.866	386.68
549.22	409.66
549.574	458.17
549.929	432.64
550.283	417.32
550.637	478.6
550.991	453.07
551.345	432.64
551.699	358.59
552.053	371.36
552.407	350.93
552.761	384.12
553.115	440.3
553.469	509.24
553.823	384.12
554.176	445.4
554.53	373.91
554.884	366.25
555.237	677.76
555.591	496.47
555.944	476.05
556.298	399.44
556.651	381.57
557.005	373.91
557.358	384.12
557.711	430.08
558.064	381.57
558.417	394.34
558.771	506.69
559.124	409.66
559.477	473.49
559.83	302.42
560.182	363.7
560.535	440.3
560.888	458.17
561.241	368.8
561.594	404.55
561.946	409.66
562.299	376.46
562.651	447.96
563.004	350.93
563.356	414.76
563.709	437.74
564.061	437.74
564.413	422.42
564.766	404.55
565.118	450.51
565.47	458.17
565.822	432.64
566.174	404.55
566.526	327.95
566.878	458.17
567.23	432.64
567.582	404.55
567.934	470.94
568.286	417.32
568.638	396.89
568.989	399.44
569.341	379.02
569.693	361.14
570.044	381.57
570.396	345.82
570.747	315.18
571.098	447.96
571.45	414.76
571.801	440.3
572.152	391.78
572.504	417.32
572.855	422.42
573.206	419.87
573.557	453.07
573.908	399.44
574.259	422.42
574.61	399.44
574.961	432.64
575.311	470.94
575.662	473.49
576.013	419.87
576.364	376.46
576.714	435.19
577.065	381.57
577.415	368.8
577.766	417.32
578.116	391.78
578.467	348.38
578.817	419.87
579.167	447.96
579.518	422.42
579.868	368.8
580.218	386.68
580.568	458.17
580.918	407.1
581.268	399.44
581.618	376.46
581.968	396.89
582.318	356.04
582.668	447.96
583.017	437.74
583.367	417.32
583.717	366.25
584.066	422.42
584.416	381.57
584.765	345.82
585.115	371.36
585.464	407.1
585.814	424.98
586.163	435.19
586.512	391.78
586.862	389.23
587.211	427.53
587.56	424.98
587.909	363.7
588.258	399.44
588.607	463.28
588.956	483.71
589.305	394.34
589.654	394.34
590.002	442.85
590.351	353.48
590.7	435.19
591.048	373.91
591.397	394.34
591.746	419.87
592.094	430.08
592.443	373.91
592.791	435.19
593.139	440.3
593.488	356.04
593.836	340.72
594.184	358.59
594.532	409.66
594.88	427.53
595.228	361.14
595.576	348.38
595.924	432.64
596.272	432.64
596.62	432.64
596.968	419.87
597.316	361.14
597.664	455.62
598.011	384.12
598.359	435.19
598.706	371.36
599.054	343.27
599.402	419.87
599.749	399.44
600.096	424.98
600.444	389.23
600.791	353.48
601.138	417.32
601.485	402
601.833	394.34
602.18	371.36
602.527	419.87
602.874	407.1
603.221	394.34
603.568	460.73
603.914	414.76
604.261	488.81
604.608	407.1
604.955	424.98
605.301	412.21
605.648	409.66
605.995	432.64
606.341	422.42
606.688	435.19
607.034	460.73
607.38	417.32
607.727	373.91
608.073	384.12
608.419	419.87
608.765	417.32
609.112	417.32
609.458	435.19
609.804	460.73
610.15	427.53
610.496	417.32
610.842	361.14
611.187	363.7
611.533	366.25
611.879	345.82
612.225	371.36
612.57	384.12
612.916	440.3
613.261	422.42
613.607	422.42
613.952	384.12
614.298	379.02
614.643	386.68
614.989	409.66
615.334	394.34
615.679	358.59
616.024	381.57
616.369	335.61
616.714	417.32
617.059	470.94
617.404	412.21
617.749	455.62
618.094	458.17
618.439	417.32
618.784	356.04
619.129	343.27
619.473	389.23
619.818	422.42
620.163	458.17
620.507	402
620.852	414.76
621.196	463.28
621.54	430.08
621.885	386.68
622.229	389.23
622.573	430.08
622.918	399.44
623.262	330.5
623.606	386.68
623.95	335.61
624.294	391.78
624.638	417.32
624.982	409.66
625.326	366.25
625.67	371.36
626.013	348.38
626.357	345.82
626.701	335.61
627.044	391.78
627.388	379.02
627.731	407.1
628.075	407.1
628.418	381.57
628.762	348.38
629.105	437.74
629.448	366.25
629.792	437.74
630.135	424.98
630.478	412.21
630.821	417.32
631.164	422.42
631.507	422.42
631.85	404.55
632.193	353.48
632.536	422.42
632.879	409.66
633.221	460.73
633.564	414.76
633.907	384.12
634.249	358.59
634.592	356.04
634.935	381.57
635.277	384.12
635.619	389.23
635.962	386.68
636.304	453.07
636.646	445.4
636.989	409.66
637.331	412.21
637.673	407.1
638.015	450.51
638.357	445.4
638.699	402
639.041	414.76
639.383	396.89
639.725	361.14
640.067	343.27
640.408	430.08
640.75	399.44
641.092	442.85
641.433	460.73
641.775	424.98
642.116	386.68
642.458	402
642.799	389.23
643.141	442.85
643.482	399.44
643.823	361.14
644.164	450.51
644.506	422.42
644.847	353.48
645.188	356.04
645.529	373.91
645.87	381.57
646.211	430.08
646.552	358.59
646.893	417.32
647.233	455.62
647.574	414.76
647.915	299.86
648.255	396.89
648.596	371.36
648.937	373.91
649.277	399.44
649.618	409.66
649.958	407.1
650.298	409.66
650.639	399.44
650.979	427.53
651.319	396.89
651.659	396.89
651.999	427.53
652.339	422.42
652.679	453.07
653.019	412.21
653.359	361.14
653.699	391.78
654.039	450.51
654.379	389.23
654.719	409.66
655.058	379.02
655.398	389.23
655.737	407.1
656.077	463.28
656.416	432.64
656.756	361.14
657.095	396.89
657.435	427.53
657.774	373.91
658.113	414.76
658.452	384.12
658.792	310.08
659.131	340.72
659.47	445.4
659.809	419.87
660.148	399.44
660.487	419.87
660.826	465.83
661.164	435.19
661.503	427.53
661.842	335.61
662.181	376.46
662.519	394.34
662.858	424.98
663.196	371.36
663.535	386.68
663.873	407.1
664.212	409.66
664.55	440.3
664.888	389.23
665.226	412.21
665.565	417.32
665.903	560.31
666.241	402
666.579	432.64
666.917	394.34
667.255	437.74
667.593	386.68
667.931	440.3
668.268	399.44
668.606	358.59
668.944	350.93
669.282	366.25
669.619	417.32
669.957	345.82
670.294	345.82
670.632	338.16
670.969	417.32
671.307	437.74
671.644	376.46
671.981	299.86
672.318	350.93
672.656	417.32
672.993	340.72
673.33	422.42
673.667	394.34
674.004	501.58
674.341	396.89
674.678	409.66
675.015	430.08
675.351	440.3
675.688	422.42
676.025	381.57
676.362	356.04
676.698	422.42
677.035	402
677.371	460.73
677.708	373.91
678.044	412.21
678.38	455.62
678.717	333.06
679.053	412.21
679.389	379.02
679.725	368.8
680.062	373.91
680.398	322.84
680.734	394.34
681.07	366.25
681.406	407.1
681.742	481.15
682.077	419.87
682.413	424.98
682.749	350.93
683.085	396.89
683.42	417.32
683.756	402
684.091	404.55
684.427	445.4
684.762	432.64
685.098	361.14
685.433	343.27
685.768	409.66
686.104	394.34
686.439	353.48
686.774	409.66
687.109	430.08
687.444	350.93
687.779	419.87
688.114	389.23
688.449	386.68
688.784	386.68
689.119	430.08
689.454	412.21
689.789	447.96
690.123	396.89
690.458	442.85
690.792	437.74
691.127	404.55
691.461	417.32
691.796	376.46
692.13	445.4
692.465	371.36
692.799	373.91
693.133	437.74
693.467	422.42
693.802	414.76
694.136	394.34
694.47	389.23
694.804	391.78
695.138	455.62
695.472	363.7
695.806	409.66
696.139	422.42
696.473	384.12
696.807	399.44
697.141	384.12
697.474	422.42
697.808	424.98
698.141	445.4
698.475	386.68
698.808	419.87
699.142	384.12
699.475	404.55
699.808	379.02
700.142	417.32
700.475	458.17
700.808	384.12
701.141	394.34
701.474	386.68
701.807	499.03
702.14	371.36
702.473	394.34
702.806	409.66
703.139	427.53
703.472	381.57
703.804	353.48
704.137	353.48
704.47	402
704.802	402
705.135	399.44
705.467	343.27
705.8	399.44
706.132	379.02
706.464	363.7
706.797	396.89
707.129	333.06
707.461	437.74
707.793	386.68
708.125	419.87
708.457	376.46
708.789	435.19
709.121	458.17
709.453	412.21
709.785	427.53
710.117	453.07
710.449	317.74
710.781	330.5
711.112	368.8
711.444	407.1
711.775	414.76
712.107	381.57
712.438	409.66
712.77	381.57
713.101	407.1
713.433	373.91
713.764	424.98
714.095	422.42
714.426	450.51
714.757	376.46
715.089	394.34
715.42	440.3
715.751	424.98
716.082	376.46
716.412	402
716.743	430.08
717.074	407.1
717.405	430.08
717.736	417.32
718.066	440.3
718.397	437.74
718.727	361.14
719.058	412.21
719.388	427.53
719.719	422.42
720.049	402
720.38	430.08
720.71	409.66
721.04	442.85
721.37	399.44
721.7	399.44
722.031	376.46
722.361	412.21
722.691	435.19
723.021	366.25
723.35	407.1
723.68	417.32
724.01	399.44
724.34	404.55
724.67	417.32
724.999	432.64
725.329	391.78
725.658	371.36
725.988	307.52
726.317	396.89
726.647	424.98
726.976	445.4
727.306	435.19
727.635	361.14
727.964	427.53
728.293	424.98
728.622	404.55
728.952	353.48
729.281	409.66
729.61	396.89
729.939	450.51
730.267	384.12
730.596	409.66
730.925	447.96
731.254	442.85
731.583	376.46
731.911	424.98
732.24	417.32
732.568	432.64
732.897	430.08
733.225	417.32
733.554	379.02
733.882	361.14
734.21	358.59
734.539	356.04
734.867	422.42
735.195	417.32
735.523	373.91
735.851	381.57
736.179	458.17
736.507	419.87
736.835	345.82
737.163	389.23
737.491	389.23
737.819	361.14
738.147	432.64
738.474	432.64
738.802	402
739.13	345.82
739.457	440.3
739.785	430.08
740.112	409.66
740.44	373.91
740.767	427.53
741.094	407.1
741.422	402
741.749	463.28
742.076	424.98
742.403	402
742.73	417.32
743.057	414.76
743.384	404.55
743.711	368.8
744.038	368.8
744.365	412.21
744.692	414.76
745.018	389.23
745.345	417.32
745.672	447.96
745.998	455.62
746.325	419.87
746.651	396.89
746.978	366.25
747.304	483.71
747.631	399.44
747.957	422.42
748.283	422.42
748.61	432.64
748.936	379.02
749.262	407.1
749.588	445.4
749.914	368.8
750.24	343.27
750.566	412.21
750.892	432.64
751.218	409.66
751.543	371.36
751.869	358.59
752.195	343.27
752.521	379.02
752.846	356.04
753.172	430.08
753.497	402
753.823	394.34
754.148	458.17
754.473	417.32
754.799	422.42
755.124	379.02
755.449	445.4
755.774	407.1
756.1	396.89
756.425	430.08
756.75	432.64
757.075	394.34
757.4	560.31
757.724	361.14
758.049	396.89
758.374	368.8
758.699	384.12
759.024	366.25
759.348	358.59
759.673	396.89
759.997	381.57
760.322	379.02
760.646	335.61
760.971	376.46
761.295	412.21
761.619	440.3
761.944	422.42
762.268	402
762.592	407.1
762.916	399.44
763.24	381.57
763.564	368.8
763.888	419.87
764.212	386.68
764.536	412.21
764.86	404.55
765.184	386.68
765.508	340.72
765.831	391.78
766.155	629.25
766.478	435.19
766.802	376.46
767.126	440.3
767.449	435.19
767.772	414.76
768.096	399.44
768.419	427.53
768.742	422.42
769.066	409.66
769.389	373.91
769.712	330.5
770.035	386.68
770.358	424.98
770.681	442.85
771.004	435.19
771.327	368.8
771.65	396.89
771.972	399.44
772.295	394.34
772.618	384.12
772.941	412.21
773.263	396.89
773.586	432.64
773.908	430.08
774.231	358.59
774.553	394.34
774.875	376.46
775.198	435.19
775.52	437.74
775.842	402
776.164	384.12
776.487	437.74
776.809	404.55
777.131	381.57
777.453	373.91
777.775	394.34
778.096	376.46
778.418	389.23
778.74	389.23
779.062	379.02
779.384	430.08
779.705	437.74
780.027	376.46
780.348	427.53
780.67	432.64
780.991	366.25
781.313	402
781.634	402
781.955	299.86
782.277	399.44
782.598	396.89
782.919	389.23
783.24	424.98
783.561	435.19
783.882	361.14
784.203	391.78
784.524	458.17
784.845	404.55
785.166	419.87
785.487	419.87
785.807	430.08
786.128	422.42
786.449	404.55
786.769	340.72
787.09	350.93
787.41	371.36
787.731	389.23
788.051	404.55
788.372	368.8
788.692	394.34
789.012	450.51
789.332	437.74
789.653	409.66
789.973	407.1
790.293	430.08
790.613	396.89
790.933	396.89
791.253	432.64
791.573	396.89
791.893	330.5
792.212	458.17
792.532	453.07
792.852	399.44
793.171	396.89
793.491	358.59
793.811	407.1
794.13	363.7
794.45	432.64
794.769	366.25
795.088	381.57
795.408	499.03
795.727	450.51
796.046	440.3
796.365	391.78
796.684	419.87
797.004	381.57
797.323	422.42
797.642	412.21
797.96	445.4
798.279	488.81
798.598	373.91
798.917	419.87
799.236	450.51
799.554	491.37
799.873	366.25
800.192	343.27
800.51	396.89
800.829	381.57
801.147	376.46
801.466	427.53
801.784	435.19
802.102	504.13
802.421	440.3
802.739	391.78
803.057	488.81
803.375	409.66
803.693	445.4
