Data from 2025-12-03_xpw_interference_micrometer_634_dark_FLMS141361__27__177.txt Node

Date: Wed Dec 03 15:50:02 MST 2025
User: james
Spectrometer: FLMS14136
Trigger mode: 0
Integration Time (sec): 1.000000E-1
Scans to average: 1
Electric dark correction enabled: true
Nonlinearity correction enabled: false
Boxcar width: 0
XAxis mode: Wavelengths
Number of Pixels in Spectrum: 2048
>>>>>Begin Spectral Data<<<<<
339.315	-105.17
339.697	-105.17
340.079	-105.17
340.461	-138.36
340.843	-125.59
341.225	-82.19
341.607	-48.99
341.989	-64.31
342.371	-102.61
342.752	-77.08
343.134	-33.67
343.516	-54.1
343.897	-0.48
344.279	-3.03
344.661	-26.01
345.042	-0.48
345.423	35.27
345.805	73.57
346.186	86.34
346.567	137.4
346.949	160.38
347.33	106.76
347.711	221.67
348.092	229.33
348.473	203.79
348.854	234.43
349.235	270.18
349.616	224.22
349.997	290.61
350.378	267.63
350.758	267.63
351.139	372.31
351.52	308.48
351.9	280.39
352.281	262.52
352.661	339.12
353.042	336.57
353.422	379.97
353.803	408.06
354.183	321.25
354.563	415.72
354.943	400.4
355.324	395.29
355.704	410.62
356.084	418.28
356.464	367.21
356.844	425.94
357.224	392.74
357.603	349.33
357.983	359.55
358.363	344.23
358.743	341.67
359.122	346.78
359.502	410.62
359.882	379.97
360.261	392.74
360.641	377.42
361.02	420.83
361.399	364.65
361.779	293.16
362.158	356.99
362.537	262.52
362.916	344.23
363.296	377.42
363.675	346.78
364.054	293.16
364.433	346.78
364.812	402.95
365.19	293.16
365.569	364.65
365.948	377.42
366.327	334.01
366.705	295.71
367.084	290.61
367.463	367.21
367.841	303.37
368.22	423.38
368.598	323.8
368.977	367.21
369.355	308.48
369.733	326.35
370.111	372.31
370.49	316.14
370.868	359.55
371.246	339.12
371.624	288.05
372.002	402.95
372.38	349.33
372.758	369.76
373.136	334.01
373.513	359.55
373.891	351.89
374.269	354.44
374.646	359.55
375.024	300.82
375.402	364.65
375.779	392.74
376.157	351.89
376.534	349.33
376.911	311.03
377.289	331.46
377.666	382.53
378.043	372.31
378.42	293.16
378.797	397.85
379.175	397.85
379.552	321.25
379.929	387.63
380.305	341.67
380.682	328.91
381.059	379.97
381.436	397.85
381.813	379.97
382.189	402.95
382.566	359.55
382.943	339.12
383.319	379.97
383.696	359.55
384.072	311.03
384.448	369.76
384.825	374.87
385.201	359.55
385.577	379.97
385.953	341.67
386.329	400.4
386.706	387.63
387.082	374.87
387.458	344.23
387.834	316.14
388.209	328.91
388.585	334.01
388.961	341.67
389.337	326.35
389.713	344.23
390.088	298.27
390.464	413.17
390.839	356.99
391.215	379.97
391.59	433.6
391.966	390.19
392.341	362.1
392.716	298.27
393.092	385.08
393.467	372.31
393.842	339.12
394.217	367.21
394.592	328.91
394.967	336.57
395.342	408.06
395.717	374.87
396.092	318.69
396.467	374.87
396.841	369.76
397.216	354.44
397.591	408.06
397.965	349.33
398.34	341.67
398.714	364.65
399.089	362.1
399.463	390.19
399.838	369.76
400.212	448.92
400.586	362.1
400.961	321.25
401.335	303.37
401.709	400.4
402.083	400.4
402.457	372.31
402.831	351.89
403.205	367.21
403.579	420.83
403.953	313.59
404.326	326.35
404.7	382.53
405.074	385.08
405.447	364.65
405.821	392.74
406.195	390.19
406.568	418.28
406.942	392.74
407.315	321.25
407.688	362.1
408.062	354.44
408.435	313.59
408.808	290.61
409.181	423.38
409.554	362.1
409.927	382.53
410.3	341.67
410.673	387.63
411.046	423.38
411.419	397.85
411.792	402.95
412.165	356.99
412.537	359.55
412.91	331.46
413.283	349.33
413.655	372.31
414.028	379.97
414.4	334.01
414.773	351.89
415.145	349.33
415.517	341.67
415.889	303.37
416.262	356.99
416.634	377.42
417.006	390.19
417.378	336.57
417.75	397.85
418.122	410.62
418.494	339.12
418.866	323.8
419.238	369.76
419.609	344.23
419.981	354.44
420.353	354.44
420.725	387.63
421.096	379.97
421.468	397.85
421.839	423.38
422.211	372.31
422.582	374.87
422.953	390.19
423.325	420.83
423.696	305.93
424.067	377.42
424.438	346.78
424.809	354.44
425.18	323.8
425.551	369.76
425.922	420.83
426.293	379.97
426.664	428.49
427.035	443.81
427.406	431.04
427.776	436.15
428.147	359.55
428.518	374.87
428.888	402.95
429.259	374.87
429.629	341.67
429.999	323.8
430.37	402.95
430.74	362.1
431.11	392.74
431.481	341.67
431.851	413.17
432.221	428.49
432.591	367.21
432.961	433.6
433.331	362.1
433.701	387.63
434.071	395.29
434.441	425.94
434.81	367.21
435.18	331.46
435.55	400.4
435.919	362.1
436.289	382.53
436.658	354.44
437.028	387.63
437.397	395.29
437.767	408.06
438.136	356.99
438.505	408.06
438.875	318.69
439.244	418.28
439.613	420.83
439.982	390.19
440.351	323.8
440.72	395.29
441.089	431.04
441.458	364.65
441.827	400.4
442.196	479.56
442.564	438.7
442.933	441.26
443.302	408.06
443.67	385.08
444.039	364.65
444.407	379.97
444.776	385.08
445.144	303.37
445.513	326.35
445.881	474.45
446.249	379.97
446.617	331.46
446.986	377.42
447.354	420.83
447.722	346.78
448.09	359.55
448.458	362.1
448.826	477
449.194	400.4
449.561	431.04
449.929	405.51
450.297	367.21
450.665	454.02
451.032	390.19
451.4	349.33
451.767	402.95
452.135	374.87
452.502	356.99
452.87	328.91
453.237	410.62
453.604	367.21
453.971	438.7
454.339	446.36
454.706	354.44
455.073	334.01
455.44	359.55
455.807	415.72
456.174	397.85
456.541	382.53
456.908	351.89
457.274	400.4
457.641	382.53
458.008	400.4
458.374	387.63
458.741	392.74
459.108	344.23
459.474	408.06
459.841	308.48
460.207	436.15
460.573	408.06
460.94	392.74
461.306	374.87
461.672	369.76
462.038	336.57
462.404	436.15
462.771	392.74
463.137	402.95
463.503	436.15
463.868	410.62
464.234	413.17
464.6	392.74
464.966	459.13
465.332	438.7
465.697	410.62
466.063	423.38
466.429	387.63
466.794	390.19
467.16	374.87
467.525	359.55
467.89	331.46
468.256	339.12
468.621	359.55
468.986	372.31
469.351	410.62
469.717	397.85
470.082	364.65
470.447	298.27
470.812	300.82
471.177	405.51
471.542	410.62
471.906	433.6
472.271	400.4
472.636	377.42
473.001	397.85
473.365	446.36
473.73	351.89
474.094	395.29
474.459	420.83
474.823	410.62
475.188	397.85
475.552	448.92
475.917	423.38
476.281	415.72
476.645	369.76
477.009	492.32
477.373	410.62
477.737	387.63
478.101	336.57
478.465	390.19
478.829	385.08
479.193	410.62
479.557	441.26
479.921	420.83
480.284	374.87
480.648	428.49
481.012	313.59
481.375	395.29
481.739	395.29
482.102	341.67
482.466	466.79
482.829	402.95
483.193	392.74
483.556	377.42
483.919	382.53
484.282	372.31
484.645	346.78
485.009	423.38
485.372	364.65
485.735	346.78
486.098	397.85
486.46	349.33
486.823	423.38
487.186	397.85
487.549	359.55
487.912	374.87
488.274	425.94
488.637	397.85
488.999	415.72
489.362	400.4
489.724	382.53
490.087	367.21
490.449	349.33
490.811	367.21
491.174	349.33
491.536	341.67
491.898	359.55
492.26	410.62
492.622	359.55
492.984	369.76
493.346	387.63
493.708	461.68
494.07	323.8
494.432	344.23
494.794	364.65
495.155	420.83
495.517	441.26
495.879	408.06
496.24	433.6
496.602	438.7
496.963	410.62
497.325	364.65
497.686	334.01
498.048	433.6
498.409	420.83
498.77	385.08
499.131	346.78
499.492	413.17
499.854	418.28
500.215	410.62
500.576	382.53
500.937	431.04
501.298	428.49
501.658	390.19
502.019	425.94
502.38	372.31
502.741	405.51
503.101	425.94
503.462	364.65
503.823	413.17
504.183	372.31
504.543	377.42
504.904	367.21
505.264	428.49
505.625	362.1
505.985	341.67
506.345	385.08
506.705	400.4
507.065	374.87
507.426	372.31
507.786	392.74
508.146	377.42
508.505	410.62
508.865	377.42
509.225	408.06
509.585	392.74
509.945	334.01
510.304	344.23
510.664	405.51
511.024	318.69
511.383	377.42
511.743	377.42
512.102	408.06
512.462	423.38
512.821	395.29
513.18	374.87
513.539	425.94
513.899	405.51
514.258	382.53
514.617	402.95
514.976	438.7
515.335	377.42
515.694	392.74
516.053	382.53
516.412	392.74
516.771	364.65
517.129	349.33
517.488	372.31
517.847	402.95
518.205	402.95
518.564	408.06
518.922	395.29
519.281	382.53
519.639	341.67
519.998	387.63
520.356	374.87
520.714	402.95
521.073	382.53
521.431	408.06
521.789	349.33
522.147	438.7
522.505	377.42
522.863	372.31
523.221	385.08
523.579	379.97
523.937	395.29
524.295	385.08
524.652	428.49
525.01	351.89
525.368	379.97
525.725	336.57
526.083	402.95
526.44	395.29
526.798	367.21
527.155	461.68
527.513	436.15
527.87	433.6
528.227	377.42
528.584	390.19
528.942	344.23
529.299	351.89
529.656	402.95
530.013	385.08
530.37	410.62
530.727	351.89
531.083	392.74
531.44	336.57
531.797	397.85
532.154	369.76
532.511	397.85
532.867	356.99
533.224	395.29
533.58	369.76
533.937	288.05
534.293	354.44
534.65	431.04
535.006	392.74
535.362	339.12
535.718	446.36
536.075	356.99
536.431	374.87
536.787	377.42
537.143	405.51
537.499	454.02
537.855	400.4
538.211	362.1
538.567	328.91
538.923	418.28
539.278	367.21
539.634	395.29
539.99	402.95
540.345	431.04
540.701	390.19
541.056	354.44
541.412	397.85
541.767	397.85
542.123	410.62
542.478	339.12
542.833	362.1
543.188	436.15
543.544	415.72
543.899	405.51
544.254	364.65
544.609	362.1
544.964	392.74
545.319	387.63
545.674	418.28
546.029	448.92
546.383	505.09
546.738	377.42
547.093	364.65
547.447	395.29
547.802	385.08
548.157	336.57
548.511	385.08
548.866	428.49
549.22	448.92
549.574	377.42
549.929	425.94
550.283	397.85
550.637	354.44
550.991	385.08
551.345	364.65
551.699	356.99
552.053	379.97
552.407	377.42
552.761	387.63
553.115	341.67
553.469	385.08
553.823	395.29
554.176	374.87
554.53	349.33
554.884	443.81
555.237	642.97
555.591	413.17
555.944	423.38
556.298	379.97
556.651	423.38
557.005	369.76
557.358	443.81
557.711	382.53
558.064	359.55
558.417	402.95
558.771	420.83
559.124	392.74
559.477	423.38
559.83	385.08
560.182	372.31
560.535	471.9
560.888	433.6
561.241	464.24
561.594	423.38
561.946	367.21
562.299	415.72
562.651	408.06
563.004	413.17
563.356	413.17
563.709	379.97
564.061	459.13
564.413	431.04
564.766	392.74
565.118	443.81
565.47	379.97
565.822	390.19
566.174	379.97
566.526	362.1
566.878	413.17
567.23	431.04
567.582	436.15
567.934	379.97
568.286	474.45
568.638	387.63
568.989	461.68
569.341	362.1
569.693	487.22
570.044	428.49
570.396	344.23
570.747	354.44
571.098	387.63
571.45	448.92
571.801	405.51
572.152	351.89
572.504	372.31
572.855	344.23
573.206	369.76
573.557	372.31
573.908	341.67
574.259	392.74
574.61	413.17
574.961	288.05
575.311	428.49
575.662	382.53
576.013	372.31
576.364	413.17
576.714	400.4
577.065	379.97
577.415	474.45
577.766	377.42
578.116	367.21
578.467	390.19
578.817	379.97
579.167	454.02
579.518	410.62
579.868	415.72
580.218	395.29
580.568	431.04
580.918	464.24
581.268	390.19
581.618	367.21
581.968	433.6
582.318	400.4
582.668	413.17
583.017	436.15
583.367	420.83
583.717	362.1
584.066	395.29
584.416	402.95
584.765	372.31
585.115	451.47
585.464	408.06
585.814	448.92
586.163	464.24
586.512	418.28
586.862	446.36
587.211	379.97
587.56	364.65
587.909	418.28
588.258	379.97
588.607	418.28
588.956	374.87
589.305	367.21
589.654	390.19
590.002	369.76
590.351	395.29
590.7	346.78
591.048	390.19
591.397	410.62
591.746	390.19
592.094	392.74
592.443	420.83
592.791	466.79
593.139	395.29
593.488	334.01
593.836	423.38
594.184	339.12
594.532	382.53
594.88	331.46
595.228	402.95
595.576	362.1
595.924	410.62
596.272	392.74
596.62	341.67
596.968	377.42
597.316	377.42
597.664	354.44
598.011	351.89
598.359	397.85
598.706	379.97
599.054	354.44
599.402	377.42
599.749	413.17
600.096	379.97
600.444	354.44
600.791	367.21
601.138	456.58
601.485	336.57
601.833	385.08
602.18	367.21
602.527	431.04
602.874	402.95
603.221	390.19
603.568	392.74
603.914	482.11
604.261	461.68
604.608	397.85
604.955	313.59
605.301	438.7
605.648	385.08
605.995	400.4
606.341	313.59
606.688	367.21
607.034	379.97
607.38	372.31
607.727	313.59
608.073	311.03
608.419	272.73
608.765	364.65
609.112	433.6
609.458	372.31
609.804	372.31
610.15	448.92
610.496	418.28
610.842	377.42
611.187	423.38
611.533	464.24
611.879	390.19
612.225	405.51
612.57	415.72
612.916	418.28
613.261	402.95
613.607	364.65
613.952	402.95
614.298	392.74
614.643	359.55
614.989	397.85
615.334	372.31
615.679	351.89
616.024	377.42
616.369	308.48
616.714	400.4
617.059	346.78
617.404	438.7
617.749	425.94
618.094	334.01
618.439	354.44
618.784	395.29
619.129	374.87
619.473	397.85
619.818	387.63
620.163	387.63
620.507	377.42
620.852	336.57
621.196	328.91
621.54	385.08
621.885	369.76
622.229	344.23
622.573	415.72
622.918	369.76
623.262	372.31
623.606	390.19
623.95	341.67
624.294	392.74
624.638	349.33
624.982	356.99
625.326	364.65
625.67	413.17
626.013	372.31
626.357	318.69
626.701	349.33
627.044	413.17
627.388	351.89
627.731	321.25
628.075	420.83
628.418	441.26
628.762	448.92
629.105	402.95
629.448	346.78
629.792	364.65
630.135	390.19
630.478	400.4
630.821	387.63
631.164	364.65
631.507	413.17
631.85	420.83
632.193	400.4
632.536	385.08
632.879	336.57
633.221	372.31
633.564	395.29
633.907	405.51
634.249	382.53
634.592	420.83
634.935	362.1
635.277	402.95
635.619	433.6
635.962	372.31
636.304	415.72
636.646	454.02
636.989	377.42
637.331	413.17
637.673	402.95
638.015	346.78
638.357	351.89
638.699	344.23
639.041	331.46
639.383	387.63
639.725	395.29
640.067	387.63
640.408	367.21
640.75	351.89
641.092	379.97
641.433	331.46
641.775	420.83
642.116	313.59
642.458	397.85
642.799	400.4
643.141	331.46
643.482	369.76
643.823	499.98
644.164	451.47
644.506	466.79
644.847	387.63
645.188	359.55
645.529	379.97
645.87	349.33
646.211	459.13
646.552	436.15
646.893	425.94
647.233	420.83
647.574	436.15
647.915	451.47
648.255	367.21
648.596	438.7
648.937	385.08
649.277	321.25
649.618	405.51
649.958	374.87
650.298	349.33
650.639	377.42
650.979	459.13
651.319	428.49
651.659	423.38
651.999	425.94
652.339	298.27
652.679	410.62
653.019	425.94
653.359	438.7
653.699	356.99
654.039	425.94
654.379	405.51
654.719	305.93
655.058	369.76
655.398	354.44
655.737	377.42
656.077	423.38
656.416	446.36
656.756	436.15
657.095	423.38
657.435	400.4
657.774	372.31
658.113	382.53
658.452	362.1
658.792	459.13
659.131	385.08
659.47	402.95
659.809	377.42
660.148	443.81
660.487	431.04
660.826	428.49
661.164	428.49
661.503	390.19
661.842	392.74
662.181	359.55
662.519	405.51
662.858	390.19
663.196	451.47
663.535	372.31
663.873	369.76
664.212	402.95
664.55	492.32
664.888	405.51
665.226	377.42
665.565	339.12
665.903	597.01
666.241	456.58
666.579	428.49
666.917	431.04
667.255	369.76
667.593	408.06
667.931	433.6
668.268	431.04
668.606	436.15
668.944	431.04
669.282	344.23
669.619	397.85
669.957	415.72
670.294	423.38
670.632	410.62
670.969	377.42
671.307	410.62
671.644	382.53
671.981	392.74
672.318	395.29
672.656	354.44
672.993	400.4
673.33	377.42
673.667	423.38
674.004	438.7
674.341	372.31
674.678	364.65
675.015	390.19
675.351	382.53
675.688	400.4
676.025	382.53
676.362	392.74
676.698	385.08
677.035	402.95
677.371	436.15
677.708	377.42
678.044	408.06
678.38	423.38
678.717	290.61
679.053	351.89
679.389	405.51
679.725	456.58
680.062	356.99
680.398	311.03
680.734	331.46
681.07	377.42
681.406	336.57
681.742	364.65
682.077	326.35
682.413	387.63
682.749	298.27
683.085	364.65
683.42	454.02
683.756	420.83
684.091	405.51
684.427	318.69
684.762	377.42
685.098	382.53
685.433	374.87
685.768	367.21
686.104	405.51
686.439	395.29
686.774	387.63
687.109	397.85
687.444	415.72
687.779	316.14
688.114	367.21
688.449	369.76
688.784	313.59
689.119	346.78
689.454	379.97
689.789	400.4
690.123	385.08
690.458	413.17
690.792	446.36
691.127	349.33
691.461	369.76
691.796	341.67
692.13	408.06
692.465	428.49
692.799	385.08
693.133	359.55
693.467	387.63
693.802	441.26
694.136	339.12
694.47	372.31
694.804	359.55
695.138	410.62
695.472	390.19
695.806	334.01
696.139	382.53
696.473	369.76
696.807	400.4
697.141	344.23
697.474	382.53
697.808	311.03
698.141	354.44
698.475	385.08
698.808	372.31
699.142	356.99
699.475	367.21
699.808	438.7
700.142	346.78
700.475	367.21
700.808	431.04
701.141	395.29
701.474	308.48
701.807	374.87
702.14	390.19
702.473	461.68
702.806	392.74
703.139	405.51
703.472	392.74
703.804	318.69
704.137	323.8
704.47	408.06
704.802	423.38
705.135	382.53
705.467	339.12
705.8	346.78
706.132	359.55
706.464	392.74
706.797	362.1
707.129	415.72
707.461	379.97
707.793	390.19
708.125	346.78
708.457	392.74
708.789	438.7
709.121	405.51
709.453	405.51
709.785	308.48
710.117	387.63
710.449	385.08
710.781	433.6
711.112	351.89
711.444	441.26
711.775	374.87
712.107	392.74
712.438	418.28
712.77	387.63
713.101	385.08
713.433	341.67
713.764	392.74
714.095	436.15
714.426	415.72
714.757	443.81
715.089	351.89
715.42	423.38
715.751	454.02
716.082	408.06
716.412	413.17
716.743	367.21
717.074	428.49
717.405	413.17
717.736	369.76
718.066	392.74
718.397	415.72
718.727	395.29
719.058	397.85
719.388	379.97
719.719	367.21
720.049	402.95
720.38	418.28
720.71	436.15
721.04	395.29
721.37	359.55
721.7	408.06
722.031	390.19
722.361	448.92
722.691	408.06
723.021	410.62
723.35	334.01
723.68	400.4
724.01	313.59
724.34	400.4
724.67	359.55
724.999	326.35
725.329	374.87
725.658	377.42
725.988	385.08
726.317	415.72
726.647	385.08
726.976	382.53
727.306	446.36
727.635	438.7
727.964	392.74
728.293	387.63
728.622	397.85
728.952	413.17
729.281	374.87
729.61	387.63
729.939	390.19
730.267	390.19
730.596	423.38
730.925	377.42
731.254	405.51
731.583	436.15
731.911	410.62
732.24	362.1
732.568	364.65
732.897	377.42
733.225	362.1
733.554	420.83
733.882	382.53
734.21	346.78
734.539	379.97
734.867	372.31
735.195	339.12
735.523	443.81
735.851	308.48
736.179	369.76
736.507	331.46
736.835	328.91
737.163	290.61
737.491	334.01
737.819	364.65
738.147	336.57
738.474	374.87
738.802	387.63
739.13	387.63
739.457	367.21
739.785	339.12
740.112	387.63
740.44	359.55
740.767	395.29
741.094	364.65
741.422	344.23
741.749	369.76
742.076	400.4
742.403	408.06
742.73	351.89
743.057	351.89
743.384	369.76
743.711	339.12
744.038	339.12
744.365	443.81
744.692	367.21
745.018	415.72
745.345	436.15
745.672	390.19
745.998	341.67
746.325	369.76
746.651	362.1
746.978	326.35
747.304	400.4
747.631	356.99
747.957	323.8
748.283	443.81
748.61	354.44
748.936	395.29
749.262	405.51
749.588	402.95
749.914	351.89
750.24	392.74
750.566	418.28
750.892	413.17
751.218	362.1
751.543	372.31
751.869	377.42
752.195	405.51
752.521	295.71
752.846	336.57
753.172	387.63
753.497	395.29
753.823	423.38
754.148	344.23
754.473	328.91
754.799	364.65
755.124	372.31
755.449	392.74
755.774	443.81
756.1	420.83
756.425	387.63
756.75	356.99
757.075	397.85
757.4	499.98
757.724	415.72
758.049	379.97
758.374	359.55
758.699	354.44
759.024	354.44
759.348	387.63
759.673	405.51
759.997	298.27
760.322	331.46
760.646	362.1
760.971	385.08
761.295	413.17
761.619	364.65
761.944	356.99
762.268	377.42
762.592	392.74
762.916	418.28
763.24	372.31
763.564	344.23
763.888	313.59
764.212	408.06
764.536	390.19
764.86	423.38
765.184	408.06
765.508	418.28
765.831	410.62
766.155	609.78
766.478	397.85
766.802	420.83
767.126	405.51
767.449	354.44
767.772	377.42
768.096	364.65
768.419	431.04
768.742	418.28
769.066	392.74
769.389	415.72
769.712	408.06
770.035	400.4
770.358	436.15
770.681	428.49
771.004	413.17
771.327	344.23
771.65	334.01
771.972	367.21
772.295	400.4
772.618	428.49
772.941	351.89
773.263	362.1
773.586	349.33
773.908	379.97
774.231	400.4
774.553	341.67
774.875	356.99
775.198	369.76
775.52	374.87
775.842	349.33
776.164	356.99
776.487	334.01
776.809	349.33
777.131	392.74
777.453	379.97
777.775	318.69
778.096	362.1
778.418	379.97
778.74	362.1
779.062	385.08
779.384	425.94
779.705	392.74
780.027	334.01
780.348	351.89
780.67	326.35
780.991	382.53
781.313	362.1
781.634	413.17
781.955	356.99
782.277	379.97
782.598	408.06
782.919	367.21
783.24	305.93
783.561	339.12
783.882	318.69
784.203	395.29
784.524	415.72
784.845	359.55
785.166	369.76
785.487	379.97
785.807	413.17
786.128	397.85
786.449	303.37
786.769	339.12
787.09	410.62
787.41	356.99
787.731	385.08
788.051	336.57
788.372	390.19
788.692	364.65
789.012	415.72
789.332	392.74
789.653	425.94
789.973	390.19
790.293	397.85
790.613	418.28
790.933	377.42
791.253	382.53
791.573	385.08
791.893	410.62
792.212	374.87
792.532	374.87
792.852	321.25
793.171	367.21
793.491	354.44
793.811	351.89
794.13	367.21
794.45	372.31
794.769	385.08
795.088	356.99
795.408	295.71
795.727	328.91
796.046	331.46
796.365	351.89
796.684	308.48
797.004	395.29
797.323	364.65
797.642	341.67
797.96	377.42
798.279	374.87
798.598	372.31
798.917	356.99
799.236	356.99
799.554	359.55
799.873	423.38
800.192	402.95
800.51	420.83
800.829	410.62
801.147	308.48
801.466	408.06
