Data from 2025-12-03_xpw_interference_micrometer_634_dark_FLMS141361__98__248.txt Node

Date: Wed Dec 03 15:50:09 MST 2025
User: james
Spectrometer: FLMS14136
Trigger mode: 0
Integration Time (sec): 1.000000E-1
Scans to average: 1
Electric dark correction enabled: true
Nonlinearity correction enabled: false
Boxcar width: 0
XAxis mode: Wavelengths
Number of Pixels in Spectrum: 2048
>>>>>Begin Spectral Data<<<<<
339.315	-124.48
339.697	-124.48
340.079	-124.48
340.461	-58.09
340.843	-81.07
341.225	-93.84
341.607	-139.8
341.989	-119.37
342.371	-70.86
342.752	-101.5
343.134	-42.77
343.516	-35.11
343.897	-9.58
344.279	-55.54
344.661	10.85
345.042	38.94
345.423	95.11
345.805	87.45
346.186	110.43
346.567	123.2
346.949	202.36
347.33	164.05
347.711	192.14
348.092	202.36
348.473	215.12
348.854	238.1
349.235	245.76
349.616	263.64
349.997	273.85
350.378	291.72
350.758	286.62
351.139	322.36
351.52	278.96
351.9	381.09
352.281	396.41
352.661	363.22
353.042	350.45
353.422	368.32
353.803	409.18
354.183	330.02
354.563	406.63
354.943	404.07
355.324	363.22
355.704	460.25
356.084	429.61
356.464	335.13
356.844	386.2
357.224	401.52
357.603	358.11
357.983	347.9
358.363	432.16
358.743	401.52
359.122	429.61
359.502	383.65
359.882	378.54
360.261	424.5
360.641	444.93
361.02	388.75
361.399	365.77
361.779	439.82
362.158	370.88
362.537	345.34
362.916	307.04
363.296	319.81
363.675	368.32
364.054	378.54
364.433	268.74
364.812	353
365.19	398.97
365.569	424.5
365.948	327.47
366.327	337.68
366.705	284.06
367.084	373.43
367.463	294.28
367.841	398.97
368.22	322.36
368.598	360.66
368.977	375.98
369.355	324.92
369.733	332.58
370.111	319.81
370.49	342.79
370.868	386.2
371.246	427.05
371.624	345.34
372.002	337.68
372.38	294.28
372.758	375.98
373.136	401.52
373.513	345.34
373.891	317.26
374.269	299.38
374.646	345.34
375.024	332.58
375.402	360.66
375.779	388.75
376.157	327.47
376.534	355.56
376.911	401.52
377.289	358.11
377.666	404.07
378.043	337.68
378.42	411.73
378.797	383.65
379.175	291.72
379.552	370.88
379.929	414.29
380.305	368.32
380.682	447.48
381.059	355.56
381.436	373.43
381.813	355.56
382.189	286.62
382.566	324.92
382.943	386.2
383.319	401.52
383.696	427.05
384.072	368.32
384.448	411.73
384.825	350.45
385.201	393.86
385.577	447.48
385.953	342.79
386.329	322.36
386.706	383.65
387.082	375.98
387.458	401.52
387.834	314.7
388.209	406.63
388.585	391.31
388.961	370.88
389.337	373.43
389.713	299.38
390.088	365.77
390.464	388.75
390.839	404.07
391.215	396.41
391.59	383.65
391.966	386.2
392.341	347.9
392.716	304.49
393.092	391.31
393.467	340.24
393.842	381.09
394.217	368.32
394.592	396.41
394.967	404.07
395.342	404.07
395.717	368.32
396.092	373.43
396.467	345.34
396.841	416.84
397.216	401.52
397.591	393.86
397.965	406.63
398.34	370.88
398.714	421.95
399.089	388.75
399.463	355.56
399.838	330.02
400.212	404.07
400.586	388.75
400.961	404.07
401.335	360.66
401.709	342.79
402.083	411.73
402.457	363.22
402.831	411.73
403.205	398.97
403.579	432.16
403.953	419.39
404.326	416.84
404.7	393.86
405.074	347.9
405.447	378.54
405.821	414.29
406.195	406.63
406.568	365.77
406.942	429.61
407.315	388.75
407.688	421.95
408.062	427.05
408.435	432.16
408.808	470.46
409.181	409.18
409.554	439.82
409.927	452.59
410.3	368.32
410.673	368.32
411.046	307.04
411.419	404.07
411.792	317.26
412.165	373.43
412.537	347.9
412.91	388.75
413.283	365.77
413.655	378.54
414.028	467.91
414.4	388.75
414.773	358.11
415.145	421.95
415.517	419.39
415.889	411.73
416.262	398.97
416.634	393.86
417.006	353
417.378	378.54
417.75	393.86
418.122	393.86
418.494	386.2
418.866	365.77
419.238	353
419.609	483.23
419.981	386.2
420.353	391.31
420.725	381.09
421.096	345.34
421.468	332.58
421.839	396.41
422.211	368.32
422.582	388.75
422.953	396.41
423.325	452.59
423.696	447.48
424.067	363.22
424.438	414.29
424.809	391.31
425.18	409.18
425.551	375.98
425.922	437.27
426.293	406.63
426.664	368.32
427.035	485.78
427.406	427.05
427.776	411.73
428.147	406.63
428.518	317.26
428.888	386.2
429.259	386.2
429.629	307.04
429.999	370.88
430.37	409.18
430.74	411.73
431.11	375.98
431.481	363.22
431.851	419.39
432.221	424.5
432.591	429.61
432.961	370.88
433.331	421.95
433.701	414.29
434.071	442.37
434.441	378.54
434.81	388.75
435.18	414.29
435.55	488.33
435.919	393.86
436.289	393.86
436.658	409.18
437.028	421.95
437.397	375.98
437.767	396.41
438.136	401.52
438.505	398.97
438.875	424.5
439.244	381.09
439.613	370.88
439.982	414.29
440.351	393.86
440.72	411.73
441.089	393.86
441.458	347.9
441.827	432.16
442.196	427.05
442.564	506.21
442.933	411.73
443.302	388.75
443.67	470.46
444.039	370.88
444.407	375.98
444.776	368.32
445.144	398.97
445.513	373.43
445.881	419.39
446.249	355.56
446.617	409.18
446.986	404.07
447.354	427.05
447.722	434.71
448.09	396.41
448.458	450.03
448.826	437.27
449.194	314.7
449.561	330.02
449.929	396.41
450.297	434.71
450.665	381.09
451.032	375.98
451.4	358.11
451.767	411.73
452.135	437.27
452.502	409.18
452.87	416.84
453.237	414.29
453.604	414.29
453.971	375.98
454.339	429.61
454.706	432.16
455.073	421.95
455.44	396.41
455.807	432.16
456.174	434.71
456.541	388.75
456.908	373.43
457.274	437.27
457.641	444.93
458.008	467.91
458.374	444.93
458.741	386.2
459.108	427.05
459.474	421.95
459.841	437.27
460.207	457.69
460.573	416.84
460.94	421.95
461.306	383.65
461.672	391.31
462.038	396.41
462.404	411.73
462.771	429.61
463.137	442.37
463.503	480.67
463.868	467.91
464.234	429.61
464.6	470.46
464.966	450.03
465.332	434.71
465.697	432.16
466.063	353
466.429	444.93
466.794	393.86
467.16	447.48
467.525	439.82
467.89	375.98
468.256	457.69
468.621	401.52
468.986	391.31
469.351	404.07
469.717	442.37
470.082	421.95
470.447	347.9
470.812	363.22
471.177	401.52
471.542	434.71
471.906	368.32
472.271	424.5
472.636	406.63
473.001	368.32
473.365	411.73
473.73	393.86
474.094	421.95
474.459	345.34
474.823	409.18
475.188	434.71
475.552	432.16
475.917	434.71
476.281	498.55
476.645	414.29
477.009	391.31
477.373	424.5
477.737	416.84
478.101	396.41
478.465	442.37
478.829	450.03
479.193	416.84
479.557	432.16
479.921	381.09
480.284	450.03
480.648	373.43
481.012	375.98
481.375	429.61
481.739	414.29
482.102	414.29
482.466	462.8
482.829	411.73
483.193	368.32
483.556	381.09
483.919	432.16
484.282	404.07
484.645	429.61
485.009	368.32
485.372	414.29
485.735	383.65
486.098	411.73
486.46	358.11
486.823	439.82
487.186	427.05
487.549	406.63
487.912	414.29
488.274	419.39
488.637	419.39
488.999	462.8
489.362	416.84
489.724	416.84
490.087	455.14
490.449	342.79
490.811	398.97
491.174	370.88
491.536	386.2
491.898	355.56
492.26	442.37
492.622	434.71
492.984	404.07
493.346	375.98
493.708	401.52
494.07	393.86
494.432	432.16
494.794	360.66
495.155	381.09
495.517	429.61
495.879	452.59
496.24	450.03
496.602	368.32
496.963	398.97
497.325	388.75
497.686	419.39
498.048	347.9
498.409	424.5
498.77	460.25
499.131	388.75
499.492	404.07
499.854	429.61
500.215	416.84
500.576	424.5
500.937	455.14
501.298	360.66
501.658	398.97
502.019	427.05
502.38	411.73
502.741	396.41
503.101	419.39
503.462	424.5
503.823	365.77
504.183	465.35
504.543	478.12
504.904	424.5
505.264	437.27
505.625	355.56
505.985	375.98
506.345	370.88
506.705	437.27
507.065	427.05
507.426	437.27
507.786	427.05
508.146	398.97
508.505	427.05
508.865	340.24
509.225	391.31
509.585	462.8
509.945	455.14
510.304	406.63
510.664	398.97
511.024	398.97
511.383	409.18
511.743	416.84
512.102	370.88
512.462	444.93
512.821	363.22
513.18	383.65
513.539	478.12
513.899	465.35
514.258	401.52
514.617	416.84
514.976	375.98
515.335	350.45
515.694	447.48
516.053	378.54
516.412	375.98
516.771	452.59
517.129	393.86
517.488	411.73
517.847	388.75
518.205	432.16
518.564	455.14
518.922	432.16
519.281	419.39
519.639	419.39
519.998	434.71
520.356	421.95
520.714	404.07
521.073	429.61
521.431	404.07
521.789	375.98
522.147	378.54
522.505	437.27
522.863	383.65
523.221	437.27
523.579	416.84
523.937	439.82
524.295	411.73
524.652	360.66
525.01	370.88
525.368	381.09
525.725	485.78
526.083	439.82
526.44	480.67
526.798	434.71
527.155	455.14
527.513	381.09
527.87	409.18
528.227	475.57
528.584	483.23
528.942	421.95
529.299	439.82
529.656	434.71
530.013	427.05
530.37	373.43
530.727	414.29
531.083	419.39
531.44	375.98
531.797	452.59
532.154	360.66
532.511	391.31
532.867	424.5
533.224	427.05
533.58	460.25
533.937	424.5
534.293	373.43
534.65	427.05
535.006	411.73
535.362	414.29
535.718	401.52
536.075	355.56
536.431	467.91
536.787	393.86
537.143	370.88
537.499	337.68
537.855	370.88
538.211	411.73
538.567	375.98
538.923	470.46
539.278	424.5
539.634	460.25
539.99	434.71
540.345	442.37
540.701	439.82
541.056	432.16
541.412	353
541.767	427.05
542.123	404.07
542.478	490.89
542.833	429.61
543.188	447.48
543.544	421.95
543.899	483.23
544.254	363.22
544.609	388.75
544.964	381.09
545.319	450.03
545.674	409.18
546.029	386.2
546.383	358.11
546.738	414.29
547.093	460.25
547.447	368.32
547.802	432.16
548.157	409.18
548.511	427.05
548.866	429.61
549.22	439.82
549.574	398.97
549.929	409.18
550.283	452.59
550.637	378.54
550.991	424.5
551.345	342.79
551.699	393.86
552.053	434.71
552.407	434.71
552.761	447.48
553.115	442.37
553.469	416.84
553.823	350.45
554.176	396.41
554.53	462.8
554.884	368.32
555.237	641.54
555.591	470.46
555.944	437.27
556.298	388.75
556.651	424.5
557.005	386.2
557.358	490.89
557.711	478.12
558.064	475.57
558.417	416.84
558.771	524.08
559.124	470.46
559.477	411.73
559.83	416.84
560.182	386.2
560.535	424.5
560.888	439.82
561.241	383.65
561.594	473.01
561.946	370.88
562.299	330.02
562.651	414.29
563.004	355.56
563.356	373.43
563.709	368.32
564.061	450.03
564.413	421.95
564.766	427.05
565.118	396.41
565.47	404.07
565.822	353
566.174	439.82
566.526	421.95
566.878	473.01
567.23	381.09
567.582	452.59
567.934	429.61
568.286	398.97
568.638	419.39
568.989	363.22
569.341	398.97
569.693	455.14
570.044	378.54
570.396	419.39
570.747	360.66
571.098	419.39
571.45	411.73
571.801	368.32
572.152	409.18
572.504	419.39
572.855	409.18
573.206	347.9
573.557	363.22
573.908	398.97
574.259	327.47
574.61	347.9
574.961	455.14
575.311	447.48
575.662	485.78
576.013	444.93
576.364	434.71
576.714	381.09
577.065	365.77
577.415	432.16
577.766	360.66
578.116	365.77
578.467	378.54
578.817	386.2
579.167	393.86
579.518	404.07
579.868	416.84
580.218	455.14
580.568	478.12
580.918	365.77
581.268	432.16
581.618	396.41
581.968	386.2
582.318	421.95
582.668	411.73
583.017	460.25
583.367	411.73
583.717	375.98
584.066	444.93
584.416	419.39
584.765	373.43
585.115	368.32
585.464	416.84
585.814	386.2
586.163	434.71
586.512	360.66
586.862	393.86
587.211	421.95
587.56	365.77
587.909	386.2
588.258	342.79
588.607	386.2
588.956	460.25
589.305	447.48
589.654	437.27
590.002	478.12
590.351	381.09
590.7	398.97
591.048	386.2
591.397	421.95
591.746	370.88
592.094	465.35
592.443	393.86
592.791	381.09
593.139	429.61
593.488	404.07
593.836	483.23
594.184	391.31
594.532	363.22
594.88	470.46
595.228	452.59
595.576	373.43
595.924	398.97
596.272	386.2
596.62	409.18
596.968	393.86
597.316	447.48
597.664	419.39
598.011	401.52
598.359	429.61
598.706	437.27
599.054	406.63
599.402	353
599.749	414.29
600.096	439.82
600.444	396.41
600.791	421.95
601.138	386.2
601.485	457.69
601.833	424.5
602.18	447.48
602.527	455.14
602.874	355.56
603.221	396.41
603.568	467.91
603.914	391.31
604.261	360.66
604.608	442.37
604.955	457.69
605.301	437.27
605.648	460.25
605.995	450.03
606.341	398.97
606.688	442.37
607.034	370.88
607.38	444.93
607.727	409.18
608.073	414.29
608.419	368.32
608.765	419.39
609.112	416.84
609.458	398.97
609.804	375.98
610.15	363.22
610.496	393.86
610.842	396.41
611.187	363.22
611.533	411.73
611.879	401.52
612.225	421.95
612.57	370.88
612.916	401.52
613.261	414.29
613.607	439.82
613.952	429.61
614.298	373.43
614.643	465.35
614.989	442.37
615.334	393.86
615.679	337.68
616.024	421.95
616.369	396.41
616.714	475.57
617.059	447.48
617.404	419.39
617.749	393.86
618.094	421.95
618.439	386.2
618.784	375.98
619.129	398.97
619.473	401.52
619.818	429.61
620.163	427.05
620.507	416.84
620.852	337.68
621.196	404.07
621.54	404.07
621.885	416.84
622.229	370.88
622.573	424.5
622.918	406.63
623.262	330.02
623.606	375.98
623.95	465.35
624.294	381.09
624.638	391.31
624.982	490.89
625.326	386.2
625.67	421.95
626.013	358.11
626.357	475.57
626.701	393.86
627.044	473.01
627.388	388.75
627.731	388.75
628.075	370.88
628.418	355.56
628.762	465.35
629.105	414.29
629.448	337.68
629.792	378.54
630.135	355.56
630.478	427.05
630.821	427.05
631.164	444.93
631.507	353
631.85	355.56
632.193	391.31
632.536	370.88
632.879	401.52
633.221	396.41
633.564	396.41
633.907	373.43
634.249	409.18
634.592	414.29
634.935	452.59
635.277	462.8
635.619	355.56
635.962	368.32
636.304	401.52
636.646	409.18
636.989	368.32
637.331	432.16
637.673	444.93
638.015	317.26
638.357	398.97
638.699	404.07
639.041	393.86
639.383	396.41
639.725	409.18
640.067	368.32
640.408	452.59
640.75	442.37
641.092	421.95
641.433	429.61
641.775	429.61
642.116	363.22
642.458	388.75
642.799	383.65
643.141	414.29
643.482	434.71
643.823	467.91
644.164	419.39
644.506	467.91
644.847	416.84
645.188	381.09
645.529	427.05
645.87	393.86
646.211	406.63
646.552	381.09
646.893	419.39
647.233	370.88
647.574	452.59
647.915	381.09
648.255	475.57
648.596	465.35
648.937	404.07
649.277	434.71
649.618	429.61
649.958	437.27
650.298	391.31
650.639	386.2
650.979	401.52
651.319	404.07
651.659	421.95
651.999	363.22
652.339	396.41
652.679	424.5
653.019	467.91
653.359	383.65
653.699	401.52
654.039	370.88
654.379	401.52
654.719	391.31
655.058	375.98
655.398	455.14
655.737	511.31
656.077	450.03
656.416	398.97
656.756	396.41
657.095	391.31
657.435	393.86
657.774	378.54
658.113	327.47
658.452	462.8
658.792	388.75
659.131	381.09
659.47	409.18
659.809	404.07
660.148	460.25
660.487	332.58
660.826	404.07
661.164	388.75
661.503	452.59
661.842	378.54
662.181	416.84
662.519	381.09
662.858	398.97
663.196	404.07
663.535	450.03
663.873	340.24
664.212	388.75
664.55	424.5
664.888	401.52
665.226	398.97
665.565	414.29
665.903	664.52
666.241	447.48
666.579	363.22
666.917	332.58
667.255	452.59
667.593	444.93
667.931	503.65
668.268	447.48
668.606	396.41
668.944	398.97
669.282	391.31
669.619	388.75
669.957	427.05
670.294	386.2
670.632	373.43
670.969	404.07
671.307	342.79
671.644	411.73
671.981	452.59
672.318	375.98
672.656	324.92
672.993	427.05
673.33	485.78
673.667	398.97
674.004	427.05
674.341	360.66
674.678	381.09
675.015	467.91
675.351	460.25
675.688	391.31
676.025	373.43
676.362	455.14
676.698	452.59
677.035	439.82
677.371	470.46
677.708	473.01
678.044	411.73
678.38	383.65
678.717	383.65
679.053	409.18
679.389	388.75
679.725	414.29
680.062	401.52
680.398	421.95
680.734	393.86
681.07	368.32
681.406	396.41
681.742	429.61
682.077	353
682.413	386.2
682.749	455.14
683.085	427.05
683.42	455.14
683.756	411.73
684.091	467.91
684.427	442.37
684.762	462.8
685.098	427.05
685.433	414.29
685.768	391.31
686.104	450.03
686.439	383.65
686.774	381.09
687.109	396.41
687.444	342.79
687.779	393.86
688.114	416.84
688.449	444.93
688.784	370.88
689.119	391.31
689.454	462.8
689.789	416.84
690.123	401.52
690.458	444.93
690.792	444.93
691.127	439.82
691.461	365.77
691.796	378.54
692.13	386.2
692.465	375.98
692.799	368.32
693.133	467.91
693.467	419.39
693.802	386.2
694.136	437.27
694.47	419.39
694.804	427.05
695.138	450.03
695.472	406.63
695.806	478.12
696.139	409.18
696.473	391.31
696.807	429.61
697.141	391.31
697.474	396.41
697.808	429.61
698.141	404.07
698.475	373.43
698.808	353
699.142	360.66
699.475	409.18
699.808	406.63
700.142	457.69
700.475	447.48
700.808	388.75
701.141	368.32
701.474	396.41
701.807	427.05
702.14	406.63
702.473	398.97
702.806	368.32
703.139	427.05
703.472	406.63
703.804	391.31
704.137	419.39
704.47	455.14
704.802	381.09
705.135	406.63
705.467	378.54
705.8	465.35
706.132	381.09
706.464	450.03
706.797	432.16
707.129	455.14
707.461	360.66
707.793	450.03
708.125	470.46
708.457	460.25
708.789	447.48
709.121	388.75
709.453	378.54
709.785	409.18
710.117	409.18
710.449	396.41
710.781	388.75
711.112	424.5
711.444	388.75
711.775	434.71
712.107	396.41
712.438	388.75
712.77	442.37
713.101	439.82
713.433	452.59
713.764	386.2
714.095	439.82
714.426	450.03
714.757	404.07
715.089	455.14
715.42	391.31
715.751	383.65
716.082	409.18
716.412	386.2
716.743	437.27
717.074	398.97
717.405	478.12
717.736	470.46
718.066	416.84
718.397	421.95
718.727	450.03
719.058	421.95
719.388	434.71
719.719	447.48
720.049	450.03
720.38	429.61
720.71	322.36
721.04	421.95
721.37	427.05
721.7	383.65
722.031	414.29
722.361	360.66
722.691	414.29
723.021	375.98
723.35	432.16
723.68	442.37
724.01	424.5
724.34	478.12
724.67	406.63
724.999	460.25
725.329	490.89
725.658	462.8
725.988	406.63
726.317	391.31
726.647	368.32
726.976	378.54
727.306	434.71
727.635	391.31
727.964	383.65
728.293	414.29
728.622	388.75
728.952	437.27
729.281	450.03
729.61	421.95
729.939	386.2
730.267	434.71
730.596	437.27
730.925	398.97
731.254	444.93
731.583	391.31
731.911	370.88
732.24	452.59
732.568	398.97
732.897	442.37
733.225	460.25
733.554	424.5
733.882	424.5
734.21	337.68
734.539	429.61
734.867	404.07
735.195	462.8
735.523	416.84
735.851	424.5
736.179	342.79
736.507	432.16
736.835	424.5
737.163	396.41
737.491	391.31
737.819	421.95
738.147	378.54
738.474	365.77
738.802	421.95
739.13	393.86
739.457	368.32
739.785	424.5
740.112	396.41
740.44	434.71
740.767	370.88
741.094	388.75
741.422	427.05
741.749	370.88
742.076	437.27
742.403	414.29
742.73	429.61
743.057	427.05
743.384	409.18
743.711	442.37
744.038	437.27
744.365	485.78
744.692	396.41
745.018	388.75
745.345	368.32
745.672	391.31
745.998	365.77
746.325	360.66
746.651	368.32
746.978	358.11
747.304	404.07
747.631	340.24
747.957	358.11
748.283	378.54
748.61	455.14
748.936	386.2
749.262	388.75
749.588	404.07
749.914	373.43
750.24	355.56
750.566	411.73
750.892	424.5
751.218	345.34
751.543	391.31
751.869	421.95
752.195	398.97
752.521	391.31
752.846	442.37
753.172	368.32
753.497	414.29
753.823	444.93
754.148	419.39
754.473	470.46
754.799	414.29
755.124	447.48
755.449	462.8
755.774	358.11
756.1	409.18
756.425	375.98
756.75	375.98
757.075	424.5
757.4	552.17
757.724	439.82
758.049	437.27
758.374	447.48
758.699	386.2
759.024	419.39
759.348	450.03
759.673	498.55
759.997	447.48
760.322	396.41
760.646	429.61
760.971	429.61
761.295	365.77
761.619	432.16
761.944	396.41
762.268	409.18
762.592	363.22
762.916	442.37
763.24	439.82
763.564	370.88
763.888	398.97
764.212	411.73
764.536	429.61
764.86	419.39
765.184	455.14
765.508	439.82
765.831	429.61
766.155	644.09
766.478	368.32
766.802	437.27
767.126	388.75
767.449	429.61
767.772	419.39
768.096	439.82
768.419	386.2
768.742	353
769.066	358.11
769.389	419.39
769.712	419.39
770.035	360.66
770.358	386.2
770.681	378.54
771.004	434.71
771.327	444.93
771.65	383.65
771.972	386.2
772.295	368.32
772.618	437.27
772.941	396.41
773.263	401.52
773.586	416.84
773.908	409.18
774.231	437.27
774.553	437.27
774.875	460.25
775.198	488.33
775.52	409.18
775.842	381.09
776.164	416.84
776.487	419.39
776.809	330.02
777.131	393.86
777.453	450.03
777.775	447.48
778.096	450.03
778.418	404.07
778.74	370.88
779.062	383.65
779.384	391.31
779.705	393.86
780.027	355.56
780.348	434.71
780.67	345.34
780.991	439.82
781.313	432.16
781.634	427.05
781.955	335.13
782.277	375.98
782.598	439.82
782.919	424.5
783.24	406.63
783.561	447.48
783.882	457.69
784.203	393.86
784.524	355.56
784.845	452.59
785.166	391.31
785.487	401.52
785.807	391.31
786.128	391.31
786.449	368.32
786.769	398.97
787.09	404.07
787.41	419.39
787.731	363.22
788.051	409.18
788.372	450.03
788.692	437.27
789.012	388.75
789.332	421.95
789.653	409.18
789.973	424.5
790.293	375.98
790.613	388.75
790.933	465.35
791.253	434.71
791.573	416.84
791.893	452.59
792.212	337.68
792.532	421.95
792.852	488.33
793.171	427.05
793.491	373.43
793.811	444.93
794.13	480.67
794.45	365.77
794.769	401.52
795.088	442.37
795.408	416.84
795.727	414.29
796.046	467.91
796.365	444.93
796.684	388.75
797.004	432.16
797.323	411.73
797.642	386.2
797.96	406.63
798.279	383.65
798.598	419.39
798.917	398.97
799.236	391.31
799.554	401.52
799.873	350.45
800.192	378.54
800.51	347.9
800.829	353
801.147	419.39
801.466	383.65
801.784	378.54
