Data from 2025-12-03_xpw_interference_micrometer_634_dark_FLMS141361__38__188.txt Node

Date: Wed Dec 03 15:50:03 MST 2025
User: james
Spectrometer: FLMS14136
Trigger mode: 0
Integration Time (sec): 1.000000E-1
Scans to average: 1
Electric dark correction enabled: true
Nonlinearity correction enabled: false
Boxcar width: 0
XAxis mode: Wavelengths
Number of Pixels in Spectrum: 2048
>>>>>Begin Spectral Data<<<<<
339.315	-56.17
339.697	-56.17
340.079	-56.17
340.461	-109.8
340.843	-173.63
341.225	-122.56
341.607	-99.58
341.989	-68.94
342.371	-71.49
342.752	-99.58
343.134	-74.05
343.516	-76.6
343.897	-10.21
344.279	-12.77
344.661	40.85
345.042	58.73
345.423	86.81
345.805	99.58
346.186	68.94
346.567	99.58
346.949	181.29
347.33	153.2
347.711	222.14
348.092	196.61
348.473	181.29
348.854	268.1
349.235	298.75
349.616	237.46
349.997	301.3
350.378	283.42
350.758	311.51
351.139	352.37
351.52	255.34
351.9	306.41
352.281	303.85
352.661	362.58
353.042	388.11
353.422	411.09
353.803	324.28
354.183	329.39
354.563	321.73
354.943	273.21
355.324	372.79
355.704	329.39
356.084	372.79
356.464	377.9
356.844	400.88
357.224	388.11
357.603	352.37
357.983	347.26
358.363	349.81
358.743	326.83
359.122	380.45
359.502	352.37
359.882	308.96
360.261	347.26
360.641	365.13
361.02	306.41
361.399	321.73
361.779	306.41
362.158	314.07
362.537	273.21
362.916	298.75
363.296	270.66
363.675	308.96
364.054	431.52
364.433	395.77
364.812	408.54
365.19	311.51
365.569	306.41
365.948	306.41
366.327	293.64
366.705	354.92
367.084	306.41
367.463	283.42
367.841	390.67
368.22	334.49
368.598	303.85
368.977	385.56
369.355	314.07
369.733	306.41
370.111	380.45
370.49	370.24
370.868	303.85
371.246	293.64
371.624	375.35
372.002	357.47
372.38	383.01
372.758	314.07
373.136	375.35
373.513	319.17
373.891	349.81
374.269	311.51
374.646	303.85
375.024	329.39
375.402	372.79
375.779	352.37
376.157	357.47
376.534	370.24
376.911	352.37
377.289	337.05
377.666	301.3
378.043	257.89
378.42	357.47
378.797	377.9
379.175	329.39
379.552	357.47
379.929	367.69
380.305	339.6
380.682	334.49
381.059	321.73
381.436	349.81
381.813	319.17
382.189	398.33
382.566	385.56
382.943	347.26
383.319	403.43
383.696	362.58
384.072	365.13
384.448	395.77
384.825	319.17
385.201	321.73
385.577	352.37
385.953	319.17
386.329	308.96
386.706	270.66
387.082	377.9
387.458	413.65
387.834	362.58
388.209	423.86
388.585	403.43
388.961	390.67
389.337	377.9
389.713	311.51
390.088	377.9
390.464	306.41
390.839	388.11
391.215	303.85
391.59	296.19
391.966	365.13
392.341	370.24
392.716	375.35
393.092	360.03
393.467	416.2
393.842	293.64
394.217	352.37
394.592	339.6
394.967	342.15
395.342	436.63
395.717	421.31
396.092	393.22
396.467	337.05
396.841	372.79
397.216	380.45
397.591	357.47
397.965	372.79
398.34	334.49
398.714	342.15
399.089	347.26
399.463	370.24
399.838	362.58
400.212	380.45
400.586	398.33
400.961	390.67
401.335	377.9
401.709	347.26
402.083	372.79
402.457	360.03
402.831	326.83
403.205	365.13
403.579	354.92
403.953	352.37
404.326	372.79
404.7	319.17
405.074	360.03
405.447	400.88
405.821	423.86
406.195	403.43
406.568	337.05
406.942	357.47
407.315	388.11
407.688	357.47
408.062	372.79
408.435	365.13
408.808	365.13
409.181	370.24
409.554	314.07
409.927	434.07
410.3	390.67
410.673	405.99
411.046	280.87
411.419	385.56
411.792	398.33
412.165	408.54
412.537	334.49
412.91	337.05
413.283	360.03
413.655	380.45
414.028	431.52
414.4	400.88
414.773	314.07
415.145	398.33
415.517	337.05
415.889	362.58
416.262	347.26
416.634	349.81
417.006	390.67
417.378	451.95
417.75	372.79
418.122	436.63
418.494	372.79
418.866	444.29
419.238	362.58
419.609	408.54
419.981	349.81
420.353	337.05
420.725	342.15
421.096	383.01
421.468	375.35
421.839	408.54
422.211	344.71
422.582	383.01
422.953	337.05
423.325	365.13
423.696	375.35
424.067	354.92
424.438	383.01
424.809	395.77
425.18	380.45
425.551	314.07
425.922	380.45
426.293	408.54
426.664	308.96
427.035	352.37
427.406	344.71
427.776	357.47
428.147	400.88
428.518	388.11
428.888	337.05
429.259	400.88
429.629	411.09
429.999	418.75
430.37	395.77
430.74	395.77
431.11	393.22
431.481	393.22
431.851	334.49
432.221	400.88
432.591	365.13
432.961	331.94
433.331	388.11
433.701	375.35
434.071	377.9
434.441	375.35
434.81	275.76
435.18	380.45
435.55	360.03
435.919	365.13
436.289	441.73
436.658	360.03
437.028	362.58
437.397	434.07
437.767	354.92
438.136	362.58
438.505	347.26
438.875	377.9
439.244	408.54
439.613	365.13
439.982	383.01
440.351	380.45
440.72	395.77
441.089	344.71
441.458	405.99
441.827	331.94
442.196	326.83
442.564	533.66
442.933	380.45
443.302	375.35
443.67	418.75
444.039	370.24
444.407	413.65
444.776	413.65
445.144	354.92
445.513	400.88
445.881	398.33
446.249	372.79
446.617	408.54
446.986	411.09
447.354	347.26
447.722	288.53
448.09	367.69
448.458	293.64
448.826	352.37
449.194	405.99
449.561	357.47
449.929	365.13
450.297	360.03
450.665	377.9
451.032	370.24
451.4	411.09
451.767	385.56
452.135	301.3
452.502	334.49
452.87	357.47
453.237	357.47
453.604	400.88
453.971	408.54
454.339	354.92
454.706	477.48
455.073	395.77
455.44	357.47
455.807	395.77
456.174	344.71
456.541	329.39
456.908	411.09
457.274	390.67
457.641	380.45
458.008	446.84
458.374	439.18
458.741	372.79
459.108	418.75
459.474	393.22
459.841	400.88
460.207	421.31
460.573	377.9
460.94	400.88
461.306	367.69
461.672	480.04
462.038	393.22
462.404	319.17
462.771	377.9
463.137	390.67
463.503	349.81
463.868	403.43
464.234	403.43
464.6	385.56
464.966	326.83
465.332	428.97
465.697	393.22
466.063	408.54
466.429	416.2
466.794	451.95
467.16	370.24
467.525	347.26
467.89	349.81
468.256	457.05
468.621	408.54
468.986	331.94
469.351	354.92
469.717	383.01
470.082	339.6
470.447	385.56
470.812	362.58
471.177	451.95
471.542	434.07
471.906	428.97
472.271	390.67
472.636	377.9
473.001	367.69
473.365	398.33
473.73	457.05
474.094	362.58
474.459	370.24
474.823	380.45
475.188	395.77
475.552	390.67
475.917	413.65
476.281	377.9
476.645	301.3
477.009	441.73
477.373	372.79
477.737	367.69
478.101	380.45
478.465	393.22
478.829	403.43
479.193	403.43
479.557	416.2
479.921	408.54
480.284	454.5
480.648	428.97
481.012	393.22
481.375	395.77
481.739	390.67
482.102	428.97
482.466	375.35
482.829	388.11
483.193	375.35
483.556	352.37
483.919	319.17
484.282	360.03
484.645	339.6
485.009	421.31
485.372	408.54
485.735	398.33
486.098	372.79
486.46	342.15
486.823	408.54
487.186	390.67
487.549	365.13
487.912	428.97
488.274	362.58
488.637	370.24
488.999	326.83
489.362	334.49
489.724	416.2
490.087	480.04
490.449	444.29
490.811	467.27
491.174	400.88
491.536	446.84
491.898	416.2
492.26	449.39
492.622	411.09
492.984	372.79
493.346	467.27
493.708	416.2
494.07	411.09
494.432	449.39
494.794	403.43
495.155	451.95
495.517	395.77
495.879	383.01
496.24	451.95
496.602	367.69
496.963	331.94
497.325	395.77
497.686	377.9
498.048	393.22
498.409	385.56
498.77	423.86
499.131	395.77
499.492	385.56
499.854	383.01
500.215	395.77
500.576	398.33
500.937	385.56
501.298	308.96
501.658	347.26
502.019	339.6
502.38	390.67
502.741	354.92
503.101	403.43
503.462	411.09
503.823	423.86
504.183	352.37
504.543	400.88
504.904	423.86
505.264	408.54
505.625	423.86
505.985	372.79
506.345	403.43
506.705	449.39
507.065	385.56
507.426	444.29
507.786	423.86
508.146	474.93
508.505	431.52
508.865	354.92
509.225	357.47
509.585	526
509.945	377.9
510.304	413.65
510.664	380.45
511.024	360.03
511.383	383.01
511.743	395.77
512.102	383.01
512.462	383.01
512.821	393.22
513.18	357.47
513.539	472.37
513.899	495.36
514.258	357.47
514.617	377.9
514.976	426.41
515.335	485.14
515.694	377.9
516.053	375.35
516.412	390.67
516.771	416.2
517.129	418.75
517.488	370.24
517.847	360.03
518.205	439.18
518.564	400.88
518.922	303.85
519.281	403.43
519.639	418.75
519.998	380.45
520.356	444.29
520.714	375.35
521.073	439.18
521.431	349.81
521.789	403.43
522.147	362.58
522.505	375.35
522.863	385.56
523.221	439.18
523.579	423.86
523.937	372.79
524.295	390.67
524.652	339.6
525.01	370.24
525.368	434.07
525.725	428.97
526.083	383.01
526.44	423.86
526.798	439.18
527.155	418.75
527.513	405.99
527.87	398.33
528.227	444.29
528.584	370.24
528.942	436.63
529.299	421.31
529.656	436.63
530.013	367.69
530.37	398.33
530.727	436.63
531.083	377.9
531.44	375.35
531.797	385.56
532.154	416.2
532.511	319.17
532.867	400.88
533.224	329.39
533.58	375.35
533.937	400.88
534.293	423.86
534.65	423.86
535.006	408.54
535.362	344.71
535.718	342.15
536.075	337.05
536.431	449.39
536.787	411.09
537.143	349.81
537.499	377.9
537.855	360.03
538.211	436.63
538.567	474.93
538.923	423.86
539.278	390.67
539.634	434.07
539.99	411.09
540.345	418.75
540.701	418.75
541.056	398.33
541.412	398.33
541.767	434.07
542.123	390.67
542.478	467.27
542.833	395.77
543.188	344.71
543.544	434.07
543.899	393.22
544.254	370.24
544.609	380.45
544.964	375.35
545.319	362.58
545.674	352.37
546.029	377.9
546.383	367.69
546.738	441.73
547.093	367.69
547.447	403.43
547.802	319.17
548.157	416.2
548.511	367.69
548.866	375.35
549.22	331.94
549.574	408.54
549.929	375.35
550.283	360.03
550.637	426.41
550.991	418.75
551.345	405.99
551.699	395.77
552.053	428.97
552.407	349.81
552.761	385.56
553.115	349.81
553.469	390.67
553.823	411.09
554.176	439.18
554.53	390.67
554.884	383.01
555.237	592.38
555.591	403.43
555.944	370.24
556.298	367.69
556.651	408.54
557.005	446.84
557.358	383.01
557.711	383.01
558.064	380.45
558.417	421.31
558.771	472.37
559.124	408.54
559.477	413.65
559.83	372.79
560.182	367.69
560.535	352.37
560.888	385.56
561.241	464.71
561.594	388.11
561.946	344.71
562.299	331.94
562.651	462.16
563.004	454.5
563.356	360.03
563.709	411.09
564.061	403.43
564.413	367.69
564.766	398.33
565.118	398.33
565.47	439.18
565.822	357.47
566.174	431.52
566.526	349.81
566.878	354.92
567.23	411.09
567.582	298.75
567.934	362.58
568.286	383.01
568.638	385.56
568.989	418.75
569.341	377.9
569.693	342.15
570.044	434.07
570.396	365.13
570.747	375.35
571.098	329.39
571.45	383.01
571.801	301.3
572.152	354.92
572.504	385.56
572.855	439.18
573.206	352.37
573.557	403.43
573.908	334.49
574.259	385.56
574.61	421.31
574.961	403.43
575.311	372.79
575.662	436.63
576.013	441.73
576.364	418.75
576.714	398.33
577.065	367.69
577.415	365.13
577.766	388.11
578.116	400.88
578.467	365.13
578.817	390.67
579.167	365.13
579.518	477.48
579.868	398.33
580.218	426.41
580.568	388.11
580.918	354.92
581.268	416.2
581.618	441.73
581.968	405.99
582.318	329.39
582.668	365.13
583.017	416.2
583.367	326.83
583.717	380.45
584.066	418.75
584.416	380.45
584.765	375.35
585.115	380.45
585.464	423.86
585.814	416.2
586.163	383.01
586.512	324.28
586.862	398.33
587.211	362.58
587.56	354.92
587.909	403.43
588.258	329.39
588.607	421.31
588.956	434.07
589.305	334.49
589.654	393.22
590.002	398.33
590.351	357.47
590.7	454.5
591.048	375.35
591.397	398.33
591.746	390.67
592.094	375.35
592.443	357.47
592.791	344.71
593.139	380.45
593.488	362.58
593.836	380.45
594.184	405.99
594.532	400.88
594.88	331.94
595.228	342.15
595.576	388.11
595.924	349.81
596.272	367.69
596.62	383.01
596.968	377.9
597.316	329.39
597.664	388.11
598.011	319.17
598.359	403.43
598.706	390.67
599.054	311.51
599.402	349.81
599.749	403.43
600.096	413.65
600.444	398.33
600.791	357.47
601.138	408.54
601.485	439.18
601.833	377.9
602.18	360.03
602.527	421.31
602.874	405.99
603.221	385.56
603.568	400.88
603.914	398.33
604.261	347.26
604.608	416.2
604.955	354.92
605.301	367.69
605.648	385.56
605.995	400.88
606.341	385.56
606.688	370.24
607.034	390.67
607.38	431.52
607.727	393.22
608.073	365.13
608.419	449.39
608.765	439.18
609.112	413.65
609.458	372.79
609.804	416.2
610.15	405.99
610.496	441.73
610.842	418.75
611.187	383.01
611.533	411.09
611.879	390.67
612.225	408.54
612.57	370.24
612.916	413.65
613.261	383.01
613.607	367.69
613.952	349.81
614.298	377.9
614.643	372.79
614.989	398.33
615.334	400.88
615.679	377.9
616.024	405.99
616.369	449.39
616.714	375.35
617.059	459.61
617.404	441.73
617.749	375.35
618.094	431.52
618.439	380.45
618.784	405.99
619.129	372.79
619.473	344.71
619.818	398.33
620.163	393.22
620.507	380.45
620.852	388.11
621.196	365.13
621.54	360.03
621.885	377.9
622.229	326.83
622.573	314.07
622.918	385.56
623.262	357.47
623.606	390.67
623.95	405.99
624.294	370.24
624.638	360.03
624.982	385.56
625.326	444.29
625.67	416.2
626.013	352.37
626.357	362.58
626.701	411.09
627.044	428.97
627.388	421.31
627.731	331.94
628.075	367.69
628.418	434.07
628.762	365.13
629.105	362.58
629.448	444.29
629.792	360.03
630.135	367.69
630.478	380.45
630.821	331.94
631.164	326.83
631.507	393.22
631.85	416.2
632.193	413.65
632.536	393.22
632.879	451.95
633.221	367.69
633.564	375.35
633.907	413.65
634.249	459.61
634.592	428.97
634.935	400.88
635.277	308.96
635.619	403.43
635.962	400.88
636.304	375.35
636.646	367.69
636.989	321.73
637.331	367.69
637.673	316.62
638.015	329.39
638.357	370.24
638.699	331.94
639.041	441.73
639.383	385.56
639.725	377.9
640.067	362.58
640.408	377.9
640.75	377.9
641.092	375.35
641.433	370.24
641.775	362.58
642.116	441.73
642.458	411.09
642.799	314.07
643.141	459.61
643.482	454.5
643.823	408.54
644.164	326.83
644.506	431.52
644.847	360.03
645.188	383.01
645.529	360.03
645.87	467.27
646.211	337.05
646.552	372.79
646.893	398.33
647.233	357.47
647.574	370.24
647.915	441.73
648.255	434.07
648.596	365.13
648.937	395.77
649.277	418.75
649.618	377.9
649.958	331.94
650.298	324.28
650.639	375.35
650.979	339.6
651.319	411.09
651.659	383.01
651.999	380.45
652.339	375.35
652.679	408.54
653.019	331.94
653.359	388.11
653.699	265.55
654.039	390.67
654.379	349.81
654.719	423.86
655.058	380.45
655.398	354.92
655.737	408.54
656.077	367.69
656.416	418.75
656.756	347.26
657.095	421.31
657.435	375.35
657.774	329.39
658.113	400.88
658.452	349.81
658.792	418.75
659.131	426.41
659.47	362.58
659.809	428.97
660.148	398.33
660.487	380.45
660.826	319.17
661.164	342.15
661.503	400.88
661.842	375.35
662.181	439.18
662.519	393.22
662.858	398.33
663.196	398.33
663.535	385.56
663.873	370.24
664.212	383.01
664.55	365.13
664.888	339.6
665.226	354.92
665.565	352.37
665.903	561.74
666.241	385.56
666.579	357.47
666.917	339.6
667.255	413.65
667.593	380.45
667.931	370.24
668.268	365.13
668.606	398.33
668.944	321.73
669.282	398.33
669.619	408.54
669.957	411.09
670.294	370.24
670.632	423.86
670.969	426.41
671.307	354.92
671.644	408.54
671.981	383.01
672.318	383.01
672.656	375.35
672.993	457.05
673.33	354.92
673.667	403.43
674.004	408.54
674.341	375.35
674.678	385.56
675.015	334.49
675.351	434.07
675.688	375.35
676.025	405.99
676.362	400.88
676.698	360.03
677.035	434.07
677.371	400.88
677.708	385.56
678.044	418.75
678.38	337.05
678.717	347.26
679.053	367.69
679.389	365.13
679.725	324.28
680.062	390.67
680.398	436.63
680.734	395.77
681.07	395.77
681.406	339.6
681.742	413.65
682.077	416.2
682.413	451.95
682.749	405.99
683.085	383.01
683.42	413.65
683.756	380.45
684.091	418.75
684.427	354.92
684.762	352.37
685.098	367.69
685.433	347.26
685.768	395.77
686.104	390.67
686.439	423.86
686.774	400.88
687.109	339.6
687.444	354.92
687.779	352.37
688.114	362.58
688.449	408.54
688.784	337.05
689.119	365.13
689.454	321.73
689.789	352.37
690.123	334.49
690.458	405.99
690.792	380.45
691.127	337.05
691.461	347.26
691.796	375.35
692.13	360.03
692.465	372.79
692.799	411.09
693.133	365.13
693.467	365.13
693.802	367.69
694.136	388.11
694.47	383.01
694.804	344.71
695.138	380.45
695.472	390.67
695.806	431.52
696.139	377.9
696.473	354.92
696.807	377.9
697.141	388.11
697.474	321.73
697.808	375.35
698.141	308.96
698.475	390.67
698.808	390.67
699.142	398.33
699.475	405.99
699.808	469.82
700.142	418.75
700.475	418.75
700.808	405.99
701.141	365.13
701.474	421.31
701.807	344.71
702.14	339.6
702.473	303.85
702.806	329.39
703.139	347.26
703.472	365.13
703.804	439.18
704.137	405.99
704.47	413.65
704.802	405.99
705.135	380.45
705.467	344.71
705.8	390.67
706.132	316.62
706.464	365.13
706.797	347.26
707.129	395.77
707.461	444.29
707.793	421.31
708.125	278.32
708.457	349.81
708.789	405.99
709.121	362.58
709.453	367.69
709.785	398.33
710.117	388.11
710.449	395.77
710.781	372.79
711.112	354.92
711.444	319.17
711.775	365.13
712.107	349.81
712.438	408.54
712.77	385.56
713.101	418.75
713.433	467.27
713.764	434.07
714.095	405.99
714.426	370.24
714.757	375.35
715.089	385.56
715.42	326.83
715.751	390.67
716.082	428.97
716.412	411.09
716.743	365.13
717.074	360.03
717.405	398.33
717.736	421.31
718.066	388.11
718.397	400.88
718.727	439.18
719.058	314.07
719.388	357.47
719.719	375.35
720.049	352.37
720.38	395.77
720.71	339.6
721.04	344.71
721.37	380.45
721.7	388.11
722.031	344.71
722.361	331.94
722.691	344.71
723.021	408.54
723.35	370.24
723.68	375.35
724.01	367.69
724.34	365.13
724.67	395.77
724.999	357.47
725.329	405.99
725.658	395.77
725.988	354.92
726.317	400.88
726.647	426.41
726.976	380.45
727.306	354.92
727.635	360.03
727.964	388.11
728.293	344.71
728.622	377.9
728.952	314.07
729.281	321.73
729.61	370.24
729.939	451.95
730.267	349.81
730.596	380.45
730.925	423.86
731.254	383.01
731.583	377.9
731.911	362.58
732.24	352.37
732.568	362.58
732.897	372.79
733.225	360.03
733.554	377.9
733.882	403.43
734.21	377.9
734.539	418.75
734.867	357.47
735.195	365.13
735.523	383.01
735.851	375.35
736.179	360.03
736.507	273.21
736.835	385.56
737.163	347.26
737.491	349.81
737.819	342.15
738.147	329.39
738.474	349.81
738.802	375.35
739.13	352.37
739.457	413.65
739.785	347.26
740.112	413.65
740.44	400.88
740.767	418.75
741.094	362.58
741.422	405.99
741.749	362.58
742.076	408.54
742.403	411.09
742.73	377.9
743.057	421.31
743.384	316.62
743.711	324.28
744.038	383.01
744.365	385.56
744.692	357.47
745.018	314.07
745.345	365.13
745.672	403.43
745.998	354.92
746.325	380.45
746.651	431.52
746.978	370.24
747.304	362.58
747.631	349.81
747.957	413.65
748.283	362.58
748.61	388.11
748.936	306.41
749.262	388.11
749.588	367.69
749.914	337.05
750.24	416.2
750.566	436.63
750.892	400.88
751.218	421.31
751.543	329.39
751.869	390.67
752.195	395.77
752.521	352.37
752.846	367.69
753.172	362.58
753.497	347.26
753.823	339.6
754.148	428.97
754.473	400.88
754.799	372.79
755.124	411.09
755.449	321.73
755.774	395.77
756.1	337.05
756.425	377.9
756.75	372.79
757.075	403.43
757.4	523.44
757.724	400.88
758.049	375.35
758.374	388.11
758.699	367.69
759.024	434.07
759.348	398.33
759.673	441.73
759.997	395.77
760.322	457.05
760.646	459.61
760.971	314.07
761.295	398.33
761.619	405.99
761.944	349.81
762.268	344.71
762.592	421.31
762.916	354.92
763.24	395.77
763.564	316.62
763.888	385.56
764.212	388.11
764.536	436.63
764.86	370.24
765.184	344.71
765.508	324.28
765.831	365.13
766.155	661.32
766.478	474.93
766.802	416.2
767.126	405.99
767.449	360.03
767.772	446.84
768.096	423.86
768.419	308.96
768.742	400.88
769.066	367.69
769.389	339.6
769.712	398.33
770.035	357.47
770.358	383.01
770.681	375.35
771.004	342.15
771.327	339.6
771.65	421.31
771.972	377.9
772.295	400.88
772.618	383.01
772.941	439.18
773.263	393.22
773.586	354.92
773.908	393.22
774.231	423.86
774.553	339.6
774.875	413.65
775.198	385.56
775.52	383.01
775.842	316.62
776.164	408.54
776.487	403.43
776.809	385.56
777.131	321.73
777.453	380.45
777.775	329.39
778.096	418.75
778.418	431.52
778.74	428.97
779.062	388.11
779.384	423.86
779.705	360.03
780.027	362.58
780.348	400.88
780.67	395.77
780.991	326.83
781.313	352.37
781.634	367.69
781.955	331.94
782.277	405.99
782.598	370.24
782.919	388.11
783.24	319.17
783.561	352.37
783.882	400.88
784.203	408.54
784.524	349.81
784.845	418.75
785.166	367.69
785.487	372.79
785.807	344.71
786.128	413.65
786.449	380.45
786.769	395.77
787.09	428.97
787.41	339.6
787.731	418.75
788.051	326.83
788.372	390.67
788.692	411.09
789.012	449.39
789.332	416.2
789.653	324.28
789.973	337.05
790.293	428.97
790.613	441.73
790.933	344.71
791.253	324.28
791.573	421.31
791.893	395.77
792.212	403.43
792.532	360.03
792.852	360.03
793.171	377.9
793.491	339.6
793.811	301.3
794.13	265.55
794.45	311.51
794.769	380.45
795.088	342.15
795.408	321.73
795.727	324.28
796.046	331.94
796.365	316.62
796.684	439.18
797.004	393.22
797.323	411.09
797.642	408.54
797.96	370.24
798.279	380.45
798.598	403.43
798.917	342.15
799.236	354.92
799.554	301.3
799.873	377.9
800.192	316.62
800.51	362.58
800.829	421.31
801.147	434.07
801.466	360.03
