Data from 2025-12-03_xpw_interference_micrometer_634_dark_FLMS141361__4__154.txt Node

Date: Wed Dec 03 15:49:59 MST 2025
User: james
Spectrometer: FLMS14136
Trigger mode: 0
Integration Time (sec): 1.000000E-1
Scans to average: 1
Electric dark correction enabled: true
Nonlinearity correction enabled: false
Boxcar width: 0
XAxis mode: Wavelengths
Number of Pixels in Spectrum: 2048
>>>>>Begin Spectral Data<<<<<
339.315	-65.43
339.697	-65.43
340.079	-65.43
340.461	-57.77
340.843	-101.18
341.225	-134.37
341.607	-134.37
341.989	-93.52
342.371	-108.84
342.752	-29.68
343.134	-50.11
343.516	-55.22
343.897	-34.79
344.279	-52.66
344.661	62.24
345.042	57.13
345.423	-1.6
345.805	100.54
346.186	154.16
346.567	143.95
346.949	177.14
347.33	230.76
347.711	200.12
348.092	215.44
348.473	220.55
348.854	253.74
349.235	289.49
349.616	279.28
349.997	332.9
350.378	325.24
350.758	343.11
351.139	376.3
351.52	345.66
351.9	335.45
352.281	332.9
352.661	396.73
353.042	383.96
353.422	338
353.803	378.86
354.183	386.52
354.563	435.03
354.943	376.3
355.324	383.96
355.704	343.11
356.084	394.18
356.464	391.62
356.844	440.14
357.224	432.48
357.603	422.26
357.983	376.3
358.363	412.05
358.743	424.82
359.122	427.37
359.502	412.05
359.882	389.07
360.261	422.26
360.641	350.77
361.02	358.43
361.399	350.77
361.779	383.96
362.158	315.02
362.537	299.7
362.916	281.83
363.296	325.24
363.675	360.98
364.054	378.86
364.433	401.84
364.812	366.09
365.19	394.18
365.569	345.66
365.948	419.71
366.327	366.09
366.705	327.79
367.084	396.73
367.463	399.28
367.841	378.86
368.22	404.39
368.598	373.75
368.977	348.22
369.355	368.64
369.733	378.86
370.111	355.88
370.49	376.3
370.868	368.64
371.246	409.5
371.624	429.93
372.002	419.71
372.38	363.54
372.758	353.32
373.136	353.32
373.513	373.75
373.891	363.54
374.269	366.09
374.646	381.41
375.024	406.94
375.402	345.66
375.779	417.16
376.157	409.5
376.534	412.05
376.911	383.96
377.289	419.71
377.666	414.6
378.043	435.03
378.42	406.94
378.797	335.45
379.175	348.22
379.552	366.09
379.929	386.52
380.305	389.07
380.682	394.18
381.059	383.96
381.436	363.54
381.813	348.22
382.189	389.07
382.566	432.48
382.943	417.16
383.319	422.26
383.696	348.22
384.072	363.54
384.448	386.52
384.825	435.03
385.201	401.84
385.577	399.28
385.953	417.16
386.329	409.5
386.706	325.24
387.082	432.48
387.458	445.25
387.834	440.14
388.209	389.07
388.585	389.07
388.961	340.56
389.337	391.62
389.713	383.96
390.088	353.32
390.464	363.54
390.839	366.09
391.215	406.94
391.59	360.98
391.966	350.77
392.341	360.98
392.716	424.82
393.092	404.39
393.467	427.37
393.842	376.3
394.217	391.62
394.592	381.41
394.967	386.52
395.342	322.68
395.717	383.96
396.092	396.73
396.467	350.77
396.841	383.96
397.216	340.56
397.591	340.56
397.965	383.96
398.34	366.09
398.714	406.94
399.089	422.26
399.463	452.91
399.838	417.16
400.212	404.39
400.586	404.39
400.961	355.88
401.335	376.3
401.709	322.68
402.083	360.98
402.457	396.73
402.831	373.75
403.205	409.5
403.579	386.52
403.953	417.16
404.326	399.28
404.7	386.52
405.074	419.71
405.447	394.18
405.821	399.28
406.195	358.43
406.568	455.46
406.942	445.25
407.315	417.16
407.688	404.39
408.062	368.64
408.435	396.73
408.808	437.59
409.181	440.14
409.554	391.62
409.927	389.07
410.3	475.89
410.673	399.28
411.046	378.86
411.419	422.26
411.792	409.5
412.165	412.05
412.537	368.64
412.91	399.28
413.283	427.37
413.655	404.39
414.028	478.44
414.4	368.64
414.773	389.07
415.145	455.46
415.517	406.94
415.889	389.07
416.262	424.82
416.634	409.5
417.006	350.77
417.378	368.64
417.75	394.18
418.122	478.44
418.494	496.31
418.866	391.62
419.238	409.5
419.609	427.37
419.981	409.5
420.353	360.98
420.725	371.2
421.096	399.28
421.468	383.96
421.839	486.1
422.211	447.8
422.582	427.37
422.953	414.6
423.325	401.84
423.696	437.59
424.067	470.78
424.438	409.5
424.809	396.73
425.18	412.05
425.551	404.39
425.922	404.39
426.293	445.25
426.664	404.39
427.035	417.16
427.406	406.94
427.776	442.69
428.147	442.69
428.518	452.91
428.888	404.39
429.259	399.28
429.629	315.02
429.999	396.73
430.37	447.8
430.74	360.98
431.11	419.71
431.481	445.25
431.851	358.43
432.221	435.03
432.591	391.62
432.961	327.79
433.331	381.41
433.701	414.6
434.071	463.12
434.441	458.01
434.81	480.99
435.18	483.55
435.55	422.26
435.919	376.3
436.289	404.39
436.658	322.68
437.028	304.81
437.397	401.84
437.767	424.82
438.136	432.48
438.505	427.37
438.875	414.6
439.244	447.8
439.613	401.84
439.982	422.26
440.351	414.6
440.72	488.65
441.089	429.93
441.458	437.59
441.827	345.66
442.196	473.33
442.564	475.89
442.933	475.89
443.302	368.64
443.67	435.03
444.039	427.37
444.407	335.45
444.776	427.37
445.144	409.5
445.513	355.88
445.881	460.57
446.249	435.03
446.617	363.54
446.986	409.5
447.354	383.96
447.722	383.96
448.09	396.73
448.458	401.84
448.826	414.6
449.194	452.91
449.561	432.48
449.929	460.57
450.297	473.33
450.665	493.76
451.032	463.12
451.4	381.41
451.767	470.78
452.135	493.76
452.502	447.8
452.87	432.48
453.237	468.23
453.604	480.99
453.971	396.73
454.339	455.46
454.706	493.76
455.073	389.07
455.44	440.14
455.807	378.86
456.174	427.37
456.541	376.3
456.908	409.5
457.274	394.18
457.641	378.86
458.008	353.32
458.374	389.07
458.741	419.71
459.108	463.12
459.474	480.99
459.841	412.05
460.207	419.71
460.573	373.75
460.94	442.69
461.306	332.9
461.672	406.94
462.038	363.54
462.404	442.69
462.771	422.26
463.137	417.16
463.503	475.89
463.868	432.48
464.234	437.59
464.6	437.59
464.966	429.93
465.332	422.26
465.697	406.94
466.063	445.25
466.429	486.1
466.794	429.93
467.16	406.94
467.525	450.35
467.89	422.26
468.256	320.13
468.621	465.67
468.986	429.93
469.351	383.96
469.717	432.48
470.082	376.3
470.447	376.3
470.812	383.96
471.177	463.12
471.542	437.59
471.906	399.28
472.271	389.07
472.636	432.48
473.001	473.33
473.365	445.25
473.73	378.86
474.094	445.25
474.459	458.01
474.823	355.88
475.188	422.26
475.552	394.18
475.917	432.48
476.281	475.89
476.645	404.39
477.009	422.26
477.373	417.16
477.737	447.8
478.101	417.16
478.465	350.77
478.829	498.87
479.193	383.96
479.557	399.28
479.921	486.1
480.284	473.33
480.648	424.82
481.012	442.69
481.375	455.46
481.739	412.05
482.102	468.23
482.466	381.41
482.829	478.44
483.193	366.09
483.556	422.26
483.919	445.25
484.282	417.16
484.645	419.71
485.009	419.71
485.372	360.98
485.735	350.77
486.098	424.82
486.46	465.67
486.823	440.14
487.186	483.55
487.549	463.12
487.912	432.48
488.274	458.01
488.637	414.6
488.999	447.8
489.362	406.94
489.724	406.94
490.087	383.96
490.449	417.16
490.811	363.54
491.174	358.43
491.536	480.99
491.898	422.26
492.26	501.42
492.622	412.05
492.984	475.89
493.346	322.68
493.708	422.26
494.07	465.67
494.432	529.51
494.794	442.69
495.155	396.73
495.517	447.8
495.879	422.26
496.24	435.03
496.602	386.52
496.963	373.75
497.325	358.43
497.686	483.55
498.048	412.05
498.409	399.28
498.77	412.05
499.131	455.46
499.492	376.3
499.854	447.8
500.215	419.71
500.576	432.48
500.937	386.52
501.298	414.6
501.658	460.57
502.019	429.93
502.38	371.2
502.741	368.64
503.101	371.2
503.462	440.14
503.823	429.93
504.183	463.12
504.543	429.93
504.904	417.16
505.264	424.82
505.625	465.67
505.985	437.59
506.345	429.93
506.705	409.5
507.065	417.16
507.426	355.88
507.786	394.18
508.146	404.39
508.505	465.67
508.865	419.71
509.225	404.39
509.585	493.76
509.945	417.16
510.304	417.16
510.664	460.57
511.024	412.05
511.383	360.98
511.743	399.28
512.102	419.71
512.462	450.35
512.821	427.37
513.18	406.94
513.539	455.46
513.899	409.5
514.258	455.46
514.617	414.6
514.976	409.5
515.335	437.59
515.694	496.31
516.053	412.05
516.412	391.62
516.771	445.25
517.129	419.71
517.488	376.3
517.847	437.59
518.205	432.48
518.564	493.76
518.922	383.96
519.281	394.18
519.639	460.57
519.998	401.84
520.356	401.84
520.714	468.23
521.073	447.8
521.431	435.03
521.789	468.23
522.147	432.48
522.505	460.57
522.863	450.35
523.221	493.76
523.579	429.93
523.937	483.55
524.295	455.46
524.652	419.71
525.01	432.48
525.368	475.89
525.725	463.12
526.083	401.84
526.44	404.39
526.798	422.26
527.155	488.65
527.513	442.69
527.87	437.59
528.227	458.01
528.584	458.01
528.942	445.25
529.299	437.59
529.656	440.14
530.013	435.03
530.37	373.75
530.727	355.88
531.083	429.93
531.44	399.28
531.797	360.98
532.154	386.52
532.511	348.22
532.867	389.07
533.224	450.35
533.58	360.98
533.937	399.28
534.293	358.43
534.65	419.71
535.006	424.82
535.362	437.59
535.718	465.67
536.075	429.93
536.431	404.39
536.787	350.77
537.143	470.78
537.499	447.8
537.855	419.71
538.211	350.77
538.567	458.01
538.923	435.03
539.278	394.18
539.634	424.82
539.99	468.23
540.345	399.28
540.701	432.48
541.056	355.88
541.412	422.26
541.767	368.64
542.123	429.93
542.478	493.76
542.833	475.89
543.188	468.23
543.544	465.67
543.899	445.25
544.254	360.98
544.609	406.94
544.964	419.71
545.319	442.69
545.674	401.84
546.029	432.48
546.383	399.28
546.738	455.46
547.093	406.94
547.447	412.05
547.802	432.48
548.157	424.82
548.511	386.52
548.866	440.14
549.22	422.26
549.574	452.91
549.929	417.16
550.283	399.28
550.637	435.03
550.991	498.87
551.345	437.59
551.699	491.21
552.053	394.18
552.407	381.41
552.761	465.67
553.115	521.85
553.469	486.1
553.823	422.26
554.176	442.69
554.53	406.94
554.884	414.6
555.237	595.89
555.591	417.16
555.944	442.69
556.298	424.82
556.651	483.55
557.005	458.01
557.358	435.03
557.711	437.59
558.064	412.05
558.417	417.16
558.771	460.57
559.124	447.8
559.477	404.39
559.83	371.2
560.182	414.6
560.535	455.46
560.888	435.03
561.241	478.44
561.594	458.01
561.946	412.05
562.299	452.91
562.651	447.8
563.004	409.5
563.356	399.28
563.709	427.37
564.061	437.59
564.413	435.03
564.766	424.82
565.118	440.14
565.47	404.39
565.822	414.6
566.174	371.2
566.526	478.44
566.878	496.31
567.23	412.05
567.582	473.33
567.934	422.26
568.286	419.71
568.638	406.94
568.989	360.98
569.341	452.91
569.693	478.44
570.044	465.67
570.396	419.71
570.747	442.69
571.098	432.48
571.45	440.14
571.801	355.88
572.152	383.96
572.504	350.77
572.855	386.52
573.206	368.64
573.557	399.28
573.908	401.84
574.259	432.48
574.61	378.86
574.961	429.93
575.311	455.46
575.662	427.37
576.013	432.48
576.364	435.03
576.714	440.14
577.065	401.84
577.415	429.93
577.766	427.37
578.116	401.84
578.467	373.75
578.817	417.16
579.167	460.57
579.518	404.39
579.868	427.37
580.218	452.91
580.568	440.14
580.918	455.46
581.268	401.84
581.618	455.46
581.968	442.69
582.318	409.5
582.668	432.48
583.017	427.37
583.367	417.16
583.717	422.26
584.066	429.93
584.416	437.59
584.765	440.14
585.115	435.03
585.464	417.16
585.814	440.14
586.163	475.89
586.512	429.93
586.862	432.48
587.211	399.28
587.56	409.5
587.909	412.05
588.258	404.39
588.607	422.26
588.956	419.71
589.305	445.25
589.654	458.01
590.002	422.26
590.351	396.73
590.7	414.6
591.048	417.16
591.397	440.14
591.746	468.23
592.094	450.35
592.443	432.48
592.791	465.67
593.139	378.86
593.488	368.64
593.836	409.5
594.184	386.52
594.532	371.2
594.88	496.31
595.228	470.78
595.576	440.14
595.924	383.96
596.272	463.12
596.62	463.12
596.968	450.35
597.316	424.82
597.664	412.05
598.011	452.91
598.359	412.05
598.706	394.18
599.054	437.59
599.402	442.69
599.749	458.01
600.096	401.84
600.444	391.62
600.791	450.35
601.138	432.48
601.485	404.39
601.833	386.52
602.18	422.26
602.527	445.25
602.874	406.94
603.221	401.84
603.568	378.86
603.914	432.48
604.261	463.12
604.608	455.46
604.955	458.01
605.301	327.79
605.648	412.05
605.995	437.59
606.341	386.52
606.688	455.46
607.034	450.35
607.38	381.41
607.727	383.96
608.073	409.5
608.419	376.3
608.765	409.5
609.112	468.23
609.458	366.09
609.804	511.63
610.15	470.78
610.496	460.57
610.842	440.14
611.187	414.6
611.533	424.82
611.879	409.5
612.225	465.67
612.57	455.46
612.916	412.05
613.261	396.73
613.607	399.28
613.952	468.23
614.298	468.23
614.643	458.01
614.989	414.6
615.334	419.71
615.679	429.93
616.024	332.9
616.369	404.39
616.714	417.16
617.059	399.28
617.404	409.5
617.749	386.52
618.094	417.16
618.439	501.42
618.784	404.39
619.129	435.03
619.473	409.5
619.818	297.15
620.163	450.35
620.507	442.69
620.852	391.62
621.196	445.25
621.54	445.25
621.885	450.35
622.229	447.8
622.573	401.84
622.918	417.16
623.262	355.88
623.606	450.35
623.95	435.03
624.294	386.52
624.638	465.67
624.982	383.96
625.326	409.5
625.67	406.94
626.013	460.57
626.357	483.55
626.701	422.26
627.044	419.71
627.388	445.25
627.731	455.46
628.075	483.55
628.418	391.62
628.762	373.75
629.105	396.73
629.448	412.05
629.792	381.41
630.135	386.52
630.478	345.66
630.821	378.86
631.164	381.41
631.507	432.48
631.85	409.5
632.193	394.18
632.536	460.57
632.879	355.88
633.221	360.98
633.564	424.82
633.907	391.62
634.249	394.18
634.592	440.14
634.935	406.94
635.277	447.8
635.619	309.92
635.962	437.59
636.304	389.07
636.646	455.46
636.989	368.64
637.331	406.94
637.673	429.93
638.015	394.18
638.357	432.48
638.699	455.46
639.041	455.46
639.383	409.5
639.725	406.94
640.067	412.05
640.408	417.16
640.75	417.16
641.092	435.03
641.433	445.25
641.775	447.8
642.116	435.03
642.458	414.6
642.799	371.2
643.141	360.98
643.482	389.07
643.823	386.52
644.164	417.16
644.506	509.08
644.847	437.59
645.188	373.75
645.529	353.32
645.87	332.9
646.211	404.39
646.552	389.07
646.893	432.48
647.233	391.62
647.574	386.52
647.915	447.8
648.255	429.93
648.596	488.65
648.937	432.48
649.277	409.5
649.618	378.86
649.958	429.93
650.298	404.39
650.639	366.09
650.979	435.03
651.319	424.82
651.659	322.68
651.999	417.16
652.339	368.64
652.679	401.84
653.019	391.62
653.359	340.56
653.699	368.64
654.039	435.03
654.379	437.59
654.719	437.59
655.058	417.16
655.398	404.39
655.737	544.83
656.077	440.14
656.416	353.32
656.756	378.86
657.095	427.37
657.435	452.91
657.774	404.39
658.113	458.01
658.452	373.75
658.792	419.71
659.131	401.84
659.47	412.05
659.809	363.54
660.148	396.73
660.487	394.18
660.826	340.56
661.164	452.91
661.503	386.52
661.842	373.75
662.181	335.45
662.519	401.84
662.858	401.84
663.196	373.75
663.535	396.73
663.873	389.07
664.212	432.48
664.55	406.94
664.888	345.66
665.226	363.54
665.565	399.28
665.903	631.64
666.241	455.46
666.579	445.25
666.917	345.66
667.255	383.96
667.593	445.25
667.931	458.01
668.268	458.01
668.606	353.32
668.944	371.2
669.282	386.52
669.619	373.75
669.957	394.18
670.294	376.3
670.632	463.12
670.969	383.96
671.307	401.84
671.644	396.73
671.981	440.14
672.318	417.16
672.656	417.16
672.993	437.59
673.33	297.15
673.667	419.71
674.004	353.32
674.341	419.71
674.678	327.79
675.015	378.86
675.351	460.57
675.688	452.91
676.025	389.07
676.362	414.6
676.698	409.5
677.035	460.57
677.371	366.09
677.708	419.71
678.044	406.94
678.38	368.64
678.717	383.96
679.053	455.46
679.389	455.46
679.725	363.54
680.062	480.99
680.398	376.3
680.734	437.59
681.07	376.3
681.406	473.33
681.742	429.93
682.077	429.93
682.413	404.39
682.749	338
683.085	391.62
683.42	338
683.756	394.18
684.091	412.05
684.427	429.93
684.762	432.48
685.098	460.57
685.433	396.73
685.768	386.52
686.104	435.03
686.439	401.84
686.774	424.82
687.109	338
687.444	312.47
687.779	391.62
688.114	432.48
688.449	386.52
688.784	445.25
689.119	355.88
689.454	386.52
689.789	366.09
690.123	429.93
690.458	463.12
690.792	435.03
691.127	363.54
691.461	409.5
691.796	429.93
692.13	355.88
692.465	401.84
692.799	366.09
693.133	383.96
693.467	414.6
693.802	496.31
694.136	432.48
694.47	424.82
694.804	386.52
695.138	315.02
695.472	452.91
695.806	412.05
696.139	458.01
696.473	394.18
696.807	358.43
697.141	340.56
697.474	396.73
697.808	455.46
698.141	432.48
698.475	373.75
698.808	371.2
699.142	445.25
699.475	391.62
699.808	350.77
700.142	366.09
700.475	432.48
700.808	366.09
701.141	473.33
701.474	447.8
701.807	389.07
702.14	401.84
702.473	424.82
702.806	417.16
703.139	404.39
703.472	409.5
703.804	386.52
704.137	422.26
704.47	465.67
704.802	432.48
705.135	394.18
705.467	399.28
705.8	432.48
706.132	447.8
706.464	488.65
706.797	458.01
707.129	460.57
707.461	391.62
707.793	409.5
708.125	404.39
708.457	455.46
708.789	435.03
709.121	396.73
709.453	429.93
709.785	401.84
710.117	396.73
710.449	417.16
710.781	424.82
711.112	480.99
711.444	406.94
711.775	424.82
712.107	475.89
712.438	417.16
712.77	373.75
713.101	440.14
713.433	442.69
713.764	427.37
714.095	424.82
714.426	406.94
714.757	486.1
715.089	366.09
715.42	373.75
715.751	417.16
716.082	404.39
716.412	432.48
716.743	383.96
717.074	396.73
717.405	429.93
717.736	437.59
718.066	417.16
718.397	396.73
718.727	429.93
719.058	358.43
719.388	424.82
719.719	429.93
720.049	399.28
720.38	404.39
720.71	455.46
721.04	473.33
721.37	404.39
721.7	445.25
722.031	432.48
722.361	381.41
722.691	401.84
723.021	391.62
723.35	371.2
723.68	335.45
724.01	381.41
724.34	412.05
724.67	422.26
724.999	412.05
725.329	450.35
725.658	427.37
725.988	335.45
726.317	366.09
726.647	442.69
726.976	358.43
727.306	389.07
727.635	419.71
727.964	435.03
728.293	401.84
728.622	480.99
728.952	389.07
729.281	429.93
729.61	386.52
729.939	406.94
730.267	358.43
730.596	378.86
730.925	424.82
731.254	399.28
731.583	399.28
731.911	404.39
732.24	491.21
732.568	422.26
732.897	465.67
733.225	414.6
733.554	335.45
733.882	383.96
734.21	345.66
734.539	447.8
734.867	412.05
735.195	465.67
735.523	463.12
735.851	399.28
736.179	383.96
736.507	371.2
736.835	406.94
737.163	396.73
737.491	378.86
737.819	366.09
738.147	381.41
738.474	389.07
738.802	348.22
739.13	368.64
739.457	409.5
739.785	401.84
740.112	460.57
740.44	394.18
740.767	445.25
741.094	368.64
741.422	452.91
741.749	399.28
742.076	427.37
742.403	452.91
742.73	424.82
743.057	422.26
743.384	450.35
743.711	409.5
744.038	447.8
744.365	442.69
744.692	320.13
745.018	348.22
745.345	414.6
745.672	399.28
745.998	376.3
746.325	432.48
746.651	348.22
746.978	350.77
747.304	460.57
747.631	373.75
747.957	396.73
748.283	409.5
748.61	396.73
748.936	373.75
749.262	376.3
749.588	409.5
749.914	404.39
750.24	465.67
750.566	401.84
750.892	394.18
751.218	435.03
751.543	422.26
751.869	432.48
752.195	376.3
752.521	427.37
752.846	381.41
753.172	376.3
753.497	437.59
753.823	378.86
754.148	424.82
754.473	442.69
754.799	302.26
755.124	404.39
755.449	409.5
755.774	391.62
756.1	432.48
756.425	458.01
756.75	417.16
757.075	399.28
757.4	585.68
757.724	503.97
758.049	378.86
758.374	348.22
758.699	429.93
759.024	396.73
759.348	463.12
759.673	424.82
759.997	378.86
760.322	429.93
760.646	460.57
760.971	371.2
761.295	381.41
761.619	343.11
761.944	373.75
762.268	501.42
762.592	463.12
762.916	396.73
763.24	427.37
763.564	396.73
763.888	394.18
764.212	432.48
764.536	383.96
764.86	394.18
765.184	429.93
765.508	422.26
765.831	422.26
766.155	703.14
766.478	483.55
766.802	373.75
767.126	458.01
767.449	432.48
767.772	465.67
768.096	473.33
768.419	473.33
768.742	383.96
769.066	386.52
769.389	360.98
769.712	386.52
770.035	442.69
770.358	437.59
770.681	424.82
771.004	422.26
771.327	435.03
771.65	391.62
771.972	409.5
772.295	483.55
772.618	406.94
772.941	396.73
773.263	427.37
773.586	389.07
773.908	417.16
774.231	389.07
774.553	358.43
774.875	368.64
775.198	394.18
775.52	378.86
775.842	480.99
776.164	404.39
776.487	409.5
776.809	463.12
777.131	404.39
777.453	435.03
777.775	340.56
778.096	419.71
778.418	432.48
778.74	427.37
779.062	432.48
779.384	386.52
779.705	404.39
780.027	396.73
780.348	445.25
780.67	488.65
780.991	501.42
781.313	417.16
781.634	409.5
781.955	468.23
782.277	435.03
782.598	429.93
782.919	460.57
783.24	429.93
783.561	399.28
783.882	360.98
784.203	327.79
784.524	322.68
784.845	409.5
785.166	496.31
785.487	386.52
785.807	424.82
786.128	412.05
786.449	404.39
786.769	391.62
787.09	414.6
787.41	412.05
787.731	432.48
788.051	437.59
788.372	452.91
788.692	468.23
789.012	406.94
789.332	432.48
789.653	429.93
789.973	417.16
790.293	383.96
790.613	409.5
790.933	381.41
791.253	389.07
791.573	353.32
791.893	483.55
792.212	404.39
792.532	412.05
792.852	394.18
793.171	417.16
793.491	412.05
793.811	427.37
794.13	386.52
794.45	396.73
794.769	440.14
795.088	452.91
795.408	419.71
795.727	404.39
796.046	389.07
796.365	409.5
796.684	458.01
797.004	409.5
797.323	345.66
797.642	419.71
797.96	383.96
798.279	373.75
798.598	322.68
798.917	399.28
799.236	424.82
799.554	417.16
799.873	355.88
800.192	452.91
800.51	429.93
800.829	412.05
801.147	348.22
801.466	373.75
801.784	488.65
802.102	455.46
