Data from 2025-12-03_xpw_interference_micrometer_634_dark_FLMS141361__63__213.txt Node

Date: Wed Dec 03 15:50:05 MST 2025
User: james
Spectrometer: FLMS14136
Trigger mode: 0
Integration Time (sec): 1.000000E-1
Scans to average: 1
Electric dark correction enabled: true
Nonlinearity correction enabled: false
Boxcar width: 0
XAxis mode: Wavelengths
Number of Pixels in Spectrum: 2048
>>>>>Begin Spectral Data<<<<<
339.315	-64.95
339.697	-64.95
340.079	-64.95
340.461	-95.59
340.843	-151.77
341.225	-105.81
341.607	-82.83
341.989	-39.42
342.371	-105.81
342.752	-26.65
343.134	-70.06
343.516	-21.54
343.897	-52.18
344.279	52.5
344.661	67.82
345.042	-11.33
345.423	-6.22
345.805	65.27
346.186	111.23
346.567	149.53
346.949	75.48
347.33	195.49
347.711	205.71
348.092	203.15
348.473	221.03
348.854	200.6
349.235	228.69
349.616	228.69
349.997	295.07
350.378	302.73
350.758	302.73
351.139	358.91
351.52	312.95
351.9	335.93
352.281	328.27
352.661	435.51
353.042	346.14
353.422	353.8
353.803	407.42
354.183	351.25
354.563	323.16
354.943	371.68
355.324	404.87
355.704	371.68
356.084	358.91
356.464	389.55
356.844	348.7
357.224	430.4
357.603	399.76
357.983	361.46
358.363	366.57
358.743	432.96
359.122	361.46
359.502	412.53
359.882	394.66
360.261	376.78
360.641	384.44
361.02	292.52
361.399	323.16
361.779	328.27
362.158	346.14
362.537	389.55
362.916	302.73
363.296	369.12
363.675	330.82
364.054	371.68
364.433	407.42
364.812	369.12
365.19	407.42
365.569	364.02
365.948	343.59
366.327	274.65
366.705	300.18
367.084	295.07
367.463	374.23
367.841	369.12
368.22	361.46
368.598	338.48
368.977	402.32
369.355	384.44
369.733	387
370.111	399.76
370.49	315.5
370.868	379.34
371.246	369.12
371.624	381.89
372.002	315.5
372.38	320.61
372.758	310.4
373.136	264.43
373.513	358.91
373.891	335.93
374.269	297.63
374.646	353.8
375.024	432.96
375.402	417.64
375.779	376.78
376.157	346.14
376.534	328.27
376.911	348.7
377.289	397.21
377.666	361.46
378.043	361.46
378.42	478.92
378.797	387
379.175	412.53
379.552	384.44
379.929	338.48
380.305	320.61
380.682	407.42
381.059	415.08
381.436	425.3
381.813	407.42
382.189	369.12
382.566	402.32
382.943	369.12
383.319	348.7
383.696	351.25
384.072	295.07
384.448	358.91
384.825	361.46
385.201	361.46
385.577	394.66
385.953	387
386.329	397.21
386.706	404.87
387.082	369.12
387.458	374.23
387.834	335.93
388.209	351.25
388.585	425.3
388.961	376.78
389.337	358.91
389.713	310.4
390.088	343.59
390.464	348.7
390.839	402.32
391.215	453.38
391.59	455.94
391.966	425.3
392.341	402.32
392.716	404.87
393.092	384.44
393.467	389.55
393.842	287.41
394.217	379.34
394.592	369.12
394.967	333.38
395.342	361.46
395.717	335.93
396.092	397.21
396.467	325.72
396.841	343.59
397.216	404.87
397.591	366.57
397.965	402.32
398.34	387
398.714	323.16
399.089	374.23
399.463	422.74
399.838	389.55
400.212	351.25
400.586	364.02
400.961	415.08
401.335	364.02
401.709	366.57
402.083	369.12
402.457	358.91
402.831	333.38
403.205	358.91
403.579	346.14
403.953	381.89
404.326	448.28
404.7	358.91
405.074	335.93
405.447	468.7
405.821	394.66
406.195	402.32
406.568	335.93
406.942	366.57
407.315	361.46
407.688	399.76
408.062	420.19
408.435	310.4
408.808	351.25
409.181	328.27
409.554	371.68
409.927	264.43
410.3	389.55
410.673	399.76
411.046	315.5
411.419	445.72
411.792	392.1
412.165	341.04
412.537	341.04
412.91	381.89
413.283	369.12
413.655	425.3
414.028	369.12
414.4	338.48
414.773	374.23
415.145	356.36
415.517	364.02
415.889	392.1
416.262	371.68
416.634	374.23
417.006	366.57
417.378	435.51
417.75	333.38
418.122	399.76
418.494	394.66
418.866	376.78
419.238	404.87
419.609	399.76
419.981	407.42
420.353	450.83
420.725	422.74
421.096	353.8
421.468	407.42
421.839	412.53
422.211	387
422.582	364.02
422.953	364.02
423.325	371.68
423.696	338.48
424.067	361.46
424.438	358.91
424.809	353.8
425.18	399.76
425.551	422.74
425.922	394.66
426.293	412.53
426.664	374.23
427.035	468.7
427.406	379.34
427.776	389.55
428.147	435.51
428.518	430.4
428.888	397.21
429.259	438.06
429.629	443.17
429.999	455.94
430.37	427.85
430.74	448.28
431.11	351.25
431.481	430.4
431.851	358.91
432.221	381.89
432.591	417.64
432.961	348.7
433.331	387
433.701	376.78
434.071	445.72
434.441	387
434.81	381.89
435.18	417.64
435.55	427.85
435.919	420.19
436.289	376.78
436.658	374.23
437.028	402.32
437.397	427.85
437.767	387
438.136	376.78
438.505	384.44
438.875	420.19
439.244	422.74
439.613	412.53
439.982	432.96
440.351	404.87
440.72	381.89
441.089	425.3
441.458	338.48
441.827	435.51
442.196	379.34
442.564	425.3
442.933	471.26
443.302	417.64
443.67	374.23
444.039	376.78
444.407	404.87
444.776	427.85
445.144	407.42
445.513	404.87
445.881	417.64
446.249	409.98
446.617	438.06
446.986	351.25
447.354	389.55
447.722	351.25
448.09	427.85
448.458	453.38
448.826	466.15
449.194	412.53
449.561	420.19
449.929	422.74
450.297	461.04
450.665	461.04
451.032	348.7
451.4	371.68
451.767	404.87
452.135	402.32
452.502	417.64
452.87	397.21
453.237	323.16
453.604	353.8
453.971	435.51
454.339	453.38
454.706	489.13
455.073	420.19
455.44	476.36
455.807	440.62
456.174	399.76
456.541	407.42
456.908	330.82
457.274	328.27
457.641	417.64
458.008	392.1
458.374	417.64
458.741	404.87
459.108	458.49
459.474	438.06
459.841	440.62
460.207	407.42
460.573	440.62
460.94	407.42
461.306	453.38
461.672	427.85
462.038	427.85
462.404	412.53
462.771	448.28
463.137	369.12
463.503	330.82
463.868	310.4
464.234	404.87
464.6	376.78
464.966	376.78
465.332	404.87
465.697	353.8
466.063	425.3
466.429	371.68
466.794	397.21
467.16	348.7
467.525	312.95
467.89	358.91
468.256	292.52
468.621	310.4
468.986	402.32
469.351	409.98
469.717	402.32
470.082	415.08
470.447	445.72
470.812	445.72
471.177	443.17
471.542	415.08
471.906	389.55
472.271	430.4
472.636	420.19
473.001	328.27
473.365	353.8
473.73	376.78
474.094	407.42
474.459	381.89
474.823	427.85
475.188	338.48
475.552	412.53
475.917	412.53
476.281	358.91
476.645	361.46
477.009	417.64
477.373	420.19
477.737	384.44
478.101	402.32
478.465	389.55
478.829	422.74
479.193	422.74
479.557	384.44
479.921	471.26
480.284	438.06
480.648	318.06
481.012	394.66
481.375	399.76
481.739	361.46
482.102	381.89
482.466	351.25
482.829	435.51
483.193	381.89
483.556	312.95
483.919	430.4
484.282	364.02
484.645	425.3
485.009	399.76
485.372	384.44
485.735	361.46
486.098	379.34
486.46	415.08
486.823	381.89
487.186	353.8
487.549	430.4
487.912	427.85
488.274	440.62
488.637	440.62
488.999	481.47
489.362	392.1
489.724	448.28
490.087	412.53
490.449	427.85
490.811	412.53
491.174	292.52
491.536	371.68
491.898	358.91
492.26	432.96
492.622	445.72
492.984	425.3
493.346	404.87
493.708	371.68
494.07	384.44
494.432	384.44
494.794	425.3
495.155	461.04
495.517	420.19
495.879	440.62
496.24	379.34
496.602	384.44
496.963	432.96
497.325	427.85
497.686	443.17
498.048	427.85
498.409	389.55
498.77	409.98
499.131	392.1
499.492	399.76
499.854	407.42
500.215	392.1
500.576	422.74
500.937	420.19
501.298	412.53
501.658	453.38
502.019	374.23
502.38	384.44
502.741	351.25
503.101	399.76
503.462	430.4
503.823	379.34
504.183	425.3
504.543	369.12
504.904	376.78
505.264	422.74
505.625	412.53
505.985	481.47
506.345	402.32
506.705	356.36
507.065	369.12
507.426	415.08
507.786	371.68
508.146	302.73
508.505	407.42
508.865	392.1
509.225	486.58
509.585	517.22
509.945	450.83
510.304	443.17
510.664	394.66
511.024	409.98
511.383	440.62
511.743	417.64
512.102	379.34
512.462	507.01
512.821	432.96
513.18	412.53
513.539	427.85
513.899	443.17
514.258	476.36
514.617	409.98
514.976	404.87
515.335	422.74
515.694	389.55
516.053	369.12
516.412	427.85
516.771	404.87
517.129	404.87
517.488	427.85
517.847	356.36
518.205	381.89
518.564	364.02
518.922	374.23
519.281	427.85
519.639	315.5
519.998	415.08
520.356	420.19
520.714	399.76
521.073	387
521.431	387
521.789	333.38
522.147	473.81
522.505	412.53
522.863	392.1
523.221	381.89
523.579	425.3
523.937	328.27
524.295	440.62
524.652	450.83
525.01	409.98
525.368	425.3
525.725	407.42
526.083	392.1
526.44	438.06
526.798	427.85
527.155	430.4
527.513	397.21
527.87	394.66
528.227	320.61
528.584	392.1
528.942	438.06
529.299	320.61
529.656	399.76
530.013	491.68
530.37	522.33
530.727	443.17
531.083	466.15
531.44	432.96
531.797	346.14
532.154	335.93
532.511	358.91
532.867	425.3
533.224	461.04
533.58	432.96
533.937	427.85
534.293	448.28
534.65	415.08
535.006	417.64
535.362	394.66
535.718	407.42
536.075	366.57
536.431	440.62
536.787	397.21
537.143	394.66
537.499	458.49
537.855	422.74
538.211	376.78
538.567	346.14
538.923	358.91
539.278	427.85
539.634	379.34
539.99	458.49
540.345	376.78
540.701	417.64
541.056	443.17
541.412	417.64
541.767	407.42
542.123	381.89
542.478	432.96
542.833	374.23
543.188	407.42
543.544	417.64
543.899	466.15
544.254	399.76
544.609	394.66
544.964	387
545.319	432.96
545.674	420.19
546.029	356.36
546.383	425.3
546.738	397.21
547.093	435.51
547.447	392.1
547.802	330.82
548.157	384.44
548.511	432.96
548.866	420.19
549.22	343.59
549.574	445.72
549.929	404.87
550.283	440.62
550.637	417.64
550.991	450.83
551.345	409.98
551.699	415.08
552.053	453.38
552.407	387
552.761	366.57
553.115	448.28
553.469	481.47
553.823	384.44
554.176	443.17
554.53	371.68
554.884	376.78
555.237	627.01
555.591	440.62
555.944	445.72
556.298	415.08
556.651	417.64
557.005	312.95
557.358	392.1
557.711	389.55
558.064	399.76
558.417	438.06
558.771	440.62
559.124	404.87
559.477	356.36
559.83	387
560.182	402.32
560.535	458.49
560.888	389.55
561.241	463.6
561.594	366.57
561.946	399.76
562.299	407.42
562.651	376.78
563.004	415.08
563.356	356.36
563.709	366.57
564.061	341.04
564.413	361.46
564.766	425.3
565.118	443.17
565.47	412.53
565.822	379.34
566.174	430.4
566.526	425.3
566.878	399.76
567.23	476.36
567.582	422.74
567.934	432.96
568.286	394.66
568.638	361.46
568.989	333.38
569.341	343.59
569.693	374.23
570.044	409.98
570.396	353.8
570.747	389.55
571.098	374.23
571.45	384.44
571.801	330.82
572.152	389.55
572.504	407.42
572.855	394.66
573.206	445.72
573.557	379.34
573.908	407.42
574.259	361.46
574.61	415.08
574.961	389.55
575.311	443.17
575.662	458.49
576.013	394.66
576.364	343.59
576.714	381.89
577.065	415.08
577.415	402.32
577.766	318.06
578.116	404.87
578.467	369.12
578.817	481.47
579.167	394.66
579.518	397.21
579.868	399.76
580.218	458.49
580.568	463.6
580.918	430.4
581.268	361.46
581.618	397.21
581.968	392.1
582.318	358.91
582.668	371.68
583.017	364.02
583.367	458.49
583.717	471.26
584.066	422.74
584.416	420.19
584.765	404.87
585.115	392.1
585.464	376.78
585.814	415.08
586.163	438.06
586.512	466.15
586.862	404.87
587.211	371.68
587.56	435.51
587.909	356.36
588.258	461.04
588.607	364.02
588.956	420.19
589.305	430.4
589.654	417.64
590.002	356.36
590.351	389.55
590.7	402.32
591.048	473.81
591.397	417.64
591.746	453.38
592.094	463.6
592.443	420.19
592.791	364.02
593.139	432.96
593.488	404.87
593.836	358.91
594.184	376.78
594.532	333.38
594.88	440.62
595.228	425.3
595.576	356.36
595.924	427.85
596.272	384.44
596.62	453.38
596.968	404.87
597.316	376.78
597.664	412.53
598.011	394.66
598.359	379.34
598.706	440.62
599.054	432.96
599.402	384.44
599.749	384.44
600.096	422.74
600.444	330.82
600.791	425.3
601.138	409.98
601.485	430.4
601.833	389.55
602.18	384.44
602.527	425.3
602.874	438.06
603.221	407.42
603.568	320.61
603.914	455.94
604.261	420.19
604.608	417.64
604.955	376.78
605.301	323.16
605.648	394.66
605.995	381.89
606.341	407.42
606.688	371.68
607.034	399.76
607.38	461.04
607.727	404.87
608.073	392.1
608.419	455.94
608.765	397.21
609.112	468.7
609.458	409.98
609.804	409.98
610.15	420.19
610.496	402.32
610.842	376.78
611.187	402.32
611.533	376.78
611.879	412.53
612.225	358.91
612.57	335.93
612.916	420.19
613.261	376.78
613.607	389.55
613.952	387
614.298	432.96
614.643	448.28
614.989	484.02
615.334	392.1
615.679	427.85
616.024	450.83
616.369	468.7
616.714	389.55
617.059	358.91
617.404	392.1
617.749	361.46
618.094	427.85
618.439	443.17
618.784	346.14
619.129	430.4
619.473	369.12
619.818	448.28
620.163	404.87
620.507	387
620.852	412.53
621.196	412.53
621.54	392.1
621.885	369.12
622.229	381.89
622.573	369.12
622.918	384.44
623.262	374.23
623.606	438.06
623.95	440.62
624.294	422.74
624.638	415.08
624.982	450.83
625.326	478.92
625.67	341.04
626.013	384.44
626.357	358.91
626.701	443.17
627.044	325.72
627.388	445.72
627.731	318.06
628.075	392.1
628.418	379.34
628.762	361.46
629.105	430.4
629.448	438.06
629.792	374.23
630.135	407.42
630.478	420.19
630.821	432.96
631.164	402.32
631.507	430.4
631.85	402.32
632.193	448.28
632.536	394.66
632.879	409.98
633.221	402.32
633.564	379.34
633.907	443.17
634.249	394.66
634.592	397.21
634.935	348.7
635.277	397.21
635.619	369.12
635.962	379.34
636.304	407.42
636.646	376.78
636.989	351.25
637.331	412.53
637.673	392.1
638.015	422.74
638.357	412.53
638.699	420.19
639.041	364.02
639.383	455.94
639.725	379.34
640.067	369.12
640.408	417.64
640.75	358.91
641.092	420.19
641.433	376.78
641.775	432.96
642.116	412.53
642.458	407.42
642.799	478.92
643.141	473.81
643.482	364.02
643.823	425.3
644.164	341.04
644.506	438.06
644.847	420.19
645.188	389.55
645.529	364.02
645.87	435.51
646.211	448.28
646.552	341.04
646.893	381.89
647.233	394.66
647.574	358.91
647.915	427.85
648.255	425.3
648.596	466.15
648.937	374.23
649.277	417.64
649.618	438.06
649.958	374.23
650.298	399.76
650.639	353.8
650.979	366.57
651.319	376.78
651.659	404.87
651.999	427.85
652.339	389.55
652.679	305.29
653.019	407.42
653.359	348.7
653.699	412.53
654.039	402.32
654.379	341.04
654.719	376.78
655.058	387
655.398	420.19
655.737	507.01
656.077	420.19
656.416	499.34
656.756	397.21
657.095	335.93
657.435	466.15
657.774	402.32
658.113	448.28
658.452	335.93
658.792	361.46
659.131	374.23
659.47	364.02
659.809	422.74
660.148	407.42
660.487	394.66
660.826	374.23
661.164	358.91
661.503	409.98
661.842	448.28
662.181	379.34
662.519	369.12
662.858	417.64
663.196	356.36
663.535	330.82
663.873	371.68
664.212	387
664.55	412.53
664.888	376.78
665.226	389.55
665.565	353.8
665.903	591.27
666.241	445.72
666.579	335.93
666.917	427.85
667.255	435.51
667.593	387
667.931	374.23
668.268	381.89
668.606	341.04
668.944	440.62
669.282	448.28
669.619	384.44
669.957	353.8
670.294	384.44
670.632	381.89
670.969	356.36
671.307	389.55
671.644	415.08
671.981	364.02
672.318	369.12
672.656	351.25
672.993	381.89
673.33	394.66
673.667	379.34
674.004	366.57
674.341	404.87
674.678	384.44
675.015	455.94
675.351	387
675.688	361.46
676.025	420.19
676.362	348.7
676.698	379.34
677.035	351.25
677.371	420.19
677.708	438.06
678.044	351.25
678.38	397.21
678.717	358.91
679.053	412.53
679.389	468.7
679.725	374.23
680.062	371.68
680.398	351.25
680.734	369.12
681.07	387
681.406	379.34
681.742	364.02
682.077	287.41
682.413	366.57
682.749	376.78
683.085	412.53
683.42	358.91
683.756	432.96
684.091	407.42
684.427	397.21
684.762	384.44
685.098	351.25
685.433	374.23
685.768	432.96
686.104	341.04
686.439	343.59
686.774	374.23
687.109	358.91
687.444	353.8
687.779	389.55
688.114	399.76
688.449	328.27
688.784	356.36
689.119	369.12
689.454	381.89
689.789	351.25
690.123	509.56
690.458	376.78
690.792	443.17
691.127	379.34
691.461	430.4
691.796	453.38
692.13	402.32
692.465	409.98
692.799	335.93
693.133	371.68
693.467	425.3
693.802	455.94
694.136	371.68
694.47	427.85
694.804	364.02
695.138	409.98
695.472	374.23
695.806	358.91
696.139	351.25
696.473	466.15
696.807	397.21
697.141	379.34
697.474	422.74
697.808	369.12
698.141	364.02
698.475	341.04
698.808	392.1
699.142	404.87
699.475	397.21
699.808	384.44
700.142	440.62
700.475	394.66
700.808	338.48
701.141	387
701.474	343.59
701.807	366.57
702.14	364.02
702.473	376.78
702.806	366.57
703.139	399.76
703.472	438.06
703.804	364.02
704.137	361.46
704.47	387
704.802	341.04
705.135	320.61
705.467	307.84
705.8	353.8
706.132	427.85
706.464	425.3
706.797	420.19
707.129	412.53
707.461	379.34
707.793	376.78
708.125	420.19
708.457	402.32
708.789	394.66
709.121	341.04
709.453	325.72
709.785	366.57
710.117	415.08
710.449	358.91
710.781	374.23
711.112	417.64
711.444	427.85
711.775	374.23
712.107	361.46
712.438	415.08
712.77	351.25
713.101	371.68
713.433	440.62
713.764	399.76
714.095	420.19
714.426	409.98
714.757	430.4
715.089	402.32
715.42	397.21
715.751	407.42
716.082	366.57
716.412	397.21
716.743	328.27
717.074	387
717.405	463.6
717.736	330.82
718.066	387
718.397	376.78
718.727	402.32
719.058	364.02
719.388	348.7
719.719	397.21
720.049	392.1
720.38	425.3
720.71	409.98
721.04	366.57
721.37	376.78
721.7	394.66
722.031	333.38
722.361	376.78
722.691	412.53
723.021	432.96
723.35	420.19
723.68	353.8
724.01	443.17
724.34	415.08
724.67	369.12
724.999	325.72
725.329	374.23
725.658	420.19
725.988	374.23
726.317	376.78
726.647	381.89
726.976	420.19
727.306	402.32
727.635	450.83
727.964	473.81
728.293	409.98
728.622	335.93
728.952	399.76
729.281	448.28
729.61	374.23
729.939	432.96
730.267	432.96
730.596	412.53
730.925	402.32
731.254	445.72
731.583	420.19
731.911	358.91
732.24	430.4
732.568	445.72
732.897	476.36
733.225	468.7
733.554	397.21
733.882	356.36
734.21	369.12
734.539	379.34
734.867	468.7
735.195	407.42
735.523	417.64
735.851	412.53
736.179	407.42
736.507	392.1
736.835	346.14
737.163	366.57
737.491	358.91
737.819	330.82
738.147	425.3
738.474	432.96
738.802	407.42
739.13	376.78
739.457	379.34
739.785	409.98
740.112	338.48
740.44	371.68
740.767	315.5
741.094	407.42
741.422	412.53
741.749	412.53
742.076	486.58
742.403	381.89
742.73	402.32
743.057	399.76
743.384	435.51
743.711	440.62
744.038	348.7
744.365	425.3
744.692	407.42
745.018	389.55
745.345	366.57
745.672	376.78
745.998	461.04
746.325	407.42
746.651	366.57
746.978	392.1
747.304	392.1
747.631	407.42
747.957	392.1
748.283	412.53
748.61	353.8
748.936	369.12
749.262	356.36
749.588	394.66
749.914	435.51
750.24	409.98
750.566	392.1
750.892	366.57
751.218	353.8
751.543	333.38
751.869	432.96
752.195	384.44
752.521	407.42
752.846	384.44
753.172	425.3
753.497	384.44
753.823	384.44
754.148	325.72
754.473	369.12
754.799	374.23
755.124	364.02
755.449	374.23
755.774	407.42
756.1	407.42
756.425	491.68
756.75	415.08
757.075	379.34
757.4	555.52
757.724	412.53
758.049	376.78
758.374	399.76
758.699	371.68
759.024	318.06
759.348	374.23
759.673	387
759.997	402.32
760.322	445.72
760.646	468.7
760.971	415.08
761.295	407.42
761.619	420.19
761.944	445.72
762.268	366.57
762.592	358.91
762.916	397.21
763.24	356.36
763.564	318.06
763.888	468.7
764.212	371.68
764.536	448.28
764.86	371.68
765.184	289.97
765.508	407.42
765.831	343.59
766.155	647.44
766.478	399.76
766.802	461.04
767.126	397.21
767.449	323.16
767.772	384.44
768.096	330.82
768.419	417.64
768.742	381.89
769.066	364.02
769.389	374.23
769.712	394.66
770.035	366.57
770.358	374.23
770.681	364.02
771.004	364.02
771.327	379.34
771.65	371.68
771.972	369.12
772.295	374.23
772.618	374.23
772.941	402.32
773.263	312.95
773.586	341.04
773.908	430.4
774.231	358.91
774.553	348.7
774.875	409.98
775.198	450.83
775.52	427.85
775.842	392.1
776.164	351.25
776.487	468.7
776.809	371.68
777.131	356.36
777.453	302.73
777.775	353.8
778.096	366.57
778.418	430.4
778.74	412.53
779.062	450.83
779.384	389.55
779.705	422.74
780.027	417.64
780.348	466.15
780.67	351.25
780.991	356.36
781.313	379.34
781.634	376.78
781.955	415.08
782.277	374.23
782.598	422.74
782.919	376.78
783.24	356.36
783.561	384.44
783.882	364.02
784.203	389.55
784.524	346.14
784.845	392.1
785.166	353.8
785.487	399.76
785.807	351.25
786.128	381.89
786.449	435.51
786.769	415.08
787.09	392.1
787.41	389.55
787.731	435.51
788.051	435.51
788.372	338.48
788.692	389.55
789.012	387
789.332	338.48
789.653	389.55
789.973	346.14
790.293	458.49
790.613	412.53
790.933	366.57
791.253	381.89
791.573	427.85
791.893	361.46
792.212	389.55
792.532	381.89
792.852	374.23
793.171	412.53
793.491	307.84
793.811	412.53
794.13	374.23
794.45	420.19
794.769	394.66
795.088	381.89
795.408	415.08
795.727	409.98
796.046	397.21
796.365	404.87
796.684	384.44
797.004	394.66
797.323	330.82
797.642	356.36
797.96	404.87
798.279	358.91
798.598	379.34
798.917	420.19
799.236	376.78
799.554	379.34
799.873	412.53
800.192	427.85
800.51	417.64
800.829	412.53
801.147	392.1
801.466	343.59
801.784	392.1
802.102	412.53
802.421	409.98
802.739	450.83
803.057	450.83
803.375	384.44
803.693	430.4
