Data from 2025-12-03_xpw_interference_micrometer_634_dark_FLMS141361__42__192.txt Node

Date: Wed Dec 03 15:50:03 MST 2025
User: james
Spectrometer: FLMS14136
Trigger mode: 0
Integration Time (sec): 1.000000E-1
Scans to average: 1
Electric dark correction enabled: true
Nonlinearity correction enabled: false
Boxcar width: 0
XAxis mode: Wavelengths
Number of Pixels in Spectrum: 2048
>>>>>Begin Spectral Data<<<<<
339.315	-25.21
339.697	-25.21
340.079	-25.21
340.461	-157.99
340.843	-132.46
341.225	-112.03
341.607	-94.16
341.989	-76.28
342.371	-76.28
342.752	-63.52
343.134	-43.09
343.516	-15
343.897	25.85
344.279	-45.64
344.661	15.64
345.042	10.53
345.423	46.28
345.805	66.71
346.186	82.03
346.567	112.67
346.949	166.29
347.33	163.74
347.711	204.59
348.092	212.25
348.473	278.64
348.854	227.57
349.235	278.64
349.616	293.96
349.997	296.51
350.378	365.45
350.758	273.53
351.139	360.35
351.52	327.15
351.9	350.13
352.281	398.65
352.661	388.43
353.042	401.2
353.422	375.67
353.803	421.63
354.183	401.2
354.563	370.56
354.943	436.95
355.324	403.75
355.704	390.99
356.084	442.05
356.464	365.45
356.844	459.93
357.224	408.86
357.603	385.88
357.983	385.88
358.363	408.86
358.743	375.67
359.122	390.99
359.502	408.86
359.882	332.26
360.261	355.24
360.641	429.29
361.02	380.77
361.399	411.41
361.779	424.18
362.158	408.86
362.537	370.56
362.916	416.52
363.296	355.24
363.675	332.26
364.054	350.13
364.433	406.31
364.812	378.22
365.19	429.29
365.569	388.43
365.948	380.77
366.327	393.54
366.705	329.7
367.084	431.84
367.463	416.52
367.841	350.13
368.22	337.37
368.598	365.45
368.977	360.35
369.355	311.83
369.733	365.45
370.111	385.88
370.49	429.29
370.868	309.28
371.246	306.72
371.624	403.75
372.002	362.9
372.38	345.03
372.758	329.7
373.136	345.03
373.513	378.22
373.891	444.61
374.269	347.58
374.646	416.52
375.024	357.79
375.402	360.35
375.779	378.22
376.157	339.92
376.534	337.37
376.911	360.35
377.289	309.28
377.666	406.31
378.043	319.49
378.42	385.88
378.797	365.45
379.175	365.45
379.552	362.9
379.929	406.31
380.305	393.54
380.682	383.33
381.059	332.26
381.436	368.01
381.813	301.62
382.189	393.54
382.566	373.11
382.943	383.33
383.319	324.6
383.696	347.58
384.072	352.69
384.448	388.43
384.825	378.22
385.201	316.94
385.577	370.56
385.953	403.75
386.329	319.49
386.706	385.88
387.082	442.05
387.458	406.31
387.834	408.86
388.209	411.41
388.585	408.86
388.961	380.77
389.337	368.01
389.713	385.88
390.088	401.2
390.464	401.2
390.839	406.31
391.215	370.56
391.59	368.01
391.966	406.31
392.341	411.41
392.716	393.54
393.092	329.7
393.467	324.6
393.842	419.07
394.217	396.09
394.592	347.58
394.967	426.73
395.342	413.97
395.717	345.03
396.092	403.75
396.467	370.56
396.841	342.47
397.216	378.22
397.591	398.65
397.965	362.9
398.34	401.2
398.714	357.79
399.089	360.35
399.463	370.56
399.838	388.43
400.212	401.2
400.586	370.56
400.961	365.45
401.335	396.09
401.709	436.95
402.083	375.67
402.457	385.88
402.831	424.18
403.205	424.18
403.579	398.65
403.953	444.61
404.326	357.79
404.7	383.33
405.074	388.43
405.447	406.31
405.821	347.58
406.195	299.06
406.568	368.01
406.942	452.27
407.315	393.54
407.688	421.63
408.062	401.2
408.435	431.84
408.808	431.84
409.181	424.18
409.554	385.88
409.927	436.95
410.3	442.05
410.673	401.2
411.046	449.71
411.419	470.14
411.792	362.9
412.165	339.92
412.537	365.45
412.91	385.88
413.283	385.88
413.655	434.39
414.028	375.67
414.4	439.5
414.773	362.9
415.145	388.43
415.517	444.61
415.889	357.79
416.262	360.35
416.634	362.9
417.006	380.77
417.378	362.9
417.75	355.24
418.122	385.88
418.494	383.33
418.866	396.09
419.238	393.54
419.609	398.65
419.981	444.61
420.353	378.22
420.725	393.54
421.096	378.22
421.468	375.67
421.839	480.35
422.211	339.92
422.582	413.97
422.953	452.27
423.325	373.11
423.696	385.88
424.067	375.67
424.438	388.43
424.809	319.49
425.18	337.37
425.551	413.97
425.922	459.93
426.293	488.01
426.664	401.2
427.035	411.41
427.406	337.37
427.776	396.09
428.147	347.58
428.518	457.37
428.888	426.73
429.259	385.88
429.629	434.39
429.999	416.52
430.37	449.71
430.74	419.07
431.11	408.86
431.481	362.9
431.851	408.86
432.221	436.95
432.591	436.95
432.961	447.16
433.331	342.47
433.701	416.52
434.071	378.22
434.441	403.75
434.81	393.54
435.18	337.37
435.55	465.03
435.919	385.88
436.289	439.5
436.658	393.54
437.028	462.48
437.397	383.33
437.767	439.5
438.136	431.84
438.505	403.75
438.875	365.45
439.244	373.11
439.613	385.88
439.982	401.2
440.351	413.97
440.72	429.29
441.089	403.75
441.458	408.86
441.827	431.84
442.196	413.97
442.564	523.76
442.933	398.65
443.302	431.84
443.67	411.41
444.039	337.37
444.407	390.99
444.776	452.27
445.144	334.81
445.513	406.31
445.881	447.16
446.249	513.55
446.617	411.41
446.986	434.39
447.354	485.46
447.722	439.5
448.09	447.16
448.458	411.41
448.826	413.97
449.194	444.61
449.561	436.95
449.929	408.86
450.297	482.91
450.665	398.65
451.032	449.71
451.4	373.11
451.767	390.99
452.135	390.99
452.502	472.69
452.87	472.69
453.237	383.33
453.604	385.88
453.971	447.16
454.339	447.16
454.706	416.52
455.073	449.71
455.44	383.33
455.807	398.65
456.174	388.43
456.541	434.39
456.908	385.88
457.274	388.43
457.641	426.73
458.008	345.03
458.374	383.33
458.741	434.39
459.108	421.63
459.474	475.25
459.841	439.5
460.207	429.29
460.573	424.18
460.94	472.69
461.306	424.18
461.672	426.73
462.038	447.16
462.404	398.65
462.771	401.2
463.137	424.18
463.503	408.86
463.868	465.03
464.234	431.84
464.6	472.69
464.966	413.97
465.332	380.77
465.697	429.29
466.063	339.92
466.429	396.09
466.794	378.22
467.16	416.52
467.525	421.63
467.89	365.45
468.256	398.65
468.621	401.2
468.986	388.43
469.351	365.45
469.717	337.37
470.082	416.52
470.447	385.88
470.812	385.88
471.177	429.29
471.542	421.63
471.906	454.82
472.271	434.39
472.636	459.93
473.001	452.27
473.365	431.84
473.73	419.07
474.094	434.39
474.459	396.09
474.823	401.2
475.188	416.52
475.552	365.45
475.917	444.61
476.281	444.61
476.645	401.2
477.009	393.54
477.373	403.75
477.737	459.93
478.101	434.39
478.465	411.41
478.829	393.54
479.193	393.54
479.557	406.31
479.921	459.93
480.284	447.16
480.648	449.71
481.012	403.75
481.375	403.75
481.739	452.27
482.102	373.11
482.466	416.52
482.829	459.93
483.193	429.29
483.556	442.05
483.919	362.9
484.282	419.07
484.645	385.88
485.009	452.27
485.372	482.91
485.735	347.58
486.098	421.63
486.46	454.82
486.823	477.8
487.186	472.69
487.549	447.16
487.912	467.59
488.274	357.79
488.637	475.25
488.999	426.73
489.362	419.07
489.724	388.43
490.087	421.63
490.449	459.93
490.811	419.07
491.174	406.31
491.536	375.67
491.898	375.67
492.26	411.41
492.622	385.88
492.984	403.75
493.346	347.58
493.708	403.75
494.07	360.35
494.432	403.75
494.794	413.97
495.155	390.99
495.517	337.37
495.879	431.84
496.24	419.07
496.602	347.58
496.963	411.41
497.325	442.05
497.686	477.8
498.048	436.95
498.409	401.2
498.77	380.77
499.131	436.95
499.492	465.03
499.854	413.97
500.215	467.59
500.576	421.63
500.937	398.65
501.298	378.22
501.658	449.71
502.019	505.89
502.38	426.73
502.741	421.63
503.101	401.2
503.462	345.03
503.823	383.33
504.183	429.29
504.543	431.84
504.904	401.2
505.264	408.86
505.625	403.75
505.985	447.16
506.345	401.2
506.705	385.88
507.065	411.41
507.426	373.11
507.786	475.25
508.146	482.91
508.505	383.33
508.865	436.95
509.225	413.97
509.585	531.42
509.945	457.37
510.304	434.39
510.664	439.5
511.024	434.39
511.383	350.13
511.743	393.54
512.102	378.22
512.462	365.45
512.821	373.11
513.18	411.41
513.539	485.46
513.899	426.73
514.258	439.5
514.617	419.07
514.976	385.88
515.335	373.11
515.694	439.5
516.053	431.84
516.412	462.48
516.771	480.35
517.129	424.18
517.488	406.31
517.847	329.7
518.205	431.84
518.564	421.63
518.922	378.22
519.281	434.39
519.639	426.73
519.998	396.09
520.356	406.31
520.714	421.63
521.073	388.43
521.431	408.86
521.789	398.65
522.147	378.22
522.505	426.73
522.863	401.2
523.221	488.01
523.579	411.41
523.937	365.45
524.295	413.97
524.652	380.77
525.01	434.39
525.368	436.95
525.725	459.93
526.083	495.67
526.44	447.16
526.798	459.93
527.155	444.61
527.513	436.95
527.87	444.61
528.227	408.86
528.584	457.37
528.942	373.11
529.299	424.18
529.656	419.07
530.013	482.91
530.37	424.18
530.727	419.07
531.083	393.54
531.44	447.16
531.797	436.95
532.154	449.71
532.511	482.91
532.867	439.5
533.224	419.07
533.58	429.29
533.937	431.84
534.293	431.84
534.65	390.99
535.006	442.05
535.362	431.84
535.718	396.09
536.075	436.95
536.431	370.56
536.787	370.56
537.143	436.95
537.499	444.61
537.855	362.9
538.211	421.63
538.567	421.63
538.923	352.69
539.278	459.93
539.634	495.67
539.99	416.52
540.345	365.45
540.701	413.97
541.056	493.12
541.412	480.35
541.767	439.5
542.123	429.29
542.478	449.71
542.833	401.2
543.188	411.41
543.544	406.31
543.899	426.73
544.254	452.27
544.609	416.52
544.964	390.99
545.319	413.97
545.674	362.9
546.029	416.52
546.383	413.97
546.738	380.77
547.093	419.07
547.447	485.46
547.802	398.65
548.157	424.18
548.511	452.27
548.866	365.45
549.22	393.54
549.574	436.95
549.929	449.71
550.283	442.05
550.637	368.01
550.991	378.22
551.345	434.39
551.699	406.31
552.053	370.56
552.407	431.84
552.761	365.45
553.115	383.33
553.469	490.57
553.823	457.37
554.176	513.55
554.53	413.97
554.884	475.25
555.237	615.68
555.591	439.5
555.944	396.09
556.298	444.61
556.651	403.75
557.005	421.63
557.358	447.16
557.711	434.39
558.064	465.03
558.417	413.97
558.771	523.76
559.124	465.03
559.477	444.61
559.83	388.43
560.182	403.75
560.535	452.27
560.888	383.33
561.241	429.29
561.594	421.63
561.946	444.61
562.299	365.45
562.651	408.86
563.004	431.84
563.356	416.52
563.709	449.71
564.061	475.25
564.413	396.09
564.766	406.31
565.118	368.01
565.47	411.41
565.822	424.18
566.174	419.07
566.526	465.03
566.878	482.91
567.23	431.84
567.582	408.86
567.934	360.35
568.286	434.39
568.638	334.81
568.989	436.95
569.341	442.05
569.693	452.27
570.044	413.97
570.396	368.01
570.747	444.61
571.098	421.63
571.45	370.56
571.801	413.97
572.152	370.56
572.504	332.26
572.855	385.88
573.206	416.52
573.557	429.29
573.908	431.84
574.259	413.97
574.61	413.97
574.961	398.65
575.311	477.8
575.662	462.48
576.013	424.18
576.364	444.61
576.714	436.95
577.065	434.39
577.415	447.16
577.766	419.07
578.116	429.29
578.467	434.39
578.817	434.39
579.167	357.79
579.518	411.41
579.868	360.35
580.218	424.18
580.568	419.07
580.918	426.73
581.268	406.31
581.618	436.95
581.968	419.07
582.318	396.09
582.668	388.43
583.017	378.22
583.367	383.33
583.717	426.73
584.066	388.43
584.416	416.52
584.765	370.56
585.115	378.22
585.464	434.39
585.814	467.59
586.163	419.07
586.512	375.67
586.862	411.41
587.211	424.18
587.56	454.82
587.909	385.88
588.258	429.29
588.607	467.59
588.956	408.86
589.305	434.39
589.654	352.69
590.002	472.69
590.351	403.75
590.7	462.48
591.048	378.22
591.397	424.18
591.746	390.99
592.094	408.86
592.443	426.73
592.791	421.63
593.139	470.14
593.488	365.45
593.836	380.77
594.184	429.29
594.532	447.16
594.88	416.52
595.228	378.22
595.576	345.03
595.924	436.95
596.272	398.65
596.62	393.54
596.968	375.67
597.316	449.71
597.664	480.35
598.011	390.99
598.359	393.54
598.706	378.22
599.054	421.63
599.402	380.77
599.749	390.99
600.096	449.71
600.444	411.41
600.791	401.2
601.138	401.2
601.485	431.84
601.833	360.35
602.18	329.7
602.527	457.37
602.874	442.05
603.221	431.84
603.568	411.41
603.914	401.2
604.261	378.22
604.608	401.2
604.955	360.35
605.301	416.52
605.648	426.73
605.995	436.95
606.341	350.13
606.688	390.99
607.034	403.75
607.38	388.43
607.727	459.93
608.073	401.2
608.419	472.69
608.765	408.86
609.112	431.84
609.458	421.63
609.804	431.84
610.15	375.67
610.496	421.63
610.842	401.2
611.187	467.59
611.533	442.05
611.879	419.07
612.225	462.48
612.57	442.05
612.916	403.75
613.261	375.67
613.607	426.73
613.952	457.37
614.298	426.73
614.643	347.58
614.989	419.07
615.334	368.01
615.679	393.54
616.024	398.65
616.369	431.84
616.714	482.91
617.059	401.2
617.404	459.93
617.749	396.09
618.094	390.99
618.439	431.84
618.784	370.56
619.129	462.48
619.473	388.43
619.818	355.24
620.163	482.91
620.507	467.59
620.852	324.6
621.196	416.52
621.54	378.22
621.885	380.77
622.229	485.46
622.573	393.54
622.918	362.9
623.262	416.52
623.606	380.77
623.95	378.22
624.294	403.75
624.638	398.65
624.982	368.01
625.326	396.09
625.67	431.84
626.013	408.86
626.357	355.24
626.701	350.13
627.044	419.07
627.388	436.95
627.731	401.2
628.075	413.97
628.418	390.99
628.762	375.67
629.105	403.75
629.448	416.52
629.792	398.65
630.135	385.88
630.478	393.54
630.821	419.07
631.164	373.11
631.507	355.24
631.85	388.43
632.193	408.86
632.536	339.92
632.879	398.65
633.221	439.5
633.564	431.84
633.907	360.35
634.249	431.84
634.592	462.48
634.935	493.12
635.277	442.05
635.619	406.31
635.962	436.95
636.304	385.88
636.646	401.2
636.989	304.17
637.331	403.75
637.673	357.79
638.015	408.86
638.357	462.48
638.699	419.07
639.041	429.29
639.383	401.2
639.725	406.31
640.067	447.16
640.408	401.2
640.75	421.63
641.092	411.41
641.433	388.43
641.775	439.5
642.116	411.41
642.458	503.33
642.799	401.2
643.141	416.52
643.482	447.16
643.823	406.31
644.164	436.95
644.506	523.76
644.847	398.65
645.188	378.22
645.529	454.82
645.87	413.97
646.211	431.84
646.552	390.99
646.893	452.27
647.233	383.33
647.574	383.33
647.915	401.2
648.255	416.52
648.596	416.52
648.937	439.5
649.277	449.71
649.618	421.63
649.958	449.71
650.298	470.14
650.639	406.31
650.979	406.31
651.319	416.52
651.659	462.48
651.999	436.95
652.339	362.9
652.679	352.69
653.019	403.75
653.359	385.88
653.699	419.07
654.039	393.54
654.379	373.11
654.719	373.11
655.058	393.54
655.398	350.13
655.737	459.93
656.077	408.86
656.416	388.43
656.756	413.97
657.095	467.59
657.435	421.63
657.774	431.84
658.113	375.67
658.452	383.33
658.792	373.11
659.131	426.73
659.47	431.84
659.809	419.07
660.148	434.39
660.487	398.65
660.826	419.07
661.164	477.8
661.503	442.05
661.842	429.29
662.181	457.37
662.519	390.99
662.858	434.39
663.196	406.31
663.535	375.67
663.873	449.71
664.212	457.37
664.55	434.39
664.888	419.07
665.226	413.97
665.565	401.2
665.903	577.38
666.241	475.25
666.579	401.2
666.917	383.33
667.255	436.95
667.593	419.07
667.931	408.86
668.268	390.99
668.606	459.93
668.944	429.29
669.282	442.05
669.619	442.05
669.957	462.48
670.294	416.52
670.632	360.35
670.969	416.52
671.307	426.73
671.644	421.63
671.981	398.65
672.318	411.41
672.656	378.22
672.993	403.75
673.33	426.73
673.667	411.41
674.004	350.13
674.341	380.77
674.678	398.65
675.015	398.65
675.351	406.31
675.688	396.09
676.025	452.27
676.362	421.63
676.698	380.77
677.035	388.43
677.371	439.5
677.708	375.67
678.044	360.35
678.38	396.09
678.717	390.99
679.053	360.35
679.389	332.26
679.725	426.73
680.062	439.5
680.398	426.73
680.734	457.37
681.07	419.07
681.406	393.54
681.742	416.52
682.077	398.65
682.413	337.37
682.749	416.52
683.085	352.69
683.42	388.43
683.756	416.52
684.091	467.59
684.427	429.29
684.762	419.07
685.098	396.09
685.433	398.65
685.768	454.82
686.104	375.67
686.439	411.41
686.774	388.43
687.109	416.52
687.444	398.65
687.779	368.01
688.114	411.41
688.449	431.84
688.784	419.07
689.119	350.13
689.454	442.05
689.789	436.95
690.123	442.05
690.458	406.31
690.792	452.27
691.127	401.2
691.461	378.22
691.796	360.35
692.13	424.18
692.465	380.77
692.799	390.99
693.133	396.09
693.467	452.27
693.802	459.93
694.136	426.73
694.47	390.99
694.804	419.07
695.138	462.48
695.472	375.67
695.806	357.79
696.139	370.56
696.473	380.77
696.807	390.99
697.141	383.33
697.474	350.13
697.808	385.88
698.141	406.31
698.475	380.77
698.808	362.9
699.142	370.56
699.475	362.9
699.808	357.79
700.142	329.7
700.475	337.37
700.808	421.63
701.141	388.43
701.474	380.77
701.807	360.35
702.14	452.27
702.473	426.73
702.806	375.67
703.139	452.27
703.472	452.27
703.804	447.16
704.137	337.37
704.47	322.04
704.802	411.41
705.135	426.73
705.467	327.15
705.8	370.56
706.132	429.29
706.464	416.52
706.797	403.75
707.129	345.03
707.461	401.2
707.793	416.52
708.125	378.22
708.457	408.86
708.789	490.57
709.121	462.48
709.453	388.43
709.785	447.16
710.117	355.24
710.449	421.63
710.781	396.09
711.112	380.77
711.444	368.01
711.775	424.18
712.107	488.01
712.438	413.97
712.77	467.59
713.101	390.99
713.433	424.18
713.764	393.54
714.095	413.97
714.426	424.18
714.757	416.52
715.089	357.79
715.42	393.54
715.751	419.07
716.082	424.18
716.412	419.07
716.743	411.41
717.074	403.75
717.405	416.52
717.736	429.29
718.066	442.05
718.397	385.88
718.727	388.43
719.058	429.29
719.388	426.73
719.719	406.31
720.049	398.65
720.38	375.67
720.71	380.77
721.04	449.71
721.37	383.33
721.7	390.99
722.031	378.22
722.361	416.52
722.691	401.2
723.021	434.39
723.35	436.95
723.68	375.67
724.01	378.22
724.34	401.2
724.67	424.18
724.999	429.29
725.329	434.39
725.658	411.41
725.988	360.35
726.317	429.29
726.647	360.35
726.976	403.75
727.306	421.63
727.635	431.84
727.964	396.09
728.293	452.27
728.622	388.43
728.952	431.84
729.281	401.2
729.61	398.65
729.939	390.99
730.267	355.24
730.596	390.99
730.925	324.6
731.254	396.09
731.583	345.03
731.911	408.86
732.24	401.2
732.568	403.75
732.897	383.33
733.225	408.86
733.554	447.16
733.882	411.41
734.21	373.11
734.539	398.65
734.867	431.84
735.195	347.58
735.523	431.84
735.851	459.93
736.179	396.09
736.507	411.41
736.835	401.2
737.163	380.77
737.491	375.67
737.819	347.58
738.147	406.31
738.474	421.63
738.802	416.52
739.13	454.82
739.457	406.31
739.785	316.94
740.112	375.67
740.44	388.43
740.767	378.22
741.094	393.54
741.422	375.67
741.749	424.18
742.076	370.56
742.403	416.52
742.73	398.65
743.057	398.65
743.384	444.61
743.711	452.27
744.038	388.43
744.365	436.95
744.692	385.88
745.018	408.86
745.345	436.95
745.672	426.73
745.998	383.33
746.325	316.94
746.651	416.52
746.978	393.54
747.304	398.65
747.631	393.54
747.957	411.41
748.283	429.29
748.61	373.11
748.936	385.88
749.262	495.67
749.588	421.63
749.914	396.09
750.24	429.29
750.566	368.01
750.892	368.01
751.218	431.84
751.543	347.58
751.869	406.31
752.195	431.84
752.521	370.56
752.846	360.35
753.172	375.67
753.497	393.54
753.823	329.7
754.148	390.99
754.473	452.27
754.799	388.43
755.124	373.11
755.449	370.56
755.774	380.77
756.1	375.67
756.425	447.16
756.75	383.33
757.075	401.2
757.4	508.44
757.724	398.65
758.049	424.18
758.374	388.43
758.699	390.99
759.024	434.39
759.348	421.63
759.673	388.43
759.997	426.73
760.322	396.09
760.646	362.9
760.971	380.77
761.295	447.16
761.619	413.97
761.944	419.07
762.268	362.9
762.592	339.92
762.916	470.14
763.24	398.65
763.564	488.01
763.888	352.69
764.212	416.52
764.536	401.2
764.86	457.37
765.184	434.39
765.508	413.97
765.831	408.86
766.155	676.96
766.478	480.35
766.802	368.01
767.126	470.14
767.449	416.52
767.772	436.95
768.096	385.88
768.419	380.77
768.742	370.56
769.066	470.14
769.389	327.15
769.712	434.39
770.035	411.41
770.358	334.81
770.681	334.81
771.004	345.03
771.327	403.75
771.65	406.31
771.972	398.65
772.295	408.86
772.618	413.97
772.941	403.75
773.263	413.97
773.586	385.88
773.908	370.56
774.231	419.07
774.553	393.54
774.875	403.75
775.198	505.89
775.52	436.95
775.842	375.67
776.164	383.33
776.487	378.22
776.809	393.54
777.131	398.65
777.453	383.33
777.775	439.5
778.096	416.52
778.418	368.01
778.74	472.69
779.062	403.75
779.384	365.45
779.705	408.86
780.027	396.09
780.348	426.73
780.67	398.65
780.991	424.18
781.313	416.52
781.634	357.79
781.955	373.11
782.277	426.73
782.598	368.01
782.919	429.29
783.24	431.84
783.561	413.97
783.882	449.71
784.203	406.31
784.524	426.73
784.845	385.88
785.166	413.97
785.487	375.67
785.807	419.07
786.128	368.01
786.449	362.9
786.769	368.01
787.09	316.94
787.41	411.41
787.731	350.13
788.051	429.29
788.372	390.99
788.692	401.2
789.012	431.84
789.332	411.41
789.653	360.35
789.973	345.03
790.293	385.88
790.613	406.31
790.933	442.05
791.253	396.09
791.573	419.07
791.893	434.39
792.212	388.43
792.532	350.13
792.852	413.97
793.171	355.24
793.491	368.01
793.811	370.56
794.13	401.2
794.45	413.97
794.769	398.65
795.088	431.84
795.408	493.12
795.727	390.99
796.046	439.5
796.365	370.56
796.684	390.99
797.004	447.16
797.323	324.6
797.642	416.52
797.96	345.03
798.279	421.63
798.598	383.33
798.917	383.33
799.236	444.61
799.554	408.86
799.873	411.41
800.192	434.39
800.51	388.43
800.829	383.33
801.147	436.95
801.466	416.52
