Data from 2025-12-03_xpw_interference_micrometer_634_dark_FLMS141361__67__217.txt Node

Date: Wed Dec 03 15:50:06 MST 2025
User: james
Spectrometer: FLMS14136
Trigger mode: 0
Integration Time (sec): 1.000000E-1
Scans to average: 1
Electric dark correction enabled: true
Nonlinearity correction enabled: false
Boxcar width: 0
XAxis mode: Wavelengths
Number of Pixels in Spectrum: 2048
>>>>>Begin Spectral Data<<<<<
339.315	-18.03
339.697	-18.03
340.079	-18.03
340.461	-56.33
340.843	-102.29
341.225	-28.25
341.607	-51.23
341.989	-143.15
342.371	-71.65
342.752	-38.46
343.134	-109.95
343.516	-7.82
343.897	-33.35
344.279	-18.03
344.661	48.35
345.042	-18.03
345.423	48.35
345.805	50.91
346.186	84.1
346.567	117.3
346.949	170.92
347.33	163.26
347.711	186.24
348.092	196.45
348.473	265.39
348.854	250.07
349.235	334.33
349.616	313.91
349.997	232.2
350.378	288.37
350.758	316.46
351.139	347.1
351.52	367.53
351.9	326.67
352.281	354.76
352.661	308.8
353.042	334.33
353.422	375.19
353.803	405.83
354.183	331.78
354.563	359.87
354.943	398.17
355.324	382.85
355.704	377.74
356.084	382.85
356.464	395.61
356.844	431.36
357.224	382.85
357.603	354.76
357.983	403.27
358.363	408.38
358.743	375.19
359.122	341.99
359.502	341.99
359.882	377.74
360.261	431.36
360.641	433.91
361.02	408.38
361.399	362.42
361.779	278.16
362.158	364.97
362.537	306.25
362.916	293.48
363.296	393.06
363.675	390.51
364.054	336.89
364.433	344.55
364.812	326.67
365.19	285.82
365.569	431.36
365.948	349.65
366.327	362.42
366.705	334.33
367.084	339.44
367.463	308.8
367.841	364.97
368.22	362.42
368.598	311.35
368.977	278.16
369.355	349.65
369.733	362.42
370.111	311.35
370.49	321.57
370.868	354.76
371.246	344.55
371.624	275.61
372.002	347.1
372.38	270.5
372.758	316.46
373.136	347.1
373.513	370.08
373.891	436.47
374.269	296.03
374.646	364.97
375.024	354.76
375.402	329.23
375.779	423.7
376.157	329.23
376.534	331.78
376.911	301.14
377.289	303.69
377.666	311.35
378.043	319.01
378.42	413.49
378.797	341.99
379.175	306.25
379.552	367.53
379.929	395.61
380.305	372.63
380.682	336.89
381.059	400.72
381.436	319.01
381.813	413.49
382.189	352.21
382.566	370.08
382.943	344.55
383.319	349.65
383.696	387.95
384.072	316.46
384.448	385.4
384.825	362.42
385.201	339.44
385.577	313.91
385.953	349.65
386.329	362.42
386.706	398.17
387.082	370.08
387.458	347.1
387.834	375.19
388.209	347.1
388.585	354.76
388.961	339.44
389.337	354.76
389.713	311.35
390.088	375.19
390.464	382.85
390.839	390.51
391.215	408.38
391.59	331.78
391.966	398.17
392.341	393.06
392.716	344.55
393.092	375.19
393.467	347.1
393.842	349.65
394.217	352.21
394.592	290.93
394.967	382.85
395.342	339.44
395.717	385.4
396.092	341.99
396.467	377.74
396.841	372.63
397.216	395.61
397.591	382.85
397.965	285.82
398.34	375.19
398.714	387.95
399.089	352.21
399.463	382.85
399.838	400.72
400.212	408.38
400.586	395.61
400.961	347.1
401.335	433.91
401.709	446.68
402.083	354.76
402.457	316.46
402.831	405.83
403.205	403.27
403.579	352.21
403.953	387.95
404.326	339.44
404.7	377.74
405.074	428.81
405.447	408.38
405.821	405.83
406.195	405.83
406.568	329.23
406.942	313.91
407.315	364.97
407.688	336.89
408.062	306.25
408.435	313.91
408.808	306.25
409.181	357.31
409.554	303.69
409.927	370.08
410.3	331.78
410.673	334.33
411.046	349.65
411.419	408.38
411.792	375.19
412.165	413.49
412.537	413.49
412.91	324.12
413.283	441.57
413.655	428.81
414.028	331.78
414.4	352.21
414.773	449.23
415.145	349.65
415.517	359.87
415.889	398.17
416.262	393.06
416.634	380.29
417.006	390.51
417.378	410.93
417.75	339.44
418.122	418.59
418.494	395.61
418.866	390.51
419.238	380.29
419.609	395.61
419.981	400.72
420.353	393.06
420.725	436.47
421.096	380.29
421.468	372.63
421.839	405.83
422.211	377.74
422.582	382.85
422.953	431.36
423.325	393.06
423.696	352.21
424.067	390.51
424.438	311.35
424.809	380.29
425.18	418.59
425.551	403.27
425.922	380.29
426.293	398.17
426.664	436.47
427.035	482.43
427.406	428.81
427.776	380.29
428.147	431.36
428.518	382.85
428.888	451.79
429.259	431.36
429.629	441.57
429.999	359.87
430.37	418.59
430.74	370.08
431.11	416.04
431.481	436.47
431.851	462
432.221	421.15
432.591	349.65
432.961	403.27
433.331	428.81
433.701	390.51
434.071	380.29
434.441	431.36
434.81	377.74
435.18	390.51
435.55	431.36
435.919	344.55
436.289	319.01
436.658	334.33
437.028	380.29
437.397	359.87
437.767	474.77
438.136	410.93
438.505	357.31
438.875	339.44
439.244	405.83
439.613	403.27
439.982	390.51
440.351	385.4
440.72	405.83
441.089	423.7
441.458	418.59
441.827	410.93
442.196	454.34
442.564	500.3
442.933	418.59
443.302	390.51
443.67	390.51
444.039	454.34
444.407	329.23
444.776	364.97
445.144	354.76
445.513	390.51
445.881	398.17
446.249	410.93
446.617	439.02
446.986	362.42
447.354	385.4
447.722	385.4
448.09	370.08
448.458	390.51
448.826	439.02
449.194	433.91
449.561	423.7
449.929	446.68
450.297	410.93
450.665	359.87
451.032	398.17
451.4	393.06
451.767	439.02
452.135	375.19
452.502	431.36
452.87	467.11
453.237	387.95
453.604	380.29
453.971	444.13
454.339	375.19
454.706	377.74
455.073	405.83
455.44	385.4
455.807	403.27
456.174	382.85
456.541	456.9
456.908	433.91
457.274	372.63
457.641	341.99
458.008	362.42
458.374	454.34
458.741	464.56
459.108	403.27
459.474	454.34
459.841	439.02
460.207	372.63
460.573	372.63
460.94	423.7
461.306	413.49
461.672	462
462.038	428.81
462.404	393.06
462.771	449.23
463.137	408.38
463.503	472.22
463.868	395.61
464.234	357.31
464.6	390.51
464.966	431.36
465.332	441.57
465.697	357.31
466.063	421.15
466.429	359.87
466.794	390.51
467.16	482.43
467.525	431.36
467.89	303.69
468.256	380.29
468.621	421.15
468.986	426.25
469.351	421.15
469.717	413.49
470.082	324.12
470.447	390.51
470.812	428.81
471.177	370.08
471.542	423.7
471.906	403.27
472.271	451.79
472.636	380.29
473.001	416.04
473.365	387.95
473.73	336.89
474.094	410.93
474.459	349.65
474.823	439.02
475.188	431.36
475.552	400.72
475.917	354.76
476.281	390.51
476.645	400.72
477.009	359.87
477.373	441.57
477.737	433.91
478.101	462
478.465	431.36
478.829	344.55
479.193	375.19
479.557	362.42
479.921	467.11
480.284	441.57
480.648	362.42
481.012	387.95
481.375	469.66
481.739	439.02
482.102	426.25
482.466	428.81
482.829	441.57
483.193	359.87
483.556	359.87
483.919	331.78
484.282	421.15
484.645	400.72
485.009	395.61
485.372	390.51
485.735	393.06
486.098	400.72
486.46	431.36
486.823	367.53
487.186	446.68
487.549	433.91
487.912	390.51
488.274	467.11
488.637	390.51
488.999	413.49
489.362	377.74
489.724	354.76
490.087	413.49
490.449	400.72
490.811	357.31
491.174	416.04
491.536	439.02
491.898	372.63
492.26	410.93
492.622	451.79
492.984	377.74
493.346	390.51
493.708	423.7
494.07	426.25
494.432	441.57
494.794	354.76
495.155	405.83
495.517	382.85
495.879	418.59
496.24	462
496.602	484.98
496.963	423.7
497.325	484.98
497.686	436.47
498.048	390.51
498.409	449.23
498.77	393.06
499.131	408.38
499.492	377.74
499.854	446.68
500.215	416.04
500.576	418.59
500.937	364.97
501.298	400.72
501.658	423.7
502.019	474.77
502.38	431.36
502.741	439.02
503.101	410.93
503.462	382.85
503.823	413.49
504.183	416.04
504.543	431.36
504.904	364.97
505.264	352.21
505.625	377.74
505.985	362.42
506.345	354.76
506.705	449.23
507.065	377.74
507.426	319.01
507.786	408.38
508.146	372.63
508.505	410.93
508.865	370.08
509.225	426.25
509.585	518.18
509.945	469.66
510.304	370.08
510.664	477.32
511.024	372.63
511.383	393.06
511.743	395.61
512.102	313.91
512.462	433.91
512.821	449.23
513.18	418.59
513.539	449.23
513.899	428.81
514.258	439.02
514.617	472.22
514.976	426.25
515.335	416.04
515.694	400.72
516.053	395.61
516.412	421.15
516.771	439.02
517.129	398.17
517.488	385.4
517.847	459.45
518.205	477.32
518.564	451.79
518.922	446.68
519.281	433.91
519.639	370.08
519.998	377.74
520.356	431.36
520.714	433.91
521.073	413.49
521.431	385.4
521.789	400.72
522.147	308.8
522.505	459.45
522.863	433.91
523.221	433.91
523.579	359.87
523.937	319.01
524.295	405.83
524.652	398.17
525.01	413.49
525.368	405.83
525.725	513.07
526.083	495.2
526.44	456.9
526.798	433.91
527.155	387.95
527.513	400.72
527.87	372.63
528.227	372.63
528.584	382.85
528.942	334.33
529.299	364.97
529.656	382.85
530.013	403.27
530.37	444.13
530.727	382.85
531.083	454.34
531.44	449.23
531.797	403.27
532.154	347.1
532.511	408.38
532.867	454.34
533.224	410.93
533.58	428.81
533.937	421.15
534.293	441.57
534.65	403.27
535.006	395.61
535.362	456.9
535.718	441.57
536.075	385.4
536.431	403.27
536.787	387.95
537.143	387.95
537.499	370.08
537.855	439.02
538.211	428.81
538.567	441.57
538.923	431.36
539.278	385.4
539.634	421.15
539.99	426.25
540.345	431.36
540.701	390.51
541.056	418.59
541.412	400.72
541.767	362.42
542.123	349.65
542.478	426.25
542.833	385.4
543.188	446.68
543.544	372.63
543.899	390.51
544.254	439.02
544.609	439.02
544.964	423.7
545.319	362.42
545.674	359.87
546.029	400.72
546.383	390.51
546.738	387.95
547.093	372.63
547.447	462
547.802	364.97
548.157	313.91
548.511	380.29
548.866	403.27
549.22	441.57
549.574	382.85
549.929	490.09
550.283	375.19
550.637	357.31
550.991	375.19
551.345	387.95
551.699	385.4
552.053	393.06
552.407	405.83
552.761	393.06
553.115	405.83
553.469	357.31
553.823	362.42
554.176	403.27
554.53	439.02
554.884	382.85
555.237	645.85
555.591	423.7
555.944	449.23
556.298	431.36
556.651	510.52
557.005	416.04
557.358	433.91
557.711	467.11
558.064	426.25
558.417	405.83
558.771	536.05
559.124	444.13
559.477	423.7
559.83	387.95
560.182	372.63
560.535	500.3
560.888	418.59
561.241	393.06
561.594	400.72
561.946	387.95
562.299	339.44
562.651	462
563.004	341.99
563.356	446.68
563.709	354.76
564.061	421.15
564.413	456.9
564.766	433.91
565.118	372.63
565.47	423.7
565.822	472.22
566.174	377.74
566.526	367.53
566.878	428.81
567.23	418.59
567.582	364.97
567.934	390.51
568.286	405.83
568.638	421.15
568.989	482.43
569.341	449.23
569.693	431.36
570.044	433.91
570.396	441.57
570.747	446.68
571.098	467.11
571.45	456.9
571.801	413.49
572.152	431.36
572.504	439.02
572.855	372.63
573.206	336.89
573.557	362.42
573.908	354.76
574.259	405.83
574.61	367.53
574.961	441.57
575.311	433.91
575.662	398.17
576.013	423.7
576.364	405.83
576.714	359.87
577.065	393.06
577.415	380.29
577.766	484.98
578.116	428.81
578.467	405.83
578.817	367.53
579.167	416.04
579.518	367.53
579.868	405.83
580.218	403.27
580.568	441.57
580.918	469.66
581.268	375.19
581.618	408.38
581.968	413.49
582.318	385.4
582.668	324.12
583.017	418.59
583.367	451.79
583.717	382.85
584.066	347.1
584.416	428.81
584.765	400.72
585.115	354.76
585.464	311.35
585.814	364.97
586.163	364.97
586.512	334.33
586.862	433.91
587.211	433.91
587.56	382.85
587.909	469.66
588.258	408.38
588.607	280.71
588.956	377.74
589.305	428.81
589.654	446.68
590.002	400.72
590.351	413.49
590.7	426.25
591.048	375.19
591.397	418.59
591.746	441.57
592.094	336.89
592.443	372.63
592.791	382.85
593.139	385.4
593.488	405.83
593.836	451.79
594.184	408.38
594.532	367.53
594.88	408.38
595.228	408.38
595.576	436.47
595.924	426.25
596.272	400.72
596.62	451.79
596.968	410.93
597.316	387.95
597.664	408.38
598.011	405.83
598.359	359.87
598.706	385.4
599.054	364.97
599.402	364.97
599.749	423.7
600.096	385.4
600.444	403.27
600.791	423.7
601.138	377.74
601.485	382.85
601.833	341.99
602.18	433.91
602.527	408.38
602.874	390.51
603.221	433.91
603.568	444.13
603.914	449.23
604.261	354.76
604.608	416.04
604.955	449.23
605.301	387.95
605.648	354.76
605.995	418.59
606.341	382.85
606.688	421.15
607.034	354.76
607.38	377.74
607.727	421.15
608.073	398.17
608.419	421.15
608.765	372.63
609.112	400.72
609.458	349.65
609.804	416.04
610.15	334.33
610.496	433.91
610.842	400.72
611.187	395.61
611.533	336.89
611.879	439.02
612.225	367.53
612.57	380.29
612.916	382.85
613.261	441.57
613.607	421.15
613.952	354.76
614.298	446.68
614.643	423.7
614.989	436.47
615.334	410.93
615.679	413.49
616.024	439.02
616.369	403.27
616.714	336.89
617.059	390.51
617.404	428.81
617.749	416.04
618.094	423.7
618.439	426.25
618.784	451.79
619.129	446.68
619.473	387.95
619.818	393.06
620.163	367.53
620.507	293.48
620.852	387.95
621.196	431.36
621.54	387.95
621.885	385.4
622.229	372.63
622.573	400.72
622.918	385.4
623.262	472.22
623.606	454.34
623.95	433.91
624.294	416.04
624.638	377.74
624.982	426.25
625.326	413.49
625.67	403.27
626.013	393.06
626.357	395.61
626.701	367.53
627.044	464.56
627.388	444.13
627.731	372.63
628.075	403.27
628.418	436.47
628.762	387.95
629.105	362.42
629.448	484.98
629.792	413.49
630.135	398.17
630.478	339.44
630.821	352.21
631.164	423.7
631.507	439.02
631.85	446.68
632.193	426.25
632.536	500.3
632.879	398.17
633.221	426.25
633.564	347.1
633.907	367.53
634.249	405.83
634.592	359.87
634.935	398.17
635.277	395.61
635.619	370.08
635.962	387.95
636.304	416.04
636.646	370.08
636.989	377.74
637.331	385.4
637.673	416.04
638.015	382.85
638.357	390.51
638.699	344.55
639.041	459.45
639.383	418.59
639.725	357.31
640.067	359.87
640.408	382.85
640.75	431.36
641.092	451.79
641.433	431.36
641.775	421.15
642.116	296.03
642.458	421.15
642.799	390.51
643.141	380.29
643.482	421.15
643.823	421.15
644.164	400.72
644.506	472.22
644.847	431.36
645.188	446.68
645.529	467.11
645.87	416.04
646.211	400.72
646.552	405.83
646.893	418.59
647.233	341.99
647.574	387.95
647.915	385.4
648.255	439.02
648.596	370.08
648.937	393.06
649.277	380.29
649.618	408.38
649.958	410.93
650.298	370.08
650.639	357.31
650.979	441.57
651.319	400.72
651.659	380.29
651.999	339.44
652.339	410.93
652.679	364.97
653.019	436.47
653.359	385.4
653.699	426.25
654.039	400.72
654.379	444.13
654.719	403.27
655.058	352.21
655.398	423.7
655.737	456.9
656.077	439.02
656.416	418.59
656.756	490.09
657.095	398.17
657.435	362.42
657.774	380.29
658.113	349.65
658.452	390.51
658.792	319.01
659.131	377.74
659.47	410.93
659.809	370.08
660.148	364.97
660.487	405.83
660.826	354.76
661.164	370.08
661.503	405.83
661.842	377.74
662.181	357.31
662.519	341.99
662.858	349.65
663.196	377.74
663.535	416.04
663.873	375.19
664.212	403.27
664.55	441.57
664.888	354.76
665.226	418.59
665.565	418.59
665.903	546.26
666.241	431.36
666.579	408.38
666.917	421.15
667.255	400.72
667.593	433.91
667.931	395.61
668.268	303.69
668.606	405.83
668.944	441.57
669.282	423.7
669.619	428.81
669.957	408.38
670.294	347.1
670.632	431.36
670.969	367.53
671.307	375.19
671.644	364.97
671.981	436.47
672.318	421.15
672.656	436.47
672.993	418.59
673.33	377.74
673.667	347.1
674.004	400.72
674.341	341.99
674.678	421.15
675.015	375.19
675.351	416.04
675.688	395.61
676.025	459.45
676.362	385.4
676.698	418.59
677.035	352.21
677.371	408.38
677.708	334.33
678.044	367.53
678.38	400.72
678.717	341.99
679.053	344.55
679.389	382.85
679.725	385.4
680.062	441.57
680.398	372.63
680.734	377.74
681.07	444.13
681.406	408.38
681.742	395.61
682.077	357.31
682.413	324.12
682.749	367.53
683.085	487.54
683.42	403.27
683.756	421.15
684.091	372.63
684.427	344.55
684.762	444.13
685.098	352.21
685.433	395.61
685.768	377.74
686.104	408.38
686.439	372.63
686.774	495.2
687.109	428.81
687.444	405.83
687.779	370.08
688.114	413.49
688.449	454.34
688.784	405.83
689.119	352.21
689.454	303.69
689.789	341.99
690.123	403.27
690.458	433.91
690.792	367.53
691.127	377.74
691.461	387.95
691.796	387.95
692.13	474.77
692.465	451.79
692.799	410.93
693.133	405.83
693.467	364.97
693.802	336.89
694.136	385.4
694.47	410.93
694.804	336.89
695.138	413.49
695.472	405.83
695.806	428.81
696.139	334.33
696.473	431.36
696.807	449.23
697.141	398.17
697.474	431.36
697.808	408.38
698.141	405.83
698.475	385.4
698.808	354.76
699.142	380.29
699.475	395.61
699.808	398.17
700.142	408.38
700.475	428.81
700.808	467.11
701.141	387.95
701.474	380.29
701.807	385.4
702.14	390.51
702.473	408.38
702.806	405.83
703.139	349.65
703.472	459.45
703.804	436.47
704.137	359.87
704.47	403.27
704.802	359.87
705.135	370.08
705.467	403.27
705.8	405.83
706.132	362.42
706.464	446.68
706.797	451.79
707.129	362.42
707.461	408.38
707.793	382.85
708.125	382.85
708.457	319.01
708.789	408.38
709.121	421.15
709.453	459.45
709.785	377.74
710.117	400.72
710.449	410.93
710.781	431.36
711.112	462
711.444	441.57
711.775	375.19
712.107	334.33
712.438	329.23
712.77	339.44
713.101	395.61
713.433	403.27
713.764	377.74
714.095	375.19
714.426	380.29
714.757	341.99
715.089	331.78
715.42	410.93
715.751	377.74
716.082	436.47
716.412	423.7
716.743	408.38
717.074	359.87
717.405	370.08
717.736	408.38
718.066	408.38
718.397	472.22
718.727	431.36
719.058	344.55
719.388	344.55
719.719	421.15
720.049	456.9
720.38	462
720.71	403.27
721.04	357.31
721.37	472.22
721.7	393.06
722.031	385.4
722.361	387.95
722.691	390.51
723.021	467.11
723.35	428.81
723.68	382.85
724.01	431.36
724.34	405.83
724.67	362.42
724.999	390.51
725.329	387.95
725.658	370.08
725.988	377.74
726.317	372.63
726.647	446.68
726.976	441.57
727.306	431.36
727.635	344.55
727.964	413.49
728.293	423.7
728.622	451.79
728.952	400.72
729.281	403.27
729.61	418.59
729.939	403.27
730.267	400.72
730.596	462
730.925	403.27
731.254	416.04
731.583	433.91
731.911	370.08
732.24	421.15
732.568	444.13
732.897	372.63
733.225	316.46
733.554	354.76
733.882	334.33
734.21	398.17
734.539	372.63
734.867	431.36
735.195	362.42
735.523	372.63
735.851	436.47
736.179	413.49
736.507	390.51
736.835	377.74
737.163	413.49
737.491	444.13
737.819	377.74
738.147	380.29
738.474	364.97
738.802	454.34
739.13	433.91
739.457	405.83
739.785	339.44
740.112	331.78
740.44	377.74
740.767	398.17
741.094	377.74
741.422	329.23
741.749	398.17
742.076	426.25
742.403	354.76
742.73	349.65
743.057	426.25
743.384	359.87
743.711	331.78
744.038	382.85
744.365	390.51
744.692	413.49
745.018	359.87
745.345	362.42
745.672	387.95
745.998	426.25
746.325	341.99
746.651	370.08
746.978	362.42
747.304	431.36
747.631	444.13
747.957	357.31
748.283	416.04
748.61	367.53
748.936	400.72
749.262	372.63
749.588	405.83
749.914	387.95
750.24	431.36
750.566	344.55
750.892	403.27
751.218	428.81
751.543	410.93
751.869	462
752.195	433.91
752.521	372.63
752.846	426.25
753.172	364.97
753.497	370.08
753.823	387.95
754.148	387.95
754.473	454.34
754.799	393.06
755.124	467.11
755.449	395.61
755.774	405.83
756.1	347.1
756.425	367.53
756.75	423.7
757.075	357.31
757.4	525.84
757.724	359.87
758.049	395.61
758.374	408.38
758.699	426.25
759.024	382.85
759.348	313.91
759.673	362.42
759.997	446.68
760.322	398.17
760.646	393.06
760.971	444.13
761.295	403.27
761.619	423.7
761.944	395.61
762.268	423.7
762.592	408.38
762.916	408.38
763.24	352.21
763.564	341.99
763.888	398.17
764.212	380.29
764.536	477.32
764.86	413.49
765.184	413.49
765.508	375.19
765.831	395.61
766.155	653.51
766.478	403.27
766.802	347.1
767.126	418.59
767.449	464.56
767.772	380.29
768.096	387.95
768.419	395.61
768.742	462
769.066	418.59
769.389	421.15
769.712	405.83
770.035	454.34
770.358	400.72
770.681	364.97
771.004	390.51
771.327	393.06
771.65	336.89
771.972	354.76
772.295	433.91
772.618	359.87
772.941	347.1
773.263	324.12
773.586	387.95
773.908	433.91
774.231	421.15
774.553	339.44
774.875	316.46
775.198	462
775.52	408.38
775.842	400.72
776.164	319.01
776.487	313.91
776.809	375.19
777.131	375.19
777.453	390.51
777.775	339.44
778.096	372.63
778.418	372.63
778.74	423.7
779.062	385.4
779.384	410.93
779.705	408.38
780.027	352.21
780.348	428.81
780.67	387.95
780.991	426.25
781.313	364.97
781.634	367.53
781.955	334.33
782.277	390.51
782.598	428.81
782.919	357.31
783.24	400.72
783.561	474.77
783.882	324.12
784.203	395.61
784.524	375.19
784.845	456.9
785.166	408.38
785.487	413.49
785.807	352.21
786.128	387.95
786.449	352.21
786.769	467.11
787.09	336.89
787.41	428.81
787.731	441.57
788.051	439.02
788.372	484.98
788.692	370.08
789.012	359.87
789.332	405.83
789.653	410.93
789.973	433.91
790.293	380.29
790.613	395.61
790.933	382.85
791.253	405.83
791.573	398.17
791.893	359.87
792.212	382.85
792.532	398.17
792.852	428.81
793.171	339.44
793.491	329.23
793.811	367.53
794.13	462
794.45	354.76
794.769	375.19
795.088	349.65
795.408	344.55
795.727	370.08
796.046	336.89
796.365	377.74
796.684	349.65
797.004	382.85
797.323	426.25
797.642	395.61
797.96	441.57
798.279	334.33
798.598	372.63
798.917	393.06
799.236	367.53
799.554	329.23
799.873	439.02
800.192	362.42
800.51	377.74
800.829	329.23
801.147	349.65
801.466	416.04
801.784	444.13
802.102	462
