Data from 2025-12-03_xpw_interference_micrometer_634_dark_FLMS141361__51__201.txt Node

Date: Wed Dec 03 15:50:04 MST 2025
User: james
Spectrometer: FLMS14136
Trigger mode: 0
Integration Time (sec): 1.000000E-1
Scans to average: 1
Electric dark correction enabled: true
Nonlinearity correction enabled: false
Boxcar width: 0
XAxis mode: Wavelengths
Number of Pixels in Spectrum: 2048
>>>>>Begin Spectral Data<<<<<
339.315	-105.33
339.697	-105.33
340.079	-105.33
340.461	-197.25
340.843	-74.69
341.225	-69.58
341.607	-158.95
341.989	-79.79
342.371	-84.9
342.752	-64.47
343.134	-21.07
343.516	1.92
343.897	-5.75
344.279	-13.41
344.661	73.41
345.042	4.47
345.423	50.43
345.805	93.84
346.186	93.84
346.567	70.86
346.949	109.16
347.33	101.5
347.711	157.67
348.092	234.27
348.473	229.17
348.854	262.36
349.235	193.42
349.616	247.04
349.997	188.31
350.378	308.32
350.758	359.39
351.139	331.3
351.52	382.37
351.9	369.6
352.281	361.94
352.661	346.62
353.042	395.14
353.422	323.64
353.803	367.05
354.183	395.14
354.563	377.26
354.943	435.99
355.324	349.17
355.704	341.51
356.084	390.03
356.464	387.48
356.844	359.39
357.224	392.58
357.603	364.49
357.983	397.69
358.363	433.44
358.743	443.65
359.122	323.64
359.502	323.64
359.882	407.9
360.261	333.85
360.641	344.07
361.02	359.39
361.399	257.25
361.779	361.94
362.158	415.56
362.537	374.71
362.916	387.48
363.296	377.26
363.675	308.32
364.054	287.89
364.433	308.32
364.812	331.3
365.19	346.62
365.569	367.05
365.948	346.62
366.327	341.51
366.705	272.57
367.084	351.73
367.463	356.83
367.841	280.23
368.22	298.11
368.598	405.35
368.977	333.85
369.355	249.59
369.733	267.47
370.111	321.09
370.49	338.96
370.868	369.6
371.246	359.39
371.624	356.83
372.002	287.89
372.38	310.87
372.758	341.51
373.136	377.26
373.513	310.87
373.891	392.58
374.269	379.81
374.646	349.17
375.024	367.05
375.402	420.67
375.779	390.03
376.157	423.22
376.534	397.69
376.911	315.98
377.289	351.73
377.666	346.62
378.043	277.68
378.42	331.3
378.797	315.98
379.175	313.43
379.552	254.7
379.929	331.3
380.305	252.15
380.682	305.77
381.059	369.6
381.436	331.3
381.813	313.43
382.189	354.28
382.566	361.94
382.943	367.05
383.319	441.1
383.696	415.56
384.072	354.28
384.448	349.17
384.825	402.8
385.201	433.44
385.577	354.28
385.953	374.71
386.329	382.37
386.706	323.64
387.082	354.28
387.458	349.17
387.834	410.46
388.209	369.6
388.585	354.28
388.961	395.14
389.337	387.48
389.713	351.73
390.088	367.05
390.464	328.75
390.839	354.28
391.215	377.26
391.59	390.03
391.966	382.37
392.341	315.98
392.716	293
393.092	402.8
393.467	392.58
393.842	390.03
394.217	372.15
394.592	344.07
394.967	354.28
395.342	293
395.717	326.19
396.092	369.6
396.467	338.96
396.841	359.39
397.216	369.6
397.591	321.09
397.965	392.58
398.34	315.98
398.714	392.58
399.089	372.15
399.463	313.43
399.838	344.07
400.212	413.01
400.586	384.92
400.961	359.39
401.335	415.56
401.709	308.32
402.083	349.17
402.457	364.49
402.831	443.65
403.205	318.53
403.579	310.87
403.953	367.05
404.326	369.6
404.7	369.6
405.074	341.51
405.447	374.71
405.821	336.41
406.195	387.48
406.568	351.73
406.942	446.2
407.315	384.92
407.688	387.48
408.062	402.8
408.435	293
408.808	303.21
409.181	400.24
409.554	382.37
409.927	390.03
410.3	384.92
410.673	323.64
411.046	315.98
411.419	374.71
411.792	392.58
412.165	441.1
412.537	344.07
412.91	387.48
413.283	318.53
413.655	379.81
414.028	433.44
414.4	390.03
414.773	351.73
415.145	326.19
415.517	356.83
415.889	420.67
416.262	372.15
416.634	364.49
417.006	367.05
417.378	397.69
417.75	433.44
418.122	451.31
418.494	328.75
418.866	402.8
419.238	331.3
419.609	303.21
419.981	372.15
420.353	402.8
420.725	323.64
421.096	390.03
421.468	354.28
421.839	420.67
422.211	349.17
422.582	344.07
422.953	315.98
423.325	369.6
423.696	361.94
424.067	336.41
424.438	379.81
424.809	397.69
425.18	423.22
425.551	390.03
425.922	413.01
426.293	331.3
426.664	341.51
427.035	384.92
427.406	346.62
427.776	338.96
428.147	364.49
428.518	435.99
428.888	395.14
429.259	326.19
429.629	392.58
429.999	400.24
430.37	354.28
430.74	456.42
431.11	372.15
431.481	333.85
431.851	413.01
432.221	415.56
432.591	415.56
432.961	390.03
433.331	400.24
433.701	395.14
434.071	359.39
434.441	364.49
434.81	387.48
435.18	402.8
435.55	338.96
435.919	305.77
436.289	384.92
436.658	387.48
437.028	410.46
437.397	407.9
437.767	341.51
438.136	390.03
438.505	336.41
438.875	351.73
439.244	448.76
439.613	395.14
439.982	402.8
440.351	413.01
440.72	364.49
441.089	377.26
441.458	359.39
441.827	384.92
442.196	364.49
442.564	400.24
442.933	387.48
443.302	387.48
443.67	277.68
444.039	354.28
444.407	392.58
444.776	310.87
445.144	382.37
445.513	407.9
445.881	441.1
446.249	435.99
446.617	446.2
446.986	405.35
447.354	453.86
447.722	469.18
448.09	425.78
448.458	441.1
448.826	415.56
449.194	379.81
449.561	367.05
449.929	384.92
450.297	397.69
450.665	425.78
451.032	428.33
451.4	397.69
451.767	435.99
452.135	397.69
452.502	430.88
452.87	428.33
453.237	423.22
453.604	461.52
453.971	418.12
454.339	382.37
454.706	428.33
455.073	318.53
455.44	372.15
455.807	387.48
456.174	384.92
456.541	428.33
456.908	387.48
457.274	338.96
457.641	392.58
458.008	415.56
458.374	392.58
458.741	377.26
459.108	367.05
459.474	303.21
459.841	395.14
460.207	435.99
460.573	392.58
460.94	356.83
461.306	338.96
461.672	313.43
462.038	344.07
462.404	384.92
462.771	310.87
463.137	392.58
463.503	415.56
463.868	344.07
464.234	400.24
464.6	379.81
464.966	303.21
465.332	430.88
465.697	359.39
466.063	377.26
466.429	387.48
466.794	349.17
467.16	428.33
467.525	464.08
467.89	479.4
468.256	458.97
468.621	341.51
468.986	336.41
469.351	410.46
469.717	413.01
470.082	397.69
470.447	390.03
470.812	372.15
471.177	464.08
471.542	395.14
471.906	443.65
472.271	448.76
472.636	379.81
473.001	466.63
473.365	384.92
473.73	395.14
474.094	458.97
474.459	433.44
474.823	425.78
475.188	333.85
475.552	390.03
475.917	392.58
476.281	354.28
476.645	405.35
477.009	395.14
477.373	413.01
477.737	405.35
478.101	415.56
478.465	395.14
478.829	425.78
479.193	430.88
479.557	430.88
479.921	405.35
480.284	318.53
480.648	379.81
481.012	382.37
481.375	448.76
481.739	369.6
482.102	407.9
482.466	382.37
482.829	425.78
483.193	407.9
483.556	397.69
483.919	413.01
484.282	364.49
484.645	400.24
485.009	413.01
485.372	382.37
485.735	374.71
486.098	405.35
486.46	361.94
486.823	364.49
487.186	328.75
487.549	369.6
487.912	384.92
488.274	374.71
488.637	405.35
488.999	392.58
489.362	433.44
489.724	354.28
490.087	441.1
490.449	410.46
490.811	410.46
491.174	333.85
491.536	369.6
491.898	361.94
492.26	428.33
492.622	413.01
492.984	384.92
493.346	361.94
493.708	328.75
494.07	382.37
494.432	374.71
494.794	425.78
495.155	379.81
495.517	428.33
495.879	384.92
496.24	410.46
496.602	420.67
496.963	402.8
497.325	351.73
497.686	435.99
498.048	418.12
498.409	438.54
498.77	369.6
499.131	390.03
499.492	435.99
499.854	356.83
500.215	356.83
500.576	428.33
500.937	392.58
501.298	359.39
501.658	397.69
502.019	372.15
502.38	341.51
502.741	400.24
503.101	397.69
503.462	387.48
503.823	384.92
504.183	384.92
504.543	392.58
504.904	402.8
505.264	448.76
505.625	379.81
505.985	349.17
506.345	400.24
506.705	369.6
507.065	361.94
507.426	407.9
507.786	413.01
508.146	453.86
508.505	438.54
508.865	349.17
509.225	392.58
509.585	487.06
509.945	446.2
510.304	418.12
510.664	402.8
511.024	481.95
511.383	410.46
511.743	451.31
512.102	377.26
512.462	390.03
512.821	443.65
513.18	428.33
513.539	387.48
513.899	438.54
514.258	413.01
514.617	395.14
514.976	377.26
515.335	321.09
515.694	397.69
516.053	415.56
516.412	364.49
516.771	397.69
517.129	435.99
517.488	428.33
517.847	369.6
518.205	349.17
518.564	341.51
518.922	349.17
519.281	372.15
519.639	407.9
519.998	310.87
520.356	374.71
520.714	479.4
521.073	405.35
521.431	402.8
521.789	379.81
522.147	328.75
522.505	397.69
522.863	364.49
523.221	425.78
523.579	458.97
523.937	305.77
524.295	443.65
524.652	384.92
525.01	354.28
525.368	407.9
525.725	321.09
526.083	338.96
526.44	390.03
526.798	395.14
527.155	397.69
527.513	359.39
527.87	387.48
528.227	413.01
528.584	415.56
528.942	402.8
529.299	402.8
529.656	413.01
530.013	410.46
530.37	359.39
530.727	420.67
531.083	328.75
531.44	374.71
531.797	438.54
532.154	423.22
532.511	346.62
532.867	346.62
533.224	410.46
533.58	392.58
533.937	369.6
534.293	372.15
534.65	402.8
535.006	423.22
535.362	384.92
535.718	469.18
536.075	430.88
536.431	451.31
536.787	461.52
537.143	507.48
537.499	453.86
537.855	367.05
538.211	397.69
538.567	397.69
538.923	395.14
539.278	328.75
539.634	361.94
539.99	377.26
540.345	428.33
540.701	344.07
541.056	448.76
541.412	369.6
541.767	433.44
542.123	438.54
542.478	435.99
542.833	336.41
543.188	372.15
543.544	410.46
543.899	438.54
544.254	420.67
544.609	392.58
544.964	451.31
545.319	397.69
545.674	433.44
546.029	397.69
546.383	400.24
546.738	407.9
547.093	392.58
547.447	359.39
547.802	428.33
548.157	382.37
548.511	433.44
548.866	456.42
549.22	453.86
549.574	413.01
549.929	446.2
550.283	369.6
550.637	369.6
550.991	400.24
551.345	430.88
551.699	456.42
552.053	397.69
552.407	387.48
552.761	423.22
553.115	484.5
553.469	456.42
553.823	413.01
554.176	372.15
554.53	400.24
554.884	420.67
555.237	660.69
555.591	466.63
555.944	395.14
556.298	407.9
556.651	448.76
557.005	384.92
557.358	425.78
557.711	374.71
558.064	367.05
558.417	377.26
558.771	461.52
559.124	476.84
559.477	420.67
559.83	413.01
560.182	351.73
560.535	525.36
560.888	481.95
561.241	336.41
561.594	405.35
561.946	384.92
562.299	390.03
562.651	407.9
563.004	382.37
563.356	400.24
563.709	410.46
564.061	469.18
564.413	458.97
564.766	364.49
565.118	377.26
565.47	367.05
565.822	438.54
566.174	438.54
566.526	390.03
566.878	387.48
567.23	321.09
567.582	356.83
567.934	413.01
568.286	428.33
568.638	387.48
568.989	338.96
569.341	372.15
569.693	359.39
570.044	443.65
570.396	377.26
570.747	382.37
571.098	374.71
571.45	382.37
571.801	410.46
572.152	361.94
572.504	420.67
572.855	415.56
573.206	384.92
573.557	418.12
573.908	456.42
574.259	382.37
574.61	415.56
574.961	390.03
575.311	525.36
575.662	349.17
576.013	441.1
576.364	446.2
576.714	438.54
577.065	420.67
577.415	402.8
577.766	407.9
578.116	410.46
578.467	448.76
578.817	382.37
579.167	400.24
579.518	377.26
579.868	423.22
580.218	346.62
580.568	359.39
580.918	351.73
581.268	382.37
581.618	405.35
581.968	372.15
582.318	367.05
582.668	441.1
583.017	405.35
583.367	379.81
583.717	446.2
584.066	443.65
584.416	413.01
584.765	405.35
585.115	443.65
585.464	374.71
585.814	364.49
586.163	400.24
586.512	430.88
586.862	374.71
587.211	425.78
587.56	395.14
587.909	382.37
588.258	382.37
588.607	435.99
588.956	430.88
589.305	420.67
589.654	333.85
590.002	359.39
590.351	308.32
590.7	413.01
591.048	392.58
591.397	400.24
591.746	402.8
592.094	407.9
592.443	354.28
592.791	395.14
593.139	372.15
593.488	364.49
593.836	397.69
594.184	390.03
594.532	405.35
594.88	430.88
595.228	318.53
595.576	413.01
595.924	321.09
596.272	354.28
596.62	336.41
596.968	356.83
597.316	384.92
597.664	395.14
598.011	374.71
598.359	382.37
598.706	346.62
599.054	466.63
599.402	405.35
599.749	379.81
600.096	420.67
600.444	402.8
600.791	430.88
601.138	435.99
601.485	377.26
601.833	387.48
602.18	374.71
602.527	413.01
602.874	476.84
603.221	453.86
603.568	428.33
603.914	430.88
604.261	379.81
604.608	369.6
604.955	415.56
605.301	448.76
605.648	407.9
605.995	433.44
606.341	346.62
606.688	374.71
607.034	382.37
607.38	413.01
607.727	359.39
608.073	423.22
608.419	384.92
608.765	369.6
609.112	400.24
609.458	392.58
609.804	456.42
610.15	400.24
610.496	367.05
610.842	392.58
611.187	369.6
611.533	359.39
611.879	387.48
612.225	361.94
612.57	349.17
612.916	402.8
613.261	413.01
613.607	372.15
613.952	323.64
614.298	407.9
614.643	405.35
614.989	400.24
615.334	420.67
615.679	395.14
616.024	413.01
616.369	405.35
616.714	387.48
617.059	443.65
617.404	359.39
617.749	364.49
618.094	369.6
618.439	361.94
618.784	415.56
619.129	413.01
619.473	420.67
619.818	377.26
620.163	415.56
620.507	359.39
620.852	395.14
621.196	387.48
621.54	361.94
621.885	461.52
622.229	453.86
622.573	441.1
622.918	402.8
623.262	415.56
623.606	377.26
623.95	420.67
624.294	428.33
624.638	405.35
624.982	410.46
625.326	448.76
625.67	397.69
626.013	346.62
626.357	364.49
626.701	305.77
627.044	387.48
627.388	346.62
627.731	331.3
628.075	354.28
628.418	346.62
628.762	305.77
629.105	387.48
629.448	390.03
629.792	400.24
630.135	367.05
630.478	418.12
630.821	351.73
631.164	341.51
631.507	285.34
631.85	377.26
632.193	397.69
632.536	364.49
632.879	384.92
633.221	397.69
633.564	453.86
633.907	397.69
634.249	333.85
634.592	405.35
634.935	428.33
635.277	349.17
635.619	377.26
635.962	395.14
636.304	369.6
636.646	428.33
636.989	413.01
637.331	382.37
637.673	425.78
638.015	361.94
638.357	418.12
638.699	390.03
639.041	405.35
639.383	359.39
639.725	379.81
640.067	356.83
640.408	387.48
640.75	364.49
641.092	372.15
641.433	315.98
641.775	387.48
642.116	351.73
642.458	476.84
642.799	349.17
643.141	356.83
643.482	387.48
643.823	405.35
644.164	374.71
644.506	453.86
644.847	407.9
645.188	305.77
645.529	344.07
645.87	349.17
646.211	338.96
646.552	392.58
646.893	361.94
647.233	405.35
647.574	407.9
647.915	382.37
648.255	338.96
648.596	379.81
648.937	415.56
649.277	407.9
649.618	405.35
649.958	418.12
650.298	392.58
650.639	430.88
650.979	407.9
651.319	369.6
651.659	377.26
651.999	441.1
652.339	326.19
652.679	418.12
653.019	382.37
653.359	423.22
653.699	392.58
654.039	361.94
654.379	418.12
654.719	349.17
655.058	369.6
655.398	384.92
655.737	481.95
656.077	392.58
656.416	402.8
656.756	361.94
657.095	400.24
657.435	438.54
657.774	400.24
658.113	349.17
658.452	405.35
658.792	356.83
659.131	433.44
659.47	443.65
659.809	433.44
660.148	405.35
660.487	418.12
660.826	420.67
661.164	328.75
661.503	384.92
661.842	338.96
662.181	428.33
662.519	438.54
662.858	305.77
663.196	435.99
663.535	428.33
663.873	382.37
664.212	356.83
664.55	418.12
664.888	369.6
665.226	448.76
665.565	374.71
665.903	622.39
666.241	331.3
666.579	397.69
666.917	423.22
667.255	390.03
667.593	453.86
667.931	512.59
668.268	377.26
668.606	359.39
668.944	418.12
669.282	405.35
669.619	402.8
669.957	377.26
670.294	484.5
670.632	428.33
670.969	395.14
671.307	430.88
671.644	418.12
671.981	395.14
672.318	428.33
672.656	395.14
672.993	438.54
673.33	372.15
673.667	451.31
674.004	356.83
674.341	369.6
674.678	377.26
675.015	451.31
675.351	418.12
675.688	423.22
676.025	397.69
676.362	423.22
676.698	377.26
677.035	407.9
677.371	466.63
677.708	392.58
678.044	359.39
678.38	448.76
678.717	356.83
679.053	354.28
679.389	384.92
679.725	341.51
680.062	418.12
680.398	367.05
680.734	410.46
681.07	420.67
681.406	313.43
681.742	336.41
682.077	331.3
682.413	341.51
682.749	361.94
683.085	338.96
683.42	341.51
683.756	338.96
684.091	400.24
684.427	435.99
684.762	402.8
685.098	349.17
685.433	341.51
685.768	305.77
686.104	349.17
686.439	390.03
686.774	418.12
687.109	410.46
687.444	397.69
687.779	367.05
688.114	234.27
688.449	361.94
688.784	428.33
689.119	474.29
689.454	407.9
689.789	351.73
690.123	390.03
690.458	407.9
690.792	333.85
691.127	377.26
691.461	395.14
691.796	402.8
692.13	448.76
692.465	415.56
692.799	423.22
693.133	441.1
693.467	446.2
693.802	469.18
694.136	405.35
694.47	344.07
694.804	402.8
695.138	384.92
695.472	392.58
695.806	328.75
696.139	435.99
696.473	369.6
696.807	410.46
697.141	379.81
697.474	407.9
697.808	446.2
698.141	413.01
698.475	392.58
698.808	336.41
699.142	331.3
699.475	354.28
699.808	374.71
700.142	395.14
700.475	382.37
700.808	333.85
701.141	441.1
701.474	400.24
701.807	354.28
702.14	359.39
702.473	333.85
702.806	331.3
703.139	397.69
703.472	354.28
703.804	377.26
704.137	262.36
704.47	410.46
704.802	413.01
705.135	390.03
705.467	367.05
705.8	359.39
706.132	336.41
706.464	415.56
706.797	382.37
707.129	377.26
707.461	351.73
707.793	413.01
708.125	384.92
708.457	441.1
708.789	387.48
709.121	405.35
709.453	374.71
709.785	390.03
710.117	361.94
710.449	372.15
710.781	395.14
711.112	410.46
711.444	428.33
711.775	390.03
712.107	481.95
712.438	390.03
712.77	433.44
713.101	377.26
713.433	382.37
713.764	356.83
714.095	377.26
714.426	303.21
714.757	392.58
715.089	425.78
715.42	407.9
715.751	407.9
716.082	359.39
716.412	354.28
716.743	349.17
717.074	351.73
717.405	392.58
717.736	392.58
718.066	441.1
718.397	407.9
718.727	430.88
719.058	359.39
719.388	476.84
719.719	402.8
720.049	356.83
720.38	392.58
720.71	377.26
721.04	410.46
721.37	354.28
721.7	413.01
722.031	298.11
722.361	336.41
722.691	377.26
723.021	430.88
723.35	359.39
723.68	387.48
724.01	433.44
724.34	448.76
724.67	443.65
724.999	438.54
725.329	418.12
725.658	369.6
725.988	367.05
726.317	333.85
726.647	407.9
726.976	377.26
727.306	433.44
727.635	402.8
727.964	369.6
728.293	372.15
728.622	423.22
728.952	451.31
729.281	425.78
729.61	397.69
729.939	451.31
730.267	395.14
730.596	372.15
730.925	395.14
731.254	377.26
731.583	341.51
731.911	400.24
732.24	379.81
732.568	323.64
732.897	377.26
733.225	364.49
733.554	346.62
733.882	341.51
734.21	344.07
734.539	392.58
734.867	420.67
735.195	413.01
735.523	364.49
735.851	446.2
736.179	313.43
736.507	413.01
736.835	390.03
737.163	364.49
737.491	364.49
737.819	390.03
738.147	390.03
738.474	397.69
738.802	384.92
739.13	400.24
739.457	402.8
739.785	321.09
740.112	382.37
740.44	410.46
740.767	418.12
741.094	338.96
741.422	333.85
741.749	379.81
742.076	356.83
742.403	392.58
742.73	310.87
743.057	359.39
743.384	372.15
743.711	372.15
744.038	359.39
744.365	374.71
744.692	341.51
745.018	374.71
745.345	420.67
745.672	407.9
745.998	349.17
746.325	435.99
746.651	338.96
746.978	372.15
747.304	428.33
747.631	397.69
747.957	400.24
748.283	356.83
748.61	400.24
748.936	413.01
749.262	361.94
749.588	351.73
749.914	407.9
750.24	433.44
750.566	405.35
750.892	374.71
751.218	364.49
751.543	382.37
751.869	405.35
752.195	400.24
752.521	390.03
752.846	359.39
753.172	369.6
753.497	390.03
753.823	382.37
754.148	346.62
754.473	367.05
754.799	361.94
755.124	346.62
755.449	435.99
755.774	382.37
756.1	428.33
756.425	379.81
756.75	367.05
757.075	379.81
757.4	548.34
757.724	433.44
758.049	367.05
758.374	392.58
758.699	351.73
759.024	354.28
759.348	379.81
759.673	367.05
759.997	359.39
760.322	313.43
760.646	405.35
760.971	367.05
761.295	382.37
761.619	402.8
761.944	344.07
762.268	395.14
762.592	315.98
762.916	395.14
763.24	384.92
763.564	379.81
763.888	369.6
764.212	382.37
764.536	400.24
764.86	400.24
765.184	372.15
765.508	382.37
765.831	384.92
766.155	591.75
766.478	397.69
766.802	430.88
767.126	430.88
767.449	359.39
767.772	346.62
768.096	392.58
768.419	351.73
768.742	413.01
769.066	377.26
769.389	453.86
769.712	441.1
770.035	354.28
770.358	303.21
770.681	413.01
771.004	328.75
771.327	351.73
771.65	395.14
771.972	415.56
772.295	415.56
772.618	418.12
772.941	369.6
773.263	390.03
773.586	349.17
773.908	369.6
774.231	382.37
774.553	361.94
774.875	382.37
775.198	438.54
775.52	377.26
775.842	318.53
776.164	390.03
776.487	415.56
776.809	377.26
777.131	448.76
777.453	351.73
777.775	397.69
778.096	430.88
778.418	382.37
778.74	453.86
779.062	451.31
779.384	361.94
779.705	397.69
780.027	318.53
780.348	338.96
780.67	310.87
780.991	374.71
781.313	397.69
781.634	397.69
781.955	438.54
782.277	379.81
782.598	349.17
782.919	418.12
783.24	310.87
783.561	448.76
783.882	382.37
784.203	382.37
784.524	372.15
784.845	446.2
785.166	443.65
785.487	405.35
785.807	430.88
786.128	374.71
786.449	384.92
786.769	420.67
787.09	374.71
787.41	326.19
787.731	400.24
788.051	430.88
788.372	382.37
788.692	308.32
789.012	326.19
789.332	372.15
789.653	382.37
789.973	395.14
790.293	326.19
790.613	321.09
790.933	441.1
791.253	425.78
791.573	430.88
791.893	423.22
792.212	364.49
792.532	321.09
792.852	328.75
793.171	351.73
793.491	354.28
793.811	405.35
794.13	384.92
794.45	397.69
794.769	333.85
795.088	369.6
795.408	318.53
795.727	354.28
796.046	321.09
796.365	405.35
796.684	438.54
797.004	448.76
797.323	400.24
797.642	405.35
797.96	420.67
798.279	377.26
798.598	428.33
798.917	438.54
799.236	446.2
799.554	356.83
799.873	387.48
800.192	351.73
800.51	423.22
800.829	441.1
801.147	433.44
801.466	448.76
801.784	395.14
802.102	471.74
802.421	361.94
